DTS Sentinel unit serial number:	SN413079Multiplexer serial number:	ORYXHardware model number:	OX4-SRSoftware version number:	ORYX F/W v4.00 Oryx Data Collector v3.7.2.0data status	okinstallation	princeton_trtdifferential loss correction	single-endedforward channel	channel 4reverse channel	N/Adate	2019/09/11time	13:43:11forward acquisition time	60.00reverse acquisition time	0.00gamma	496.2192k internal	0.2283k external	0.2283temperature offset calibration	1.0003default loss term (dB/km)	0.3790temperature slope calibration	1.0000multiplexer offset coefficient	1.0000multiplexer slope coefficient	1.0000fibre end	0.00T internal ref (°C)	41.94T ext. ref 1 (°C)	0.84T ext. ref 2 (°C)	36.85length (m)	temperature (°C)	Stokes	anti-Stokes-747.200	-67.326	-0.262	-0.106
-746.185	-200.000	0.009	-0.270
-745.171	274.824	0.083	-0.151
-744.156	411.648	0.227	0.495
-743.142	-98.560	0.084	-0.022
-742.127	246.839	-0.003	0.006
-741.112	228.192	0.061	0.103
-740.098	781.108	0.077	-0.217
-739.083	738.150	0.094	-0.258
-738.069	-30.119	0.228	0.133
-737.054	256.611	-0.123	-0.218
-736.039	42.640	-0.284	-0.266
-735.025	-200.000	0.028	-0.458
-734.010	43.030	-0.232	0.217
-732.996	48.519	-0.188	0.181
-731.981	-89.242	-0.358	-0.109
-730.966	106.391	-0.158	0.192
-729.952	-200.000	0.016	0.166
-728.937	-200.000	-0.017	-0.186
-727.923	-200.000	0.015	-0.196
-726.908	-52.944	-0.152	0.072
-725.894	-176.667	-0.146	0.004
-724.879	-200.000	0.048	-0.243
-723.864	518.954	-0.101	-0.242
-722.850	-68.361	0.221	-0.088
-721.835	800.000	-0.071	-0.211
-720.821	-3.545	0.222	-0.159
-719.806	-200.000	0.002	0.267
-718.791	8.141	0.027	-0.021
-717.777	61.756	0.063	0.064
-716.762	-3.486	0.168	-0.120
-715.748	256.781	0.105	-0.185
-714.733	86.649	0.055	0.062
-713.718	800.000	-0.089	-0.320
-712.704	-51.665	-0.237	-0.113
-711.689	544.530	0.038	0.094
-710.675	-64.077	-0.520	-0.218
-709.660	-200.000	-0.037	-0.310
-708.645	-200.000	-0.022	0.114
-707.631	-65.118	0.066	-0.027
-706.616	-84.842	-0.171	0.055
-705.602	26.069	0.310	-0.266
-704.587	-152.749	0.243	0.018
-703.572	165.052	-0.057	-0.082
-702.558	640.482	0.086	0.225
-701.543	42.102	0.139	-0.129
-700.529	-94.784	-0.091	0.025
-699.514	-63.368	0.119	-0.050
-698.499	-154.656	-0.177	-0.012
-697.485	-150.337	-0.118	-0.009
-696.470	-1.807	-0.046	0.033
-695.456	64.341	-0.338	0.349
-694.441	227.204	-0.174	-0.290
-693.426	-98.584	0.287	-0.075
-692.412	-200.000	-0.003	0.140
-691.397	630.338	0.026	-0.067
-690.383	368.842	-0.033	-0.068
-689.368	-125.007	0.381	-0.060
-688.354	-20.688	-0.174	-0.110
-687.339	-200.000	-0.019	-0.266
-686.324	-25.431	0.159	-0.097
-685.310	800.000	0.086	-0.326
-684.295	-124.774	0.178	-0.028
-683.281	44.634	0.075	-0.071
-682.266	39.571	-0.289	-0.265
-681.251	-200.000	0.005	-0.407
-680.237	195.999	0.096	-0.150
-679.222	-200.000	-0.008	-0.144
-678.208	148.747	0.144	-0.199
-677.193	-2.673	0.082	-0.059
-676.178	101.205	-0.193	-0.231
-675.164	-62.821	-0.251	0.107
-674.149	432.976	-0.133	-0.297
-673.135	152.371	0.047	0.065
-672.120	800.000	0.027	-0.103
-671.105	-200.000	-0.006	0.103
-670.091	-123.235	0.207	-0.034
-669.076	-76.759	-0.225	0.081
-668.062	800.000	0.001	-0.005
-667.047	-200.000	-0.025	0.252
-666.032	-120.547	-0.328	-0.057
-665.018	-127.938	-0.364	0.054
-664.003	800.000	0.070	-0.301
-662.989	-136.888	0.378	-0.044
-661.974	-149.288	-0.088	0.007
-660.959	-102.723	0.312	-0.076
-659.945	800.000	-0.059	-0.233
-658.930	254.871	0.050	-0.087
-657.916	-200.000	0.001	-0.149
-656.901	46.574	0.315	-0.299
-655.886	185.055	-0.178	-0.271
-654.872	227.962	0.145	0.242
-653.857	-78.155	-0.230	-0.081
-652.843	-134.047	-0.182	0.023
-651.828	153.305	-0.117	0.163
-650.814	161.449	0.354	0.508
-649.799	50.684	0.129	0.125
-648.784	77.873	-0.071	-0.077
-647.770	5.678	-0.128	-0.097
-646.755	0.159	-0.115	0.084
-645.741	-95.920	0.151	0.041
-644.726	-178.492	0.230	0.005
-643.711	-200.000	0.016	0.256
-642.697	119.598	0.166	-0.210
-641.682	205.895	0.103	-0.164
-640.668	-200.000	0.005	-0.189
-639.653	800.000	-0.116	-0.461
-638.638	-200.000	0.041	0.252
-637.624	-88.810	0.112	-0.034
-636.609	219.062	-0.083	0.135
-635.595	-14.015	0.080	-0.053
-634.580	-4.279	0.100	-0.071
-633.565	173.694	0.244	-0.360
-632.551	800.000	-0.110	-0.370
-631.536	54.386	-0.100	0.099
-630.522	800.000	-0.050	-0.166
-629.507	222.086	-0.165	-0.272
-628.492	99.870	-0.081	-0.096
-627.478	-26.831	0.105	0.063
-626.463	384.854	-0.076	-0.161
-625.449	439.292	-0.033	-0.073
-624.434	460.732	0.100	-0.228
-623.419	286.860	0.102	0.189
-622.405	3.091	-0.131	-0.098
-621.390	-200.000	0.004	-0.129
-620.376	-87.006	0.118	0.037
-619.361	25.492	0.175	-0.148
-618.346	-200.000	0.006	0.074
-617.332	-116.602	0.157	-0.030
-616.317	-200.000	0.000	-0.088
-615.303	-81.888	0.188	-0.063
-614.288	97.522	0.089	0.104
-613.273	-129.813	-0.058	-0.008
-612.259	189.955	-0.259	-0.397
-611.244	800.000	-0.064	-0.193
-610.230	-106.991	0.139	-0.031
-609.215	-88.345	-0.238	-0.073
-608.201	201.948	-0.059	0.094
-607.186	65.512	-0.052	0.053
-606.171	-152.845	-0.229	-0.017
-605.157	4.911	-0.239	-0.179
-604.142	656.536	-0.062	-0.163
-603.128	3.706	-0.181	0.135
-602.113	-104.519	0.093	-0.022
-601.098	-40.488	0.270	0.143
-600.084	119.345	-0.255	0.323
-599.069	69.454	0.143	0.150
-598.055	-96.122	0.396	0.107
-597.040	-200.000	0.233	-0.001
-596.025	-200.000	0.007	0.202
-595.011	-145.633	-0.203	-0.019
-593.996	53.440	0.184	-0.180
-592.982	555.627	0.076	0.187
-591.967	85.833	-0.157	0.177
-590.952	-29.745	0.101	0.059
-589.938	-200.000	0.013	0.089
-588.923	101.816	-0.046	0.054
-587.909	348.070	-0.100	-0.202
-586.894	800.000	-0.085	-0.294
-585.879	-39.641	0.327	-0.175
-584.865	-200.000	0.034	-0.259
-583.850	2.520	0.326	0.241
-582.836	-86.118	-0.073	0.023
-581.821	-72.555	-0.130	0.049
-580.806	122.040	-0.229	0.291
-579.792	-39.251	0.346	-0.185
-578.777	-139.413	-0.155	-0.017
-577.763	-200.000	-0.073	0.486
-576.748	75.471	-0.013	-0.014
-575.733	-97.645	0.200	0.053
-574.719	224.189	-0.085	-0.140
-573.704	-75.409	0.231	0.084
-572.690	-134.848	0.352	-0.044
-571.675	-11.587	-0.275	-0.185
-570.661	-69.431	-0.028	0.011
-569.646	-200.000	0.036	-0.181
-568.631	107.210	-0.118	-0.143
-567.617	-83.384	0.321	0.105
-566.602	-138.416	-0.239	-0.027
-565.588	-136.754	-0.279	0.033
-564.573	-96.649	-0.067	-0.018
-563.558	-23.360	-0.147	0.090
-562.544	800.000	0.111	-0.348
-561.529	-200.000	0.000	-0.130
-560.515	-200.000	-0.018	0.230
-559.500	28.626	0.283	0.245
-558.485	-58.685	0.375	0.166
-557.471	-187.279	0.130	-0.002
-556.456	-198.293	0.265	0.002
-555.442	-80.714	0.068	-0.023
-554.427	-200.000	-0.017	-0.279
-553.412	-54.790	-0.232	-0.107
-552.398	800.000	-0.029	-0.099
-551.383	800.000	0.038	-0.136
-550.369	-125.091	0.246	0.039
-549.354	22.260	-0.148	-0.124
-548.339	85.627	0.285	0.319
-547.325	-7.078	-0.152	0.105
-546.310	-82.793	0.267	-0.088
-545.296	338.688	0.132	0.262
-544.281	-103.826	-0.432	0.103
-543.266	-200.000	-0.062	-0.347
-542.252	4.579	-0.190	-0.142
-541.237	-95.703	-0.033	-0.009
-540.223	-128.674	-0.307	-0.044
-539.208	-97.735	-0.197	0.052
-538.193	211.967	0.184	0.295
-537.179	-104.415	-0.068	-0.016
-536.164	-104.665	0.119	-0.028
-535.150	245.528	0.079	0.136
-534.135	-143.658	-0.406	-0.039
-533.121	-200.000	-0.051	-0.305
-532.106	-105.867	-0.177	0.041
-531.091	800.000	0.032	0.099
-530.077	-95.416	-0.078	0.021
-529.062	34.788	0.310	0.276
-528.048	-112.028	-0.245	0.050
-527.033	-200.000	0.038	-0.214
-526.018	-200.000	-0.017	0.178
-525.004	-2.090	0.185	-0.132
-523.989	-1.355	-0.155	-0.111
-522.975	-200.000	0.008	0.057
-521.960	-95.032	0.270	-0.074
-520.945	391.701	0.050	-0.106
-519.931	-200.000	0.012	0.065
-518.916	142.990	-0.126	-0.171
-517.902	214.250	0.132	-0.213
-516.887	-144.207	-0.265	-0.025
-515.872	-111.481	-0.330	0.068
-514.858	-200.000	-0.013	-0.072
-513.843	104.798	-0.184	0.221
-512.829	-105.436	0.160	-0.037
-511.814	-79.606	0.432	-0.148
-510.799	154.431	0.166	0.233
-509.785	230.327	0.090	0.151
-508.770	800.000	0.041	0.123
-507.756	-129.449	-0.094	-0.013
-506.741	81.161	0.057	0.063
-505.726	-200.000	0.004	0.194
-504.712	-12.345	-0.372	0.248
-503.697	-200.000	-0.037	-0.251
-502.683	104.335	0.073	-0.088
-501.668	0.591	0.120	-0.088
-500.653	594.121	-0.026	0.065
-499.639	-87.567	0.133	-0.041
-498.624	-200.000	0.035	-0.267
-497.610	-122.235	-0.099	-0.017
-496.595	-93.556	-0.485	-0.136
-495.581	-129.954	-0.290	-0.040
-494.566	-183.364	0.224	0.004
-493.551	-112.793	-0.206	-0.042
-492.537	499.002	-0.072	0.169
-491.522	-124.160	-0.116	-0.019
-490.508	-174.822	-0.206	0.006
-489.493	344.764	-0.069	0.138
-488.478	74.676	-0.260	-0.278
-487.464	800.000	0.115	0.371
-486.449	-14.629	-0.202	0.132
-485.435	-81.151	-0.140	0.047
-484.420	63.567	-0.039	-0.040
-483.405	-200.000	-0.039	0.227
-482.391	134.438	-0.031	-0.041
-481.376	800.000	0.062	-0.199
-480.362	203.411	0.027	-0.043
-479.347	-18.493	0.090	-0.057
-478.332	-200.000	0.011	0.310
-477.318	800.000	-0.037	-0.138
-476.303	-15.777	-0.219	-0.142
-475.289	-166.780	-0.309	-0.013
-474.274	1.525	0.068	-0.050
-473.259	-200.000	0.014	0.148
-472.245	-163.361	0.351	0.017
-471.230	-31.443	0.123	-0.070
-470.216	481.169	-0.060	0.138
-469.201	-156.050	-0.169	-0.011
-468.186	720.003	0.052	0.142
-467.172	-200.000	-0.051	0.398
-466.157	800.000	0.070	0.223
-465.143	800.000	-0.117	0.348
-464.128	11.782	-0.007	-0.005
-463.113	199.837	-0.157	-0.244
-462.099	-200.000	0.078	-0.372
-461.084	732.973	-0.028	0.076
-460.070	-24.955	0.218	-0.132
-459.055	289.867	-0.052	-0.096
-458.040	290.450	-0.132	-0.243
-457.026	614.458	0.160	-0.407
-456.011	102.667	0.168	0.200
-454.997	32.156	0.150	0.131
-453.982	-200.000	-0.006	0.286
-452.968	24.255	0.179	0.150
-451.953	25.124	-0.151	-0.127
-450.938	-200.000	0.031	0.150
-449.924	172.823	0.140	-0.205
-448.909	113.574	0.152	0.188
-447.895	800.000	-0.059	-0.230
-446.880	800.000	0.052	-0.167
-445.865	31.250	0.290	-0.253
-444.851	162.359	0.128	0.183
-443.836	800.000	-0.105	0.329
-442.822	735.377	0.079	-0.215
-441.807	116.240	-0.047	0.058
-440.792	-200.000	-0.048	0.272
-439.778	-134.488	0.287	0.036
-438.763	-18.202	-0.092	0.058
-437.749	-108.477	-0.480	-0.105
-436.734	800.000	-0.044	0.142
-435.719	178.079	-0.075	0.111
-434.705	-47.549	-0.136	-0.067
-433.690	715.089	-0.135	0.364
-432.676	-62.091	0.344	0.146
-431.661	-157.359	0.121	0.007
-430.646	-200.000	-0.006	0.158
-429.632	-116.059	0.325	-0.061
-428.617	32.919	-0.254	0.224
-427.603	800.000	0.024	-0.074
-426.588	-178.123	0.152	0.004
-425.573	-126.874	-0.103	0.015
-424.559	-66.788	-0.023	-0.009
-423.544	132.502	-0.160	0.209
-422.530	-63.872	-0.230	0.095
-421.515	748.803	0.048	-0.131
-420.500	329.302	0.038	-0.074
-419.486	-164.536	0.253	0.012
-418.471	153.277	0.130	-0.180
-417.457	-148.787	-0.360	0.030
-416.442	-17.906	-0.412	-0.262
-415.428	-43.327	0.268	0.138
-414.413	198.433	-0.222	0.344
-413.398	118.390	-0.186	0.233
-412.384	-59.997	-0.459	-0.199
-411.369	-200.000	-0.004	0.046
-410.355	-26.197	0.076	0.045
-409.340	-26.230	0.368	0.219
-408.325	-47.353	0.131	0.064
-407.311	-115.434	0.119	-0.023
-406.296	67.958	-0.111	-0.115
-405.282	-200.000	-0.005	0.077
-404.267	45.119	0.228	-0.213
-403.252	-200.000	0.024	-0.232
-402.238	-19.336	0.123	0.078
-401.223	-200.000	0.010	0.092
-400.209	358.898	-0.111	-0.224
-399.194	27.882	0.180	0.154
-398.179	-30.086	0.364	-0.210
-397.165	63.044	0.104	-0.106
-396.150	-118.627	0.383	0.069
-395.136	158.958	-0.186	0.263
-394.121	-200.000	0.038	0.206
-393.106	-68.633	-0.033	-0.013
-392.092	800.000	0.104	0.437
-391.077	-95.752	0.320	-0.087
-390.063	227.728	-0.157	0.260
-389.048	-200.000	-0.017	0.122
-388.033	113.102	0.152	0.187
-387.019	115.375	-0.106	0.131
-386.004	-200.000	-0.076	0.358
-384.990	7.575	-0.183	0.139
-383.975	179.966	-0.166	-0.247
-382.960	-200.000	-0.136	-0.000
-381.946	448.690	-0.091	-0.204
-380.931	-200.000	0.015	0.423
-379.917	26.194	-0.172	0.145
-378.902	29.826	-0.237	-0.205
-377.888	-116.144	-0.059	0.011
-376.873	-106.224	0.145	0.033
-375.858	-28.334	0.220	0.129
-374.844	99.952	-0.232	-0.273
-373.829	-200.000	-0.008	0.042
-372.815	54.527	0.257	0.251
-371.800	48.451	-0.069	0.065
-370.785	800.000	0.128	-0.465
-369.771	-200.000	-0.026	-0.417
-368.756	-200.000	-0.081	-0.386
-367.742	800.000	-0.118	-0.381
-366.727	-50.470	0.201	-0.096
-365.712	-66.795	0.468	-0.188
-364.698	-53.324	-0.299	0.139
-363.683	-10.410	0.104	-0.070
-362.669	800.000	-0.083	-0.295
-361.654	-86.591	0.201	0.062
-360.639	333.363	0.111	0.216
-359.625	-200.000	-0.023	0.127
-358.610	-200.000	0.053	-0.355
-357.596	800.000	0.035	-0.107
-356.581	-103.073	-0.138	0.033
-355.566	-100.622	-0.079	0.020
-354.552	-11.140	0.117	-0.078
-353.537	-9.370	-0.209	0.141
-352.523	800.000	-0.064	0.210
-351.508	-92.514	-0.074	0.021
-350.493	-71.819	-0.011	0.004
-349.479	69.363	-0.201	-0.209
-348.464	82.050	0.128	0.140
-347.450	133.453	0.076	-0.100
-346.435	-200.000	0.045	-0.273
-345.420	-47.000	-0.290	0.143
-344.406	-119.295	0.106	0.019
-343.391	40.475	0.251	0.229
-342.377	-200.000	-0.039	-0.381
-341.362	-77.735	-0.289	0.101
-340.348	42.408	-0.202	-0.186
-339.333	800.000	-0.069	0.289
-338.318	-174.633	-0.282	0.008
-337.304	28.030	-0.063	-0.053
-336.289	510.119	0.154	-0.362
-335.275	26.845	0.259	-0.220
-334.260	8.154	0.085	0.064
-333.245	-152.312	0.212	-0.015
-332.231	800.000	-0.034	-0.122
-331.216	61.848	-0.083	0.084
-330.202	15.348	-0.190	0.150
-329.187	-38.668	0.319	-0.170
-328.172	800.000	-0.106	0.305
-327.158	392.413	-0.181	0.381
-326.143	800.000	-0.152	0.428
-325.129	151.785	0.105	-0.144
-324.114	800.000	-0.033	-0.115
-323.099	-200.000	0.027	0.271
-322.085	-9.240	0.130	-0.088
-321.070	216.494	-0.017	-0.027
-320.056	-200.000	0.014	-0.212
-319.041	-161.535	0.192	-0.010
-318.026	-1.759	0.172	0.122
-317.012	45.596	0.031	-0.029
-315.997	568.810	-0.102	-0.250
-314.983	800.000	0.055	0.188
-313.968	-136.138	-0.180	-0.021
-312.953	316.794	0.227	0.434
-311.939	-173.442	-0.140	0.004
-310.924	-200.000	0.002	-0.187
-309.910	-93.016	-0.079	-0.022
-308.895	-200.000	-0.031	-0.161
-307.880	800.000	0.069	-0.203
-306.866	-200.000	0.107	0.478
-305.851	68.740	0.281	-0.291
-304.837	-57.030	-0.172	-0.077
-303.822	-200.000	0.011	0.371
-302.807	-34.156	-0.327	0.181
-301.793	800.000	0.032	-0.115
-300.778	13.907	0.037	-0.029
-299.764	-67.226	-0.247	-0.098
-298.749	303.185	-0.078	-0.147
-297.735	-30.962	0.064	0.036
-296.720	800.000	0.099	-0.371
-295.705	-17.809	0.355	-0.225
-294.691	47.827	-0.067	-0.064
-293.676	-183.231	-0.166	0.003
-292.662	10.354	0.366	0.281
-291.647	374.965	-0.111	-0.229
-290.632	800.000	-0.080	-0.329
-289.618	21.950	-0.231	0.190
-288.603	-117.109	-0.203	-0.037
-287.589	105.088	0.160	0.191
-286.574	430.445	0.042	0.092
-285.559	657.996	-0.087	0.225
-284.545	6.985	-0.046	0.035
-283.530	72.162	-0.280	0.295
-282.516	-90.925	0.271	-0.079
-281.501	-56.800	0.147	-0.066
-280.486	-69.437	-0.102	-0.039
-279.472	635.667	-0.023	-0.060
-278.457	-151.486	-0.100	0.007
-277.443	800.000	0.079	-0.253
-276.428	134.779	0.184	0.240
-275.413	782.081	0.066	0.181
-274.399	109.114	0.152	-0.184
-273.384	288.426	0.099	-0.181
-272.370	390.922	0.034	-0.071
-271.355	-200.000	0.035	-0.227
-270.340	6.963	0.306	-0.230
-269.326	8.111	0.125	0.095
-268.311	262.419	-0.128	-0.223
-267.297	800.000	-0.066	0.184
-266.282	-67.217	-0.223	0.089
-265.267	-4.630	0.147	0.102
-264.253	115.756	0.119	-0.147
-263.238	29.683	0.344	-0.295
-262.224	800.000	0.063	0.224
-261.209	-175.671	0.202	-0.005
-260.195	-200.000	0.058	0.362
-259.180	-90.161	0.282	-0.083
-258.165	376.744	-0.079	-0.163
-257.151	-55.736	-0.223	-0.101
-256.136	-96.013	-0.473	-0.127
-255.122	311.164	-0.063	0.120
-254.107	25.551	-0.153	0.129
-253.092	59.509	-0.041	0.040
-252.078	-200.000	0.004	0.398
-251.063	474.272	0.140	0.317
-250.049	-200.000	0.011	0.081
-249.034	800.000	0.067	-0.206
-248.019	1.274	0.067	-0.048
-247.005	-75.992	-0.443	0.158
-245.990	-200.000	0.036	-0.187
-244.976	143.552	-0.218	-0.293
-243.961	-110.339	-0.187	0.039
-242.946	38.724	-0.223	0.201
-241.932	46.003	-0.187	-0.174
-240.917	-200.000	0.009	0.361
-239.903	-88.165	-0.283	-0.086
-238.888	-117.530	-0.186	0.034
-237.873	48.913	-0.185	-0.175
-236.859	-86.668	-0.272	-0.084
-235.844	-83.504	0.172	0.055
-234.830	141.249	-0.082	-0.109
-233.815	-6.146	0.125	-0.086
-232.800	93.923	0.265	0.303
-231.786	217.709	0.041	-0.066
-230.771	-93.934	0.317	-0.088
-229.757	800.000	-0.011	0.043
-228.742	18.058	-0.167	-0.134
-227.727	563.728	0.117	-0.285
-226.713	-186.641	0.259	0.004
-225.698	-73.873	0.108	0.040
-224.684	-200.000	-0.008	0.123
-223.669	99.613	0.261	0.305
-222.655	800.000	0.061	0.247
-221.640	800.000	-0.057	-0.176
-220.625	-87.371	0.109	-0.033
-219.611	182.649	-0.180	0.267
-218.596	25.344	-0.084	0.070
-217.582	-200.000	-0.036	0.275
-216.567	271.052	-0.068	0.120
-215.552	-14.487	-0.125	0.081
-214.538	800.000	-0.040	0.164
-213.523	-152.945	-0.074	0.005
-212.509	-121.699	0.290	-0.048
-211.494	800.000	0.078	-0.273
-210.479	-78.187	-0.223	0.077
-209.465	-87.479	0.242	-0.074
-208.450	-200.000	-0.018	0.123
-207.436	524.507	-0.065	0.154
-206.421	-94.439	0.199	-0.055
-205.406	175.761	0.089	-0.130
-204.392	208.550	0.118	-0.185
-203.377	800.000	-0.016	-0.067
-202.363	800.000	-0.119	0.341
-201.348	-31.852	0.266	0.150
-200.333	2.238	0.209	0.152
-199.319	43.974	-0.291	0.269
-198.304	-168.519	-0.624	0.024
-197.290	-36.279	0.163	-0.088
-196.275	270.695	0.107	-0.189
-195.260	238.127	0.118	0.197
-194.246	230.578	-0.027	-0.044
-193.231	513.441	0.084	-0.198
-192.217	-200.000	-0.030	0.178
-191.202	44.142	-0.074	-0.069
-190.187	-200.000	0.013	0.191
-189.173	194.691	0.048	-0.073
-188.158	206.119	0.232	-0.363
-187.144	-105.151	-0.173	-0.040
-186.129	800.000	-0.059	0.202
-185.114	-200.000	0.050	-0.225
-184.100	-200.000	0.004	-0.288
-183.085	261.203	0.236	-0.410
-182.071	103.476	0.247	-0.292
-181.056	-200.000	-0.006	-0.208
-180.042	375.042	0.107	0.220
-179.027	233.490	0.123	0.203
-178.012	-200.000	0.023	0.251
-176.998	112.036	0.064	0.077
-175.983	115.280	-0.217	0.266
-174.969	659.896	0.070	-0.181
-173.954	-67.237	0.315	0.125
-172.939	59.889	-0.192	0.191
-171.925	-57.234	-0.392	-0.174
-170.910	15.194	0.123	0.097
-169.896	418.551	-0.076	-0.163
-168.881	-200.000	0.041	-0.271
-167.866	-78.259	-0.278	0.096
-166.852	-18.682	-0.218	-0.137
-165.837	-11.467	-0.140	0.093
-164.823	-24.729	-0.176	0.105
-163.808	526.637	0.116	0.275
-162.793	-28.559	-0.208	-0.120
-161.779	174.518	0.139	-0.202
-160.764	101.718	-0.069	0.081
-159.750	-100.240	0.077	-0.019
-158.735	-157.574	0.423	0.025
-157.720	-200.000	-0.011	-0.098
-156.706	1.047	0.184	0.132
-155.691	776.234	-0.065	0.179
-154.677	34.709	-0.097	-0.085
-153.662	194.311	0.104	-0.159
-152.647	37.816	-0.229	-0.204
-151.633	-97.225	-0.359	0.094
-150.618	23.231	0.221	0.182
-149.604	-64.659	0.152	0.062
-148.589	-9.635	-0.272	0.182
-147.574	-9.674	0.163	-0.109
-146.560	-102.295	0.292	0.070
-145.545	-91.230	0.061	0.018
-144.531	-11.449	-0.076	-0.050
-143.516	180.071	0.157	0.231
-142.502	-73.388	0.278	0.102
-141.487	-79.580	0.311	0.105
-140.472	89.081	0.020	-0.022
-139.458	-75.488	-0.359	-0.128
-138.443	27.964	0.017	-0.015
-137.429	-99.950	0.207	0.052
-136.414	-169.298	-0.182	-0.007
-135.399	273.774	-0.093	0.165
-134.385	800.000	0.096	0.295
-133.370	-86.463	0.178	0.055
-132.356	62.328	-0.184	-0.184
-131.341	-76.299	0.160	-0.056
-130.326	195.926	0.053	0.080
-129.312	-76.552	-0.177	-0.062
-128.297	713.952	-0.147	-0.390
-127.283	188.693	0.079	-0.119
-126.268	339.926	0.134	-0.263
-125.253	-65.520	-0.339	0.136
-124.239	-75.875	0.242	0.086
-123.224	-200.000	0.034	-0.158
-122.210	-145.617	-0.055	-0.005
-121.195	800.000	-0.108	0.307
-120.180	-200.000	0.001	0.280
-119.166	-147.355	-0.200	0.017
-118.151	800.000	-0.124	-0.429
-117.137	-51.547	0.195	-0.091
-116.122	-200.000	0.435	-0.001
-115.107	-61.869	0.139	0.058
-114.093	-40.143	-0.132	0.069
-113.078	233.690	-0.058	-0.096
-112.064	34.458	0.071	0.062
-111.049	-61.189	0.191	-0.081
-110.034	222.421	0.067	-0.109
-109.020	-26.524	0.317	0.186
-108.005	800.000	-0.048	0.205
-106.991	-129.231	0.339	-0.047
-105.976	-200.000	0.033	0.151
-104.962	595.076	0.161	0.400
-103.947	231.294	0.102	-0.168
-102.932	-5.533	0.153	-0.105
-101.918	7.164	0.143	-0.107
-100.903	121.199	-0.035	0.044
-99.889	-83.803	-0.235	-0.075
-98.874	-146.120	0.367	-0.032
-97.859	-126.743	0.241	0.036
-96.845	407.349	-0.083	0.176
-95.830	-30.769	-0.372	-0.211
-94.816	-40.033	-0.269	0.140
-93.801	373.492	-0.065	-0.132
-92.786	-115.014	0.099	0.019
-91.772	-132.830	-0.158	-0.020
-90.757	-84.966	-0.111	0.035
-89.743	-79.476	0.083	-0.028
-88.728	-200.000	-0.023	-0.244
-87.713	595.213	-0.063	-0.156
-86.699	-87.596	-0.125	0.038
-85.684	-18.729	0.059	0.037
-84.670	800.000	-0.031	0.112
-83.655	-200.000	-0.015	0.411
-82.640	146.076	0.223	0.300
-81.626	18.834	0.049	-0.039
-80.611	36.945	-0.117	0.104
-79.597	-99.689	0.096	0.024
-78.582	302.720	-0.073	-0.135
-77.567	-69.027	0.161	0.062
-76.553	-147.544	0.103	0.009
-75.538	-99.650	0.383	-0.096
-74.524	51.452	-0.192	0.183
-73.509	187.132	0.151	-0.225
-72.494	70.663	0.277	-0.287
-71.480	270.248	-0.129	0.227
-70.465	223.441	0.177	0.286
-69.451	-46.518	0.225	0.111
-68.436	91.791	0.026	0.030
-67.422	-200.000	-0.031	-0.186
-66.407	18.330	-0.118	-0.094
-65.392	-82.905	0.308	0.100
-64.378	-200.000	0.011	-0.103
-63.363	-187.800	0.131	0.002
-62.349	90.378	0.102	0.114
-61.334	-30.376	-1.012	-0.575
-60.319	-200.000	0.070	0.394
-59.305	-200.000	0.060	-0.715
-58.290	403.430	0.290	0.611
-57.276	450.006	0.694	1.531
-56.261	-200.000	75.887	529.163
-55.246	550.863	1307.946	3139.129
-54.232	143.759	2554.846	3405.541
-53.217	110.107	2381.244	2859.038
-52.203	49.180	2120.507	1993.211
-51.188	44.012	2028.022	1858.980
-50.173	42.183	2009.675	1825.449
-49.159	54.500	2047.847	1973.399
-48.144	59.312	2068.074	2036.973
-47.130	44.703	2032.937	1869.539
-46.115	41.959	2021.456	1833.802
-45.100	41.832	2018.259	1829.670
-44.086	41.846	2016.428	1828.065
-43.071	41.794	2013.981	1825.302
-42.057	41.769	2011.504	1822.753
-41.042	41.823	2009.543	1821.400
-40.027	41.814	2007.984	1819.828
-39.013	41.886	2004.881	1817.601
-37.998	41.803	2003.962	1815.941
-36.984	41.827	2002.340	1814.615
-35.969	41.831	2000.369	1812.797
-34.954	41.920	1998.336	1811.688
-33.940	41.910	1997.067	1810.373
-32.925	41.892	1995.967	1809.141
-31.911	41.939	1993.614	1807.358
-30.896	41.959	1991.688	1805.720
-29.881	41.932	1990.390	1804.234
-28.867	42.029	1988.409	1803.236
-27.852	42.034	1986.583	1801.552
-26.838	42.040	1984.594	1799.737
-25.823	41.981	1982.976	1797.664
-24.809	41.972	1981.098	1795.814
-23.794	42.055	1979.229	1794.789
-22.779	42.030	1977.590	1793.010
-21.765	41.978	1975.872	1790.915
-20.750	41.942	1974.449	1789.227
-19.736	41.910	1973.178	1787.723
-18.721	41.927	1972.010	1786.745
-17.706	41.973	1969.906	1785.182
-16.692	41.889	1968.674	1783.240
-15.677	41.926	1966.721	1781.734
-14.663	41.991	1964.458	1780.187
-13.648	41.934	1963.918	1779.126
-12.633	41.973	1962.543	1778.149
-11.619	41.961	1961.166	1776.731
-10.604	41.917	1959.630	1774.874
-9.590	41.899	1958.555	1773.669
-8.575	41.898	1957.227	1772.386
-7.560	42.019	1955.057	1771.424
-6.546	42.002	1954.064	1770.307
-5.531	41.945	1953.310	1769.049
-4.517	41.965	1951.950	1767.921
-3.502	41.973	1950.755	1766.837
-2.487	41.866	1950.083	1765.217
-1.473	41.960	1948.581	1764.616
-0.458	42.027	1944.481	1761.425
0.556	40.912	1924.694	1735.939
1.571	36.776	1904.417	1681.662
2.586	32.609	1926.264	1664.094
3.600	31.279	1964.307	1684.827
4.615	30.312	1960.801	1672.959
5.629	22.727	1853.546	1516.387
6.644	8.943	1719.433	1295.879
7.659	1.551	1673.525	1202.858
8.673	0.912	1669.744	1194.991
9.688	0.887	1667.709	1193.229
10.702	0.791	1666.293	1191.358
11.717	0.780	1663.184	1188.947
12.731	1.092	1663.678	1191.647
13.746	9.193	1683.826	1270.233
14.761	20.770	1709.050	1381.548
15.775	24.603	1715.064	1416.745
16.790	24.505	1713.127	1414.247
17.804	24.557	1713.031	1414.450
18.819	24.522	1712.310	1413.454
19.834	24.565	1711.961	1413.381
20.848	24.870	1710.889	1414.785
21.863	24.789	1709.927	1413.225
22.877	24.878	1708.965	1413.007
23.892	24.849	1707.672	1411.583
24.907	24.823	1707.426	1411.051
25.921	24.806	1706.511	1410.034
26.936	24.815	1704.991	1408.720
27.950	24.788	1704.388	1407.886
28.965	24.846	1703.690	1407.644
29.980	24.907	1702.458	1406.979
30.994	24.777	1701.516	1405.056
32.009	24.826	1700.061	1404.116
33.023	24.890	1699.041	1403.647
34.038	24.836	1698.418	1402.585
35.053	24.849	1696.811	1401.235
36.067	24.903	1695.793	1400.697
37.082	24.916	1695.069	1400.075
38.096	24.841	1694.197	1398.643
39.111	24.833	1693.118	1397.567
40.126	24.866	1692.559	1397.242
41.140	24.864	1691.773	1396.454
42.155	24.849	1690.425	1395.098
43.169	24.829	1689.916	1394.400
44.184	24.814	1688.762	1393.207
45.199	24.815	1687.482	1392.033
46.213	24.784	1686.217	1390.630
47.228	24.778	1685.195	1389.613
48.242	24.832	1683.764	1388.730
49.257	24.796	1683.177	1387.849
50.271	24.839	1681.420	1386.609
51.286	24.866	1680.516	1385.945
52.301	24.870	1678.641	1384.313
53.315	24.864	1677.888	1383.518
54.330	24.834	1676.448	1381.975
55.344	24.855	1674.722	1380.594
56.359	24.875	1673.408	1379.546
57.374	24.817	1672.542	1378.261
58.388	24.855	1671.934	1377.934
59.403	24.974	1670.152	1377.255
60.417	24.846	1669.197	1375.365
61.432	24.853	1668.283	1374.544
62.447	24.890	1667.102	1373.727
63.461	24.896	1665.985	1372.732
64.476	24.865	1665.301	1371.815
65.490	24.917	1664.197	1371.183
66.505	24.840	1663.195	1369.646
67.520	24.879	1661.851	1368.710
68.534	24.878	1661.287	1368.123
69.549	24.886	1660.169	1367.140
70.563	24.878	1658.887	1365.902
71.578	24.952	1657.379	1365.107
72.593	24.909	1656.834	1364.204
73.607	24.896	1655.905	1363.221
74.622	24.893	1654.880	1362.233
75.636	24.853	1654.035	1361.114
76.651	24.958	1653.020	1360.954
77.666	24.933	1652.403	1360.140
78.680	24.885	1651.509	1358.914
79.695	24.950	1650.483	1358.448
80.709	24.914	1649.598	1357.324
81.724	24.895	1648.848	1356.442
82.739	24.977	1647.976	1356.228
83.753	24.909	1647.315	1355.048
84.768	24.867	1645.917	1353.464
85.782	24.838	1645.169	1352.504
86.797	24.886	1644.241	1351.985
87.812	24.934	1643.296	1351.449
88.826	25.018	1641.835	1350.763
89.841	24.886	1641.348	1349.250
90.855	24.894	1640.535	1348.523
91.870	24.926	1639.018	1347.398
92.884	24.939	1637.750	1346.336
93.899	25.024	1637.084	1346.302
94.914	24.985	1635.900	1344.916
95.928	24.948	1634.695	1343.531
96.943	24.956	1633.690	1342.647
97.957	24.920	1632.112	1340.961
98.972	25.089	1630.545	1340.821
99.987	24.937	1629.631	1338.813
101.001	24.881	1628.630	1337.455
102.016	24.918	1626.804	1336.111
103.030	24.905	1625.024	1334.434
104.045	24.859	1624.442	1333.500
105.060	24.863	1623.236	1332.418
106.074	24.969	1621.727	1331.850
107.089	24.976	1620.445	1330.731
108.103	24.967	1619.641	1329.886
109.118	24.904	1618.792	1328.604
110.133	25.007	1617.325	1328.045
111.147	24.950	1616.082	1326.486
112.162	24.967	1615.297	1325.848
113.176	24.942	1614.042	1324.518
114.191	24.998	1612.687	1323.701
115.206	25.089	1611.762	1323.500
116.220	25.014	1610.335	1321.655
117.235	24.970	1609.185	1320.270
118.249	25.004	1608.104	1319.520
119.264	25.018	1607.071	1318.654
120.279	24.911	1605.874	1316.768
121.293	24.964	1604.530	1315.945
122.308	25.147	1603.064	1315.968
123.322	24.997	1602.435	1314.236
124.337	25.032	1600.889	1313.106
125.352	25.020	1600.040	1312.207
126.366	25.017	1599.500	1311.621
127.381	25.063	1598.320	1310.876
128.395	25.007	1597.405	1309.598
129.410	25.069	1596.038	1308.818
130.424	25.094	1594.802	1307.871
131.439	25.087	1593.549	1306.675
132.454	25.042	1592.730	1305.561
133.468	25.007	1591.442	1304.134
134.483	25.088	1590.121	1303.526
135.497	25.092	1588.922	1302.455
136.512	25.091	1587.897	1301.490
137.527	25.153	1586.539	1300.713
138.541	25.094	1585.572	1299.382
139.556	25.058	1584.580	1298.192
140.570	25.105	1583.303	1297.373
141.585	25.050	1582.193	1295.947
142.600	25.092	1580.604	1294.835
143.614	25.072	1580.084	1294.151
144.629	25.086	1578.549	1292.883
145.643	25.109	1576.978	1291.641
146.658	25.092	1575.778	1290.425
147.673	25.063	1574.588	1289.126
148.687	25.097	1573.423	1288.305
149.702	25.099	1572.102	1287.122
150.716	25.065	1571.040	1285.897
151.731	25.031	1570.217	1284.866
152.746	25.031	1569.039	1283.784
153.760	25.133	1567.595	1283.222
154.775	24.972	1567.066	1281.523
155.789	25.099	1565.505	1281.044
156.804	25.062	1564.519	1279.859
157.819	25.064	1563.175	1278.659
158.833	25.059	1562.446	1277.910
159.848	25.062	1561.433	1276.994
160.862	25.040	1561.014	1276.381
161.877	25.118	1559.572	1275.645
162.892	25.186	1558.046	1274.763
163.906	25.212	1557.584	1274.457
164.921	25.202	1556.298	1273.224
165.935	25.157	1555.423	1272.076
166.950	25.213	1554.763	1271.818
167.964	25.216	1553.695	1270.854
168.979	25.170	1552.795	1269.678
169.994	25.221	1551.546	1268.912
171.008	25.216	1550.815	1268.161
172.023	25.138	1549.983	1266.818
173.037	25.254	1548.592	1266.388
174.052	25.267	1547.402	1265.397
175.067	25.189	1547.030	1264.432
176.081	25.170	1546.069	1263.401
177.096	25.207	1544.794	1262.507
178.110	25.131	1544.045	1261.249
179.125	25.239	1542.765	1260.846
180.140	25.229	1542.033	1260.070
181.154	25.138	1541.694	1259.041
182.169	25.279	1541.087	1259.422
183.183	25.209	1538.965	1257.089
184.198	25.240	1537.688	1256.148
185.213	25.246	1537.384	1255.829
186.227	25.205	1536.315	1254.559
187.242	25.191	1535.963	1254.068
188.256	25.354	1535.003	1254.308
189.271	25.258	1534.361	1253.003
190.286	25.288	1533.297	1252.233
191.300	25.362	1532.476	1251.964
192.315	25.350	1531.254	1250.778
193.329	25.194	1530.790	1249.200
194.344	25.231	1529.963	1248.672
195.359	25.268	1529.195	1248.187
196.373	25.278	1527.842	1247.044
197.388	25.388	1526.972	1246.987
198.402	25.316	1525.824	1245.441
199.417	25.172	1525.189	1243.814
200.432	25.180	1524.726	1243.379
201.446	25.257	1523.676	1242.951
202.461	25.224	1523.041	1242.095
203.475	25.226	1522.242	1241.345
204.490	25.149	1521.419	1240.032
205.504	25.187	1520.445	1239.388
206.519	25.231	1519.704	1238.980
207.534	25.325	1518.436	1238.487
208.548	25.308	1517.932	1237.849
209.563	25.323	1516.907	1237.004
210.577	25.299	1516.105	1236.075
211.592	25.283	1515.475	1235.343
212.607	25.363	1514.365	1234.883
213.621	25.355	1514.011	1234.425
214.636	25.406	1513.131	1233.949
215.650	25.393	1512.282	1233.057
216.665	25.390	1511.358	1232.173
217.680	25.350	1510.945	1231.459
218.694	25.429	1509.670	1230.850
219.709	25.435	1508.988	1230.226
220.723	25.538	1507.828	1229.877
221.738	25.458	1507.043	1228.583
222.753	25.372	1506.560	1227.493
223.767	25.347	1505.856	1226.638
224.782	25.420	1504.812	1226.175
225.796	25.378	1503.770	1224.929
226.811	25.485	1503.199	1225.088
227.826	25.466	1502.339	1224.149
228.840	25.471	1501.791	1223.626
229.855	25.525	1500.825	1223.099
230.869	25.490	1500.014	1222.092
231.884	25.517	1498.983	1221.330
232.899	25.475	1497.832	1219.998
233.913	25.454	1496.506	1218.669
234.928	25.462	1496.049	1218.240
235.942	25.455	1495.129	1217.334
236.957	25.530	1493.931	1216.760
237.972	25.582	1492.732	1216.029
238.986	25.587	1491.633	1215.060
240.001	25.630	1491.059	1214.772
241.015	25.552	1490.005	1213.283
242.030	25.673	1488.707	1212.931
243.045	25.693	1488.089	1212.455
244.059	25.680	1487.032	1211.400
245.074	25.618	1486.476	1210.422
246.088	25.699	1485.789	1210.301
247.103	25.761	1484.647	1209.682
248.117	25.631	1484.147	1208.295
249.132	25.620	1483.659	1207.714
250.147	25.638	1483.030	1207.220
251.161	25.634	1482.292	1206.486
252.176	25.765	1481.562	1206.661
253.190	25.731	1480.995	1205.862
254.205	25.780	1479.783	1205.096
255.220	25.837	1478.605	1204.414
256.234	25.811	1478.101	1203.720
257.249	25.647	1477.449	1201.991
258.263	25.725	1476.792	1201.868
259.278	25.719	1475.873	1200.978
260.293	25.824	1474.853	1200.741
261.307	25.719	1474.406	1199.569
262.322	25.817	1473.396	1199.292
263.336	25.814	1472.849	1198.725
264.351	25.834	1471.783	1197.881
265.366	25.803	1470.881	1196.836
266.380	25.808	1470.148	1196.165
267.395	25.750	1469.112	1194.835
268.409	25.800	1468.831	1194.830
269.424	25.824	1467.568	1193.859
270.439	25.821	1466.439	1192.813
271.453	25.808	1465.436	1191.805
272.468	25.903	1464.803	1191.817
273.482	25.828	1464.228	1190.747
274.497	25.792	1463.560	1189.861
275.512	25.897	1462.333	1189.450
276.526	25.976	1461.628	1189.291
277.541	25.956	1460.847	1188.418
278.555	25.979	1459.552	1187.410
279.570	25.949	1458.941	1186.608
280.585	25.992	1458.384	1186.334
281.599	25.945	1457.683	1185.351
282.614	25.955	1456.766	1184.570
283.628	25.892	1455.643	1183.138
284.643	26.003	1454.514	1182.838
285.657	25.989	1454.085	1182.298
286.672	25.974	1453.144	1181.328
287.687	25.934	1452.630	1180.540
288.701	25.930	1451.749	1179.699
289.716	25.999	1450.959	1179.404
290.730	26.028	1450.380	1179.019
291.745	25.979	1449.397	1177.790
292.760	25.934	1448.747	1176.864
293.774	26.046	1447.119	1176.170
294.789	26.032	1446.498	1175.469
295.803	26.114	1445.875	1175.396
296.818	26.032	1445.496	1174.450
297.833	26.015	1444.137	1173.127
298.847	26.061	1443.539	1172.841
299.862	26.052	1442.826	1172.097
300.876	26.185	1441.668	1171.917
301.891	26.100	1441.002	1170.723
302.906	26.136	1440.053	1170.080
303.920	26.177	1439.505	1169.794
304.935	26.206	1438.891	1169.383
305.949	26.157	1438.068	1168.294
306.964	26.178	1437.190	1167.611
307.979	26.169	1436.123	1166.579
308.993	26.202	1435.611	1166.274
310.008	26.209	1434.748	1165.515
311.022	26.260	1433.766	1164.947
312.037	26.300	1432.519	1164.088
313.052	26.260	1431.942	1163.255
314.066	26.110	1431.644	1161.944
315.081	26.280	1429.931	1161.549
316.095	26.245	1429.187	1160.611
317.110	26.198	1428.436	1159.600
318.125	26.253	1427.507	1159.093
319.139	26.265	1426.705	1158.420
320.154	26.334	1425.786	1158.015
321.168	26.385	1424.840	1157.471
322.183	26.431	1423.499	1156.569
323.197	26.324	1423.008	1155.386
324.212	26.298	1422.933	1155.056
325.227	26.258	1421.732	1153.726
326.241	26.373	1420.491	1153.349
327.256	26.449	1419.817	1153.181
328.270	26.513	1418.647	1152.540
329.285	26.460	1418.172	1151.714
330.300	26.342	1417.618	1150.410
331.314	26.372	1417.000	1149.999
332.329	26.468	1416.163	1149.828
333.343	26.315	1415.161	1147.939
334.358	26.444	1414.382	1148.025
335.373	26.485	1413.923	1147.814
336.387	26.579	1412.744	1147.348
337.402	26.551	1412.201	1146.629
338.416	26.530	1411.892	1146.146
339.431	26.554	1411.290	1145.704
340.446	26.613	1410.404	1145.256
341.460	26.594	1409.933	1144.655
342.475	26.664	1408.713	1144.004
343.489	26.639	1407.767	1142.978
344.504	26.710	1406.684	1142.441
345.519	26.596	1406.332	1141.339
346.533	26.641	1405.040	1140.472
347.548	26.695	1403.864	1139.755
348.562	26.632	1403.563	1139.015
349.577	26.613	1402.961	1138.303
350.592	26.696	1402.034	1137.975
351.606	26.690	1401.143	1137.111
352.621	26.676	1399.670	1135.726
353.635	26.603	1399.284	1134.858
354.650	26.651	1398.639	1134.534
355.665	26.725	1397.656	1134.103
356.679	26.695	1396.429	1132.816
357.694	26.739	1395.396	1132.156
358.708	26.734	1394.689	1131.450
359.723	26.729	1393.750	1130.556
360.738	26.717	1392.550	1129.407
361.752	26.696	1391.216	1128.092
362.767	26.667	1390.264	1127.039
363.781	26.811	1389.378	1127.119
364.796	26.707	1388.908	1125.991
365.810	26.826	1388.109	1125.981
366.825	26.827	1387.340	1125.270
367.840	26.827	1386.632	1124.591
368.854	26.934	1385.946	1124.600
369.869	26.887	1385.157	1123.568
370.883	26.856	1384.521	1122.765
371.898	26.830	1384.079	1122.141
372.913	26.921	1383.192	1121.890
373.927	26.855	1382.716	1120.992
374.942	26.911	1381.334	1120.119
375.956	26.986	1380.775	1120.029
376.971	27.003	1379.961	1119.376
377.986	26.964	1378.922	1118.196
379.000	26.736	1378.978	1116.736
380.015	26.840	1378.433	1116.839
381.029	26.943	1377.474	1116.595
382.044	27.018	1377.064	1116.623
383.059	27.004	1375.810	1115.425
384.073	26.974	1375.323	1114.742
385.088	27.043	1374.783	1114.634
386.102	27.030	1374.214	1113.991
387.117	27.024	1373.725	1113.463
388.132	26.994	1372.829	1112.452
389.146	27.060	1371.639	1111.794
390.161	27.081	1371.255	1111.512
391.175	27.063	1370.743	1110.889
392.190	27.019	1370.251	1110.122
393.205	27.123	1369.171	1109.785
394.219	27.025	1368.282	1108.365
395.234	27.117	1366.943	1107.748
396.248	27.114	1366.315	1107.120
397.263	27.300	1364.763	1106.897
398.278	27.146	1364.170	1105.384
399.292	27.165	1363.462	1104.825
400.307	27.202	1362.465	1104.144
401.321	27.225	1361.388	1103.316
402.336	27.271	1360.407	1102.703
403.350	27.095	1359.405	1100.723
404.365	27.153	1358.277	1100.062
405.380	27.257	1357.764	1100.178
406.394	27.245	1356.872	1099.288
407.409	27.326	1355.956	1098.937
408.423	27.332	1355.554	1098.553
409.438	27.456	1354.960	1098.718
410.453	27.420	1354.543	1098.066
411.467	27.324	1353.733	1096.733
412.482	27.372	1352.891	1096.245
413.496	27.365	1352.129	1095.491
414.511	27.412	1351.373	1095.063
415.526	27.467	1350.454	1094.552
416.540	27.316	1350.323	1093.439
417.555	27.442	1349.077	1093.089
418.569	27.443	1348.756	1092.738
419.584	27.421	1348.509	1092.311
420.599	27.401	1347.823	1091.539
421.613	77.441	1324.370	1357.436
422.628	78.131	1320.943	1357.574
