DTS Sentinel unit serial number:	SN413079Multiplexer serial number:	ORYXHardware model number:	OX4-SRSoftware version number:	ORYX F/W v4.00 Oryx Data Collector v3.7.2.0data status	okinstallation	princeton_trtdifferential loss correction	single-endedforward channel	channel 4reverse channel	N/Adate	2019/09/10time	18:47:11forward acquisition time	60.00reverse acquisition time	0.00gamma	496.2192k internal	0.2303k external	0.2303temperature offset calibration	0.9942default loss term (dB/km)	0.3790temperature slope calibration	1.0000multiplexer offset coefficient	1.0000multiplexer slope coefficient	1.0000fibre end	0.00T internal ref (°C)	35.12T ext. ref 1 (°C)	-0.38T ext. ref 2 (°C)	27.18length (m)	temperature (°C)	Stokes	anti-Stokes-747.200	2.550	0.142	-0.105
-746.185	800.000	0.098	0.277
-745.171	-200.000	0.005	0.194
-744.156	-44.472	-0.193	-0.098
-743.142	161.752	-0.090	0.128
-742.127	800.000	0.123	0.355
-741.112	427.226	-0.087	0.191
-740.098	-27.511	-0.364	0.215
-739.083	549.153	-0.150	-0.365
-738.069	175.631	-0.118	0.174
-737.054	157.174	-0.210	-0.296
-736.039	-200.000	-0.068	-0.537
-735.025	-125.814	-0.242	0.037
-734.010	-183.024	0.152	-0.003
-732.996	-167.534	0.111	-0.005
-731.981	-43.585	-0.196	-0.100
-730.966	8.706	0.161	-0.123
-729.952	41.712	0.104	0.096
-728.937	183.916	0.217	-0.327
-727.923	221.637	-0.045	0.074
-726.908	60.686	-0.134	-0.136
-725.894	-12.418	-0.094	0.062
-724.879	-145.852	-0.250	-0.023
-723.864	-200.000	0.006	-0.166
-722.850	-98.490	0.423	0.110
-721.835	20.863	-0.087	-0.072
-720.821	7.984	-0.278	-0.212
-719.806	-123.578	-0.343	-0.055
-718.791	242.656	-0.220	-0.376
-717.777	-200.000	0.049	0.279
-716.762	-62.855	0.199	0.084
-715.748	-200.000	0.010	-0.271
-714.733	288.049	0.246	0.453
-713.718	711.983	0.031	-0.083
-712.704	-135.116	-0.202	0.025
-711.689	-68.534	0.191	0.075
-710.675	-80.573	-0.221	-0.075
-709.660	-200.000	-0.001	-0.308
-708.645	-106.842	-0.484	0.109
-707.631	62.355	-0.059	0.060
-706.616	-200.000	-0.025	-0.213
-705.602	3.961	0.039	-0.029
-704.587	-135.491	0.160	-0.019
-703.572	232.775	0.128	-0.214
-702.558	-200.000	0.026	-0.277
-701.543	-106.218	0.214	0.049
-700.529	69.331	-0.103	0.108
-699.514	800.000	0.056	0.176
-698.499	-40.035	0.362	-0.192
-697.485	25.307	0.054	-0.045
-696.470	108.622	0.123	-0.149
-695.456	-142.350	-0.261	-0.026
-694.441	50.757	0.231	-0.222
-693.426	584.557	-0.071	0.178
-692.412	388.561	-0.098	0.206
-691.397	-47.687	-0.235	-0.116
-690.383	-163.597	-0.335	-0.016
-689.368	382.767	-0.149	-0.311
-688.354	108.813	0.036	0.044
-687.339	-178.051	0.231	-0.006
-686.324	32.148	-0.079	0.069
-685.310	-122.186	-0.220	-0.037
-684.295	555.517	-0.122	0.297
-683.281	-5.689	0.127	-0.088
-682.266	800.000	-0.046	-0.146
-681.251	77.236	0.118	0.127
-680.237	128.339	0.216	0.280
-679.222	105.673	0.082	0.099
-678.208	-103.259	-0.307	0.074
-677.193	216.477	0.274	0.442
-676.178	80.066	-0.056	-0.061
-675.164	206.679	-0.227	-0.360
-674.149	800.000	-0.065	-0.219
-673.135	-116.441	0.150	-0.028
-672.120	98.672	0.099	-0.116
-671.105	114.015	0.169	0.208
-670.091	310.568	-0.153	-0.291
-669.076	115.833	0.036	0.045
-668.062	3.423	-0.167	-0.124
-667.047	51.502	-0.011	-0.011
-666.032	-45.234	-0.413	-0.208
-665.018	-32.698	-0.205	-0.116
-664.003	457.123	-0.108	-0.243
-662.989	573.206	-0.057	-0.141
-661.974	539.309	-0.020	0.048
-660.959	-29.925	0.158	-0.091
-659.945	13.056	-0.301	-0.236
-658.930	-20.037	-0.203	-0.127
-657.916	-49.731	-0.114	-0.055
-656.901	-200.000	0.032	0.211
-655.886	330.580	0.140	0.274
-654.872	-200.000	0.010	0.113
-653.857	-190.758	-0.188	0.002
-652.843	-186.164	-0.357	-0.005
-651.828	-21.275	-0.212	-0.131
-650.814	364.273	-0.161	-0.329
-649.799	64.600	-0.168	0.172
-648.784	-53.589	0.354	0.164
-647.770	193.084	0.092	-0.141
-646.755	-43.464	0.190	0.097
-645.741	183.954	-0.023	-0.035
-644.726	32.909	0.337	-0.296
-643.711	-6.789	0.307	0.212
-642.697	-23.271	0.186	0.113
-641.682	-46.994	-0.277	0.137
-640.668	-127.839	0.158	-0.023
-639.653	-200.000	-0.020	0.150
-638.638	-145.248	0.262	0.024
-637.624	800.000	0.063	-0.210
-636.609	752.697	0.090	-0.246
-635.595	-37.533	0.105	0.057
-634.580	169.019	0.057	-0.083
-633.565	328.979	-0.068	-0.133
-632.551	-106.874	-0.158	-0.036
-631.536	177.925	-0.136	-0.201
-630.522	-94.924	0.169	0.046
-629.507	-200.000	0.025	-0.162
-628.492	637.753	-0.072	-0.184
-627.478	306.615	-0.027	-0.051
-626.463	25.960	-0.159	-0.134
-625.449	-186.014	-0.096	0.001
-624.434	-115.246	-0.304	-0.058
-623.419	98.209	0.119	0.139
-622.405	800.000	-0.044	0.136
-621.390	-155.107	0.142	-0.009
-620.376	-90.439	-0.145	0.043
-619.361	800.000	0.021	-0.078
-618.346	103.154	0.121	-0.144
-617.332	-105.463	0.371	0.085
-616.317	27.504	-0.104	-0.089
-615.303	202.183	0.057	0.089
-614.288	8.558	-0.081	0.061
-613.273	-2.059	0.146	0.104
-612.259	6.921	-0.464	-0.350
-611.244	331.321	-0.075	-0.147
-610.230	800.000	-0.017	-0.048
-609.215	140.366	-0.031	-0.041
-608.201	-27.934	-0.232	-0.136
-607.186	-200.000	0.026	0.220
-606.171	800.000	-0.098	0.406
-605.157	0.320	-0.270	0.195
-604.142	-200.000	-0.019	-0.214
-603.128	-37.017	0.154	0.084
-602.113	-127.526	0.396	-0.058
-601.098	117.635	0.189	-0.236
-600.084	-32.047	0.342	-0.194
-599.069	165.896	-0.180	-0.259
-598.055	137.378	0.204	0.271
-597.040	-200.000	-0.001	-0.063
-596.025	720.453	-0.125	0.337
-595.011	42.761	0.170	0.157
-593.996	300.501	-0.135	0.252
-592.982	-200.000	-0.049	0.227
-591.967	-123.228	-0.259	-0.042
-590.952	24.392	0.102	-0.085
-589.938	-61.766	0.172	-0.073
-588.923	-115.032	0.286	-0.055
-587.909	800.000	-0.080	-0.261
-586.894	800.000	0.102	0.294
-585.879	-52.472	-0.247	-0.115
-584.865	-74.262	0.110	-0.040
-583.850	-159.251	0.405	0.023
-582.836	-200.000	0.008	-0.123
-581.821	34.479	0.104	0.092
-580.806	167.264	-0.092	0.132
-579.792	354.036	0.087	0.174
-578.777	800.000	-0.033	0.146
-577.763	-99.553	0.178	-0.045
-576.748	-7.930	-0.112	-0.076
-575.733	-91.807	0.188	0.054
-574.719	800.000	0.115	0.350
-573.704	70.245	0.154	-0.161
-572.690	-90.724	0.052	0.015
-571.675	-200.000	-0.004	-0.082
-570.661	562.394	0.157	0.383
-569.646	-59.420	-0.047	0.021
-568.631	-200.000	0.052	0.311
-567.617	-200.000	0.012	-0.242
-566.602	181.134	0.061	-0.091
-565.588	398.845	0.074	-0.158
-564.573	800.000	0.082	-0.352
-563.558	-65.832	-0.125	0.050
-562.544	-65.537	0.169	0.069
-561.529	83.662	-0.171	-0.188
-560.515	-43.491	0.520	0.266
-559.500	56.587	0.232	0.228
-558.485	31.788	0.085	0.074
-557.471	-20.331	-0.308	0.192
-556.456	-200.000	0.023	-0.289
-555.442	0.929	-0.098	-0.071
-554.427	-153.251	-0.255	0.018
-553.412	455.441	-0.116	-0.260
-552.398	129.723	0.038	-0.049
-551.383	-200.000	0.034	0.238
-550.369	586.538	0.215	-0.534
-549.354	-117.424	-0.147	0.027
-548.339	22.650	-0.068	0.056
-547.325	3.471	0.140	0.103
-546.310	4.689	-0.164	-0.122
-545.296	-98.059	-0.240	0.062
-544.281	56.756	-0.192	0.189
-543.266	-101.584	0.349	0.086
-542.252	-200.000	0.020	0.206
-541.237	147.640	-0.237	0.323
-540.223	199.560	-0.220	-0.341
-539.208	300.560	-0.109	0.204
-538.193	1.057	-0.102	0.074
-537.179	335.631	-0.178	-0.349
-536.164	-119.207	0.084	-0.015
-535.150	-70.177	0.216	-0.083
-534.135	800.000	0.072	-0.227
-533.121	-113.424	-0.248	-0.049
-532.106	-68.568	-0.305	0.119
-531.091	-144.677	-0.109	0.010
-530.077	112.602	-0.089	-0.109
-529.062	800.000	0.026	0.101
-528.048	-54.164	0.195	-0.090
-527.033	-83.711	-0.299	-0.096
-526.018	-200.000	-0.042	-0.242
-525.004	-200.000	0.060	-0.373
-523.989	489.060	0.149	-0.344
-522.975	39.076	0.237	0.214
-521.960	506.777	-0.072	-0.168
-520.945	246.403	-0.038	-0.065
-519.931	-200.000	-0.046	-0.215
-518.916	-200.000	0.046	-0.215
-517.902	-200.000	0.034	0.165
-516.887	800.000	-0.010	0.039
-515.872	-179.322	-0.268	-0.006
-514.858	16.812	0.190	-0.152
-513.843	188.973	-0.114	-0.172
-512.829	202.375	-0.161	0.250
-511.814	-108.575	0.109	0.024
-510.799	-154.308	-0.241	0.016
-509.785	-88.639	-0.217	0.065
-508.770	84.109	-0.223	0.246
-507.756	-28.812	-0.036	0.021
-506.741	381.150	0.164	0.341
-505.726	800.000	-0.049	0.185
-504.712	-26.914	-0.202	-0.119
-503.697	-98.139	0.219	0.057
-502.683	800.000	0.047	-0.167
-501.668	-159.287	-0.256	0.014
-500.653	-113.931	-0.088	-0.017
-499.639	147.366	-0.151	-0.206
-498.624	35.419	-0.319	0.282
-497.610	-97.269	-0.088	0.023
-496.595	-200.000	0.012	0.242
-495.581	-181.872	-0.437	0.008
-494.566	-55.270	0.173	0.078
-493.551	522.015	-0.142	0.337
-492.537	800.000	0.061	0.255
-491.522	736.704	0.132	-0.357
-490.508	-19.960	-0.253	0.158
-489.493	120.884	0.192	0.241
-488.478	-24.623	0.306	-0.184
-487.464	-200.000	0.006	0.275
-486.449	520.911	0.181	0.427
-485.435	67.258	-0.094	-0.096
-484.420	-48.842	0.156	-0.075
-483.405	-72.992	0.274	-0.101
-482.391	75.141	0.110	0.117
-481.376	235.368	0.102	-0.169
-480.362	-94.593	-0.319	-0.088
-479.347	-142.343	-0.108	-0.011
-478.332	138.929	-0.104	-0.138
-477.318	86.604	-0.065	-0.072
-476.303	-132.611	-0.292	0.038
-475.289	116.279	-0.081	-0.100
-474.274	800.000	0.082	-0.294
-473.259	72.473	-0.150	0.157
-472.245	25.168	0.021	-0.018
-471.230	-44.151	-0.298	0.150
-470.216	800.000	0.115	0.357
-469.201	-49.116	-0.217	-0.104
-468.186	544.238	-0.081	0.194
-467.172	204.506	-0.269	-0.420
-466.157	-124.733	0.125	0.019
-465.143	-46.982	-0.194	-0.095
-464.128	591.713	0.174	-0.433
-463.113	-200.000	-0.027	-0.270
-462.099	-200.000	0.019	0.181
-461.084	-81.405	0.214	0.071
-460.070	-166.747	-0.109	-0.005
-459.055	-200.000	0.088	0.557
-458.040	3.391	0.094	0.069
-457.026	106.505	0.061	-0.073
-456.011	591.656	0.104	-0.259
-454.997	-85.106	0.117	0.037
-453.982	-35.453	0.224	0.122
-452.968	29.255	-0.273	-0.234
-451.953	-200.000	-0.017	-0.149
-450.938	-200.000	0.014	-0.085
-449.924	800.000	-0.045	-0.142
-448.909	344.553	-0.068	0.135
-447.895	-54.729	-0.497	-0.226
-446.880	34.548	-0.124	0.109
-445.865	-20.662	-0.189	0.117
-444.851	144.478	0.120	-0.161
-443.836	-88.061	-0.016	-0.005
-442.822	137.392	0.164	0.216
-441.807	-75.159	-0.236	0.085
-440.792	-200.000	-0.019	0.261
-439.778	-104.632	-0.188	0.044
-438.763	25.509	0.362	-0.303
-437.749	-200.000	0.007	0.053
-436.734	583.705	-0.042	-0.104
-435.719	51.274	0.057	-0.054
-434.705	-200.000	0.006	-0.282
-433.690	323.070	-0.132	0.254
-432.676	-116.905	0.374	0.069
-431.661	-53.472	0.229	0.106
-430.646	800.000	-0.058	-0.193
-429.632	-9.754	-0.172	0.115
-428.617	-149.706	0.194	0.015
-427.603	49.047	-0.034	-0.032
-426.588	216.458	-0.135	0.216
-425.573	220.157	0.147	0.237
-424.559	-200.000	-0.024	0.197
-423.544	276.186	-0.013	0.024
-422.530	115.457	0.135	0.166
-421.515	-14.659	-0.162	-0.105
-420.500	33.784	0.168	-0.147
-419.486	800.000	0.112	0.337
-418.471	143.170	-0.132	0.177
-417.457	-44.447	0.115	0.058
-416.442	-107.388	0.140	0.031
-415.428	423.651	0.096	-0.207
-414.413	-200.000	0.001	-0.135
-413.398	-200.000	0.062	-0.421
-412.384	-12.113	0.278	0.183
-411.369	148.569	-0.105	-0.143
-410.355	7.616	-0.213	-0.160
-409.340	564.238	-0.033	0.080
-408.325	-177.544	0.183	-0.005
-407.311	103.751	-0.077	0.091
-406.296	800.000	-0.053	0.195
-405.282	38.158	-0.031	0.027
-404.267	166.953	-0.086	-0.123
-403.252	185.454	0.040	-0.059
-402.238	49.378	0.253	0.239
-401.223	-200.000	0.001	-0.207
-400.209	800.000	-0.017	-0.053
-399.194	-133.355	0.053	0.007
-398.179	-103.945	0.165	-0.039
-397.165	145.395	-0.017	0.023
-396.150	25.900	0.235	0.197
-395.136	-200.000	0.006	0.238
-394.121	-149.489	-0.140	-0.011
-393.106	34.046	-0.091	-0.080
-392.092	-127.216	0.158	-0.023
-391.077	800.000	-0.077	0.248
-390.063	344.444	-0.181	-0.356
-389.048	800.000	-0.031	0.105
-388.033	373.134	-0.104	-0.212
-387.019	-200.000	-0.018	0.324
-386.004	-72.175	-0.188	-0.070
-384.990	553.925	0.045	-0.109
-383.975	0.344	0.261	-0.187
-382.960	158.533	0.041	0.057
-381.946	800.000	0.075	0.214
-380.931	-200.000	0.002	-0.086
-379.917	148.728	-0.224	0.303
-378.902	268.572	-0.082	-0.144
-377.888	312.799	-0.145	0.273
-376.873	553.750	0.175	-0.422
-375.858	-200.000	0.032	0.341
-374.844	390.527	0.059	0.123
-373.829	146.909	0.215	0.290
-372.815	-32.804	0.365	-0.204
-371.800	120.279	-0.128	-0.159
-370.785	74.132	0.135	-0.142
-369.771	771.859	-0.074	0.202
-368.756	-131.758	-0.042	0.006
-367.742	384.866	0.143	-0.295
-366.727	-57.231	0.415	-0.183
-365.712	-92.995	-0.201	-0.056
-364.698	77.227	-0.127	-0.136
-363.683	100.223	-0.065	0.076
-362.669	116.911	0.209	0.258
-361.654	-103.958	0.254	0.059
-360.639	31.676	0.043	0.037
-359.625	22.504	0.117	-0.096
-358.610	-31.770	-0.135	-0.076
-357.596	-200.000	0.008	-0.136
-356.581	31.021	0.176	0.152
-355.566	45.327	-0.477	0.441
-354.552	518.315	-0.139	0.327
-353.537	-200.000	-0.008	0.229
-352.523	-200.000	-0.044	-0.400
-351.508	-31.461	-0.066	-0.037
-350.493	2.962	-0.207	-0.151
-349.479	183.811	0.151	0.223
-348.464	213.730	0.149	0.236
-347.450	610.827	-0.070	0.176
-346.435	118.311	-0.067	0.083
-345.420	707.899	-0.047	0.125
-344.406	-85.064	-0.255	-0.080
-343.391	82.823	0.219	0.239
-342.377	232.820	-0.255	0.420
-341.362	142.090	0.088	0.117
-340.348	-145.594	-0.169	0.015
-339.333	45.427	-0.065	0.060
-338.318	113.328	0.120	-0.146
-337.304	-27.149	-0.113	-0.066
-336.289	-33.140	-0.306	0.170
-335.275	-200.000	-0.025	0.154
-334.260	81.393	-0.160	0.174
-333.245	304.161	0.111	0.207
-332.231	94.355	0.121	-0.138
-331.216	-57.369	-0.249	-0.110
-330.202	223.207	0.103	0.166
-329.187	-159.586	0.206	-0.011
-328.172	-24.022	0.242	0.145
-327.158	197.079	-0.089	0.136
-326.143	-200.000	-0.104	0.499
-325.129	-158.093	-0.148	0.009
-324.114	67.482	-0.074	-0.075
-323.099	-99.212	0.136	-0.034
-322.085	225.611	0.169	-0.275
-321.070	30.168	-0.123	0.106
-320.056	0.192	0.263	-0.188
-319.041	129.792	-0.214	-0.274
-318.026	-111.140	-0.181	0.037
-317.012	-200.000	-0.067	0.536
-315.997	-49.477	-0.287	0.137
-314.983	396.760	0.158	-0.330
-313.968	-200.000	-0.026	-0.390
-312.953	-155.350	0.193	0.013
-311.939	213.352	-0.141	-0.223
-310.924	-30.792	-0.046	0.026
-309.910	-46.335	-0.217	-0.107
-308.895	800.000	-0.065	-0.197
-307.880	323.735	0.033	0.064
-306.866	-200.000	-0.027	-0.165
-305.851	-32.069	-0.092	0.052
-304.837	800.000	0.031	0.114
-303.822	543.591	0.136	-0.324
-302.807	-142.744	0.281	0.027
-301.793	-120.074	0.107	-0.018
-300.778	7.361	-0.166	0.124
-299.764	-35.393	-0.406	-0.221
-298.749	-113.772	-0.252	0.049
-297.735	412.639	-0.033	-0.070
-296.720	-200.000	0.011	0.115
-295.705	178.818	-0.178	-0.261
-294.691	800.000	-0.108	-0.315
-293.676	212.468	-0.079	-0.125
-292.662	100.245	0.159	0.184
-291.647	301.225	-0.048	0.089
-290.632	800.000	-0.066	0.208
-289.618	-197.388	0.198	0.001
-288.603	2.181	0.125	0.091
-287.589	363.436	-0.153	0.307
-286.574	-42.015	-0.317	-0.162
-285.559	257.665	-0.038	-0.065
-284.545	28.263	0.194	-0.164
-283.530	-86.366	0.334	-0.103
-282.516	-116.331	0.132	-0.024
-281.501	-172.347	-0.165	0.005
-280.486	171.911	0.090	-0.129
-279.472	800.000	0.014	0.057
-278.457	436.209	0.057	0.125
-277.443	-200.000	0.057	0.355
-276.428	-148.608	-0.193	-0.016
-275.413	-200.000	0.014	-0.287
-274.399	-34.379	0.101	0.055
-273.384	182.227	-0.142	-0.209
-272.370	121.338	0.020	-0.025
-271.355	-200.000	-0.017	0.191
-270.340	-200.000	-0.026	-0.399
-269.326	800.000	0.016	-0.062
-268.311	19.563	0.117	0.094
-267.297	-189.658	0.379	0.004
-266.282	800.000	0.056	-0.178
-265.267	120.138	0.142	0.176
-264.253	-200.000	0.013	-0.097
-263.238	-51.478	0.250	-0.117
-262.224	-200.000	-0.004	0.070
-261.209	-125.465	0.070	-0.011
-260.195	-169.538	0.406	0.015
-259.180	249.055	0.062	-0.105
-258.165	234.973	-0.163	-0.269
-257.151	-105.142	-0.169	0.039
-256.136	-97.936	-0.266	0.068
-255.122	-200.000	-0.029	0.151
-254.107	229.457	0.159	-0.259
-253.092	-64.577	-0.271	-0.110
-252.078	-88.983	0.277	0.082
-251.063	429.256	-0.137	0.296
-250.049	372.821	0.260	0.528
-249.034	29.580	0.105	-0.089
-248.019	-81.454	0.237	-0.078
-247.005	-17.541	-0.228	-0.143
-245.990	95.838	-0.052	0.059
-244.976	102.015	0.110	0.128
-243.961	800.000	-0.033	0.113
-242.946	-200.000	-0.021	0.120
-241.932	-200.000	0.014	-0.081
-240.917	412.058	0.014	-0.029
-239.903	316.081	0.109	0.205
-238.888	210.168	-0.073	-0.115
-237.873	296.726	0.094	-0.172
-236.859	378.743	0.023	0.048
-235.844	20.236	-0.190	0.153
-234.830	266.061	-0.128	-0.223
-233.815	-136.133	-0.282	0.033
-232.800	46.685	0.159	0.148
-231.786	-145.626	-0.372	-0.033
-230.771	10.515	-0.205	-0.156
-229.757	141.611	-0.176	0.232
-228.742	-128.754	0.090	0.013
-227.727	-194.156	0.230	0.002
-226.713	-200.000	-0.022	-0.132
-225.698	252.745	0.092	0.156
-224.684	-104.413	-0.259	0.060
-223.669	45.474	0.119	0.109
-222.655	80.877	-0.126	0.136
-221.640	-200.000	-0.062	-0.311
-220.625	-10.521	0.209	0.138
-219.611	-65.779	0.157	0.063
-218.596	-105.540	-0.204	0.046
-217.582	-105.259	0.216	0.049
-216.567	-200.000	-0.037	-0.180
-215.552	63.194	-0.050	-0.050
-214.538	-200.000	-0.061	-0.383
-213.523	379.811	-0.062	-0.127
-212.509	390.772	0.311	-0.645
-211.494	800.000	-0.038	-0.127
-210.479	-12.660	0.207	-0.134
-209.465	-183.945	-0.183	0.003
-208.450	-200.000	-0.043	0.349
-207.436	-200.000	-0.013	-0.137
-206.421	-88.421	-0.223	-0.066
-205.406	40.703	-0.106	-0.095
-204.392	37.013	-0.543	0.479
-203.377	-91.859	0.211	0.060
-202.363	-124.612	0.511	-0.079
-201.348	-58.344	0.107	-0.046
-200.333	-89.467	0.059	-0.017
-199.319	749.887	-0.057	-0.154
-198.304	-200.000	-0.047	0.211
-197.290	210.638	-0.054	-0.085
-196.275	-25.189	0.141	-0.083
-195.260	-80.521	-0.114	-0.038
-194.246	114.964	-0.118	-0.144
-193.231	121.174	-0.084	-0.105
-192.217	-200.000	-0.052	-0.354
-191.202	3.640	-0.124	0.090
-190.187	-127.409	0.063	-0.009
-189.173	800.000	-0.043	0.129
-188.158	-80.161	0.113	-0.038
-187.144	-120.148	0.068	-0.012
-186.129	-180.557	0.293	-0.006
-185.114	-12.185	0.045	0.029
-184.100	-35.208	-0.046	0.025
-183.085	800.000	-0.086	0.305
-182.071	-175.928	0.181	0.005
-181.056	800.000	-0.151	-0.507
-180.042	-55.899	-0.235	0.105
-179.027	-200.000	0.231	-0.000
-178.012	-34.192	0.266	-0.146
-176.998	-77.383	-0.099	0.034
-175.983	640.558	0.189	0.479
-174.969	-87.167	-0.388	-0.118
-173.954	-200.000	-0.009	0.103
-172.939	-40.461	-0.262	-0.136
-171.925	-200.000	-0.036	0.302
-170.910	-140.737	0.242	0.025
-169.896	-38.971	0.153	0.080
-168.881	-200.000	0.045	-0.426
-167.866	-81.345	-0.269	-0.088
-166.852	-52.369	-0.209	0.097
-165.837	-200.000	-0.013	0.268
-164.823	44.043	-0.109	-0.099
-163.808	2.426	0.342	0.247
-162.793	800.000	-0.042	-0.157
-161.779	-38.655	0.221	-0.116
-160.764	135.186	-0.145	0.188
-159.750	144.153	0.232	-0.308
-158.735	-73.922	-0.176	0.063
-157.720	-79.349	0.122	-0.041
-156.706	800.000	0.049	-0.187
-155.691	337.100	0.101	-0.195
-154.677	-200.000	0.050	-0.485
-153.662	-173.589	-0.182	-0.005
-152.647	-89.924	0.045	0.013
-151.633	42.969	0.231	0.210
-150.618	-37.141	0.223	-0.119
-149.604	-179.498	-0.377	0.008
-148.589	58.459	-0.308	-0.301
-147.574	-51.683	-0.155	0.072
-146.560	-200.000	-0.048	-0.283
-145.545	-98.625	-0.194	0.049
-144.531	638.835	-0.073	-0.185
-143.516	-120.434	0.256	0.043
-142.502	-185.507	-0.124	0.002
-141.487	-9.314	-0.301	-0.200
-140.472	-200.000	-0.009	-0.076
-139.458	800.000	0.018	0.065
-138.443	-70.514	0.211	0.079
-137.429	-200.000	-0.035	0.262
-136.414	110.168	0.269	-0.322
-135.399	340.819	0.156	0.304
-134.385	-122.479	-0.109	0.018
-133.370	316.974	0.262	0.493
-132.356	-149.412	-0.314	-0.025
-131.341	7.233	0.134	-0.100
-130.326	-182.659	0.257	-0.005
-129.312	146.772	0.192	0.256
-128.297	-61.990	-0.306	-0.127
-127.283	113.710	-0.180	0.217
-126.268	-151.901	-0.234	0.017
-125.253	-82.549	0.261	0.084
-124.239	249.697	-0.068	-0.115
-123.224	217.753	0.042	-0.066
-122.210	800.000	-0.025	0.074
-121.195	-200.000	-0.005	0.115
-120.180	-200.000	-0.065	0.315
-119.166	800.000	-0.049	-0.199
-118.151	267.663	-0.055	0.096
-117.137	-33.855	-0.271	0.148
-116.122	-200.000	0.033	0.266
-115.107	-200.000	0.033	0.197
-114.093	-0.217	-0.201	-0.142
-113.078	-51.643	-0.076	0.035
-112.064	145.661	-0.017	-0.022
-111.049	199.574	-0.012	0.019
-110.034	96.529	0.126	0.144
-109.020	20.686	-0.195	0.157
-108.005	-55.586	-0.051	-0.023
-106.991	800.000	0.088	0.289
-105.976	800.000	0.060	-0.257
-104.962	-113.341	-0.111	0.022
-103.947	-117.755	0.090	-0.016
-102.932	800.000	-0.036	0.126
-101.918	26.695	-0.062	-0.051
-100.903	-200.000	0.023	0.432
-99.889	-167.876	-0.124	0.005
-98.874	-75.902	0.298	0.105
-97.859	-0.381	0.089	0.063
-96.845	-177.966	-0.048	-0.001
-95.830	1.166	-0.228	-0.163
-94.816	-103.509	-0.213	-0.050
-93.801	-77.172	-0.405	-0.140
-92.786	-200.000	-0.079	0.426
-91.772	-80.841	-0.253	0.083
-90.757	471.727	-0.060	-0.133
-89.743	-200.000	0.062	-0.296
-88.728	800.000	0.022	0.085
-87.713	-129.796	0.227	0.031
-86.699	454.647	0.079	-0.173
-85.684	-100.646	-0.222	-0.054
-84.670	-200.000	-0.030	0.256
-83.655	-91.548	-0.124	0.035
-82.640	7.488	0.177	0.131
-81.626	67.537	-0.102	0.103
-80.611	-134.893	0.201	-0.024
-79.597	341.705	-0.085	0.164
-78.582	800.000	-0.043	-0.137
-77.567	112.882	-0.073	0.088
-76.553	-200.000	-0.001	0.408
-75.538	-97.031	-0.103	0.027
-74.524	-31.059	-0.322	0.180
-73.509	800.000	0.044	-0.141
-72.494	-200.000	-0.011	-0.056
-71.480	57.884	0.190	-0.184
-70.465	-200.000	-0.026	0.201
-69.451	87.468	0.268	0.295
-68.436	1.670	0.222	-0.158
-67.422	-35.059	0.129	0.070
-66.407	-72.892	0.179	0.065
-65.392	408.468	-0.081	0.170
-64.378	-49.610	0.098	0.046
-63.363	755.253	0.097	0.259
-62.349	339.248	0.297	0.574
-61.334	-11.132	-0.744	-0.487
-60.319	-5.663	0.347	0.236
-59.305	-200.000	0.097	-0.477
-58.290	366.958	0.491	0.983
-57.276	385.074	0.826	1.689
-56.261	-200.000	99.070	569.881
-55.246	595.443	1406.626	3451.228
-54.232	179.351	2645.735	3838.652
-53.217	110.961	2351.752	2806.797
-52.203	41.805	2097.332	1884.852
-51.188	37.090	2008.579	1762.314
-50.173	35.420	1990.306	1731.156
-49.159	49.844	2043.524	1909.715
-48.144	52.677	2062.548	1953.336
-47.130	37.500	2018.543	1774.517
-46.115	35.157	2006.852	1742.884
-45.100	35.152	2003.473	1739.836
-44.086	35.014	2001.460	1736.763
-43.071	34.940	1998.906	1733.807
-42.057	34.981	1996.741	1732.232
-41.042	35.016	1994.682	1730.692
-40.027	35.096	1992.809	1729.722
-39.013	35.025	1991.298	1727.706
-37.998	35.068	1989.243	1726.234
-36.984	35.044	1987.656	1724.577
-35.969	35.013	1986.071	1722.852
-34.954	35.039	1983.879	1721.114
-33.940	35.156	1982.246	1720.679
-32.925	35.153	1980.713	1719.255
-31.911	35.146	1979.352	1717.942
-30.896	35.173	1977.345	1716.376
-29.881	35.207	1975.489	1715.001
-28.867	35.186	1974.429	1713.828
-27.852	35.135	1972.469	1711.602
-26.838	35.188	1970.293	1710.117
-25.823	35.194	1968.279	1708.353
-24.809	35.157	1966.891	1706.757
-23.794	35.145	1965.306	1705.204
-22.779	35.211	1963.462	1704.123
-21.765	35.088	1962.100	1701.782
-20.750	35.201	1959.937	1700.837
-19.736	35.125	1958.936	1699.232
-18.721	35.198	1957.247	1698.345
-17.706	35.123	1955.399	1696.004
-16.692	35.062	1953.762	1693.979
-15.677	35.142	1952.023	1693.115
-14.663	35.211	1949.999	1691.904
-13.648	35.162	1949.150	1690.667
-12.633	35.155	1948.308	1689.804
-11.619	35.132	1946.491	1687.961
-10.604	35.103	1945.534	1686.805
-9.590	35.131	1943.850	1685.523
-8.575	35.120	1941.978	1683.739
-7.560	35.125	1940.992	1682.864
-6.546	35.071	1940.050	1681.500
-5.531	35.114	1938.639	1680.586
-4.517	35.066	1937.392	1679.020
-3.502	35.136	1936.164	1678.501
-2.487	35.109	1935.330	1677.475
-1.473	35.064	1934.162	1676.002
-0.458	35.116	1929.474	1672.335
0.556	32.129	1908.129	1639.904
1.571	27.216	1885.985	1578.204
2.586	22.534	1907.057	1554.491
3.600	21.337	1942.550	1572.524
4.615	20.984	1939.573	1566.799
5.629	16.251	1838.943	1444.959
6.644	6.109	1716.221	1267.002
7.659	0.257	1675.024	1190.338
8.673	-0.264	1671.186	1183.393
9.688	-0.408	1669.747	1181.136
10.702	-0.332	1667.944	1180.353
11.717	-0.505	1665.086	1176.867
12.731	-0.165	1664.228	1178.825
13.746	6.322	1679.937	1241.126
14.761	15.428	1700.290	1328.432
15.775	18.604	1705.409	1357.491
16.790	18.580	1703.638	1355.767
17.804	18.590	1703.471	1355.596
18.819	18.684	1702.605	1355.530
19.834	18.733	1701.672	1355.057
20.848	18.881	1701.328	1355.829
21.863	18.910	1700.127	1354.978
22.877	18.881	1698.913	1353.665
23.892	18.857	1698.422	1352.965
24.907	18.792	1697.550	1351.638
25.921	18.797	1696.795	1350.960
26.936	18.955	1695.591	1351.118
27.950	18.908	1694.758	1349.966
28.965	18.872	1693.462	1348.533
29.980	18.944	1692.895	1348.523
30.994	18.899	1691.749	1347.146
32.009	18.928	1690.285	1346.081
33.023	18.886	1689.335	1344.881
34.038	18.927	1688.145	1344.130
35.053	18.868	1686.979	1342.624
36.067	18.836	1685.948	1341.435
37.082	18.868	1684.862	1340.703
38.096	18.897	1683.905	1340.052
39.111	18.890	1682.994	1339.151
40.126	18.823	1682.499	1338.118
41.140	18.836	1681.728	1337.485
42.155	18.841	1680.676	1336.573
43.169	18.942	1679.248	1336.101
44.184	18.909	1678.187	1334.884
45.199	18.860	1677.468	1333.812
46.213	18.847	1675.912	1332.354
47.228	18.824	1674.705	1331.103
48.242	18.876	1673.293	1330.266
49.257	18.858	1671.908	1328.907
50.271	18.812	1671.245	1327.906
51.286	18.894	1669.725	1327.212
52.301	18.954	1668.464	1326.559
53.315	18.863	1666.766	1324.390
54.330	18.806	1665.622	1322.919
55.344	18.824	1664.358	1321.938
56.359	18.881	1662.841	1321.054
57.374	18.852	1661.569	1319.706
58.388	18.843	1660.632	1318.778
59.403	18.833	1659.681	1317.831
60.417	18.904	1657.917	1316.852
61.432	18.954	1656.922	1316.332
62.447	18.840	1656.249	1314.808
63.461	18.799	1654.998	1313.382
64.476	18.866	1653.766	1312.805
65.490	18.909	1652.480	1311.996
66.505	18.946	1651.011	1310.995
67.520	18.916	1650.346	1310.120
68.534	18.900	1649.108	1308.897
69.549	18.999	1647.667	1308.392
70.563	18.917	1647.002	1307.125
71.578	18.851	1645.712	1305.487
72.593	18.862	1644.647	1304.609
73.607	18.937	1643.584	1304.217
74.622	18.892	1642.858	1303.182
75.636	18.952	1641.372	1302.343
76.651	18.888	1640.688	1301.201
77.666	18.904	1640.302	1300.904
78.680	18.922	1638.994	1299.890
79.695	18.947	1637.860	1299.060
80.709	18.963	1636.939	1298.333
81.724	18.918	1636.031	1297.161
82.739	18.971	1635.210	1296.792
83.753	18.930	1634.268	1295.623
84.768	18.871	1632.961	1294.031
85.782	18.869	1632.018	1293.154
86.797	18.853	1630.831	1291.976
87.812	18.923	1629.927	1291.674
88.826	18.947	1628.421	1290.549
89.841	18.992	1627.867	1290.331
90.855	18.958	1626.588	1288.947
91.870	18.885	1625.450	1287.387
92.884	18.966	1624.198	1286.886
93.899	18.967	1623.546	1286.265
94.914	18.975	1622.194	1285.135
95.928	18.939	1621.371	1284.101
96.943	19.010	1619.562	1283.089
97.957	19.006	1618.503	1282.101
98.972	18.943	1617.043	1280.366
99.987	19.032	1615.615	1279.786
101.001	18.916	1614.654	1278.043
102.016	18.900	1612.959	1276.476
103.030	18.951	1611.434	1275.533
104.045	18.958	1609.773	1274.152
105.060	18.879	1608.488	1272.441
106.074	18.914	1607.345	1271.681
107.089	18.956	1605.528	1270.443
108.103	19.041	1604.288	1269.977
109.118	19.008	1603.290	1268.831
110.133	19.050	1601.317	1267.465
111.147	19.012	1600.483	1266.412
112.162	18.966	1599.814	1265.436
113.176	19.092	1597.909	1264.744
114.191	18.976	1596.724	1262.838
115.206	19.008	1595.396	1261.916
116.220	18.980	1593.677	1260.235
117.235	19.127	1591.931	1259.818
118.249	19.063	1590.932	1258.450
119.264	18.894	1590.248	1256.561
120.279	19.054	1587.796	1255.682
121.293	18.994	1587.307	1254.749
122.308	19.056	1585.439	1253.609
123.322	18.996	1584.254	1252.127
124.337	19.069	1582.840	1251.431
125.352	19.082	1581.543	1250.390
126.366	19.102	1580.462	1249.569
127.381	19.079	1579.196	1248.291
128.395	19.175	1578.074	1247.986
129.410	19.118	1576.806	1246.460
130.424	19.027	1576.284	1245.280
131.439	19.149	1574.293	1244.477
132.454	19.158	1572.610	1243.104
133.468	19.052	1571.990	1241.740
134.483	19.060	1570.270	1240.325
135.497	19.102	1568.475	1239.098
136.512	19.056	1567.379	1237.793
137.527	19.064	1566.621	1237.146
138.541	19.166	1565.229	1236.665
139.556	19.033	1563.929	1234.578
140.570	19.129	1562.529	1234.053
141.585	19.130	1561.312	1232.987
142.600	19.049	1560.190	1231.411
143.614	19.073	1558.993	1230.533
144.629	19.158	1557.135	1229.565
145.643	19.124	1556.346	1228.586
146.658	19.065	1554.727	1226.778
147.673	18.978	1553.746	1225.282
148.687	18.980	1552.579	1224.263
149.702	19.090	1551.200	1223.850
150.716	19.092	1549.272	1222.237
151.731	19.173	1547.619	1221.395
152.746	19.151	1547.204	1220.806
153.760	19.199	1545.253	1219.498
154.775	19.020	1545.321	1218.180
155.789	19.154	1543.909	1217.902
156.804	19.133	1542.487	1216.529
157.819	18.984	1541.502	1214.587
158.833	19.060	1540.070	1213.890
159.848	19.137	1538.851	1213.365
160.862	19.202	1537.779	1212.867
161.877	19.150	1536.472	1211.365
162.892	19.138	1535.830	1210.665
163.906	19.179	1534.974	1210.172
164.921	19.151	1533.588	1208.776
165.935	19.192	1533.051	1208.534
166.950	19.269	1531.796	1207.977
167.964	19.238	1530.395	1206.549
168.979	19.173	1530.056	1205.718
169.994	19.269	1528.315	1204.917
171.008	19.202	1527.903	1204.010
172.023	19.262	1526.409	1203.148
173.037	19.333	1525.588	1202.891
174.052	19.255	1524.610	1201.467
175.067	19.196	1523.933	1200.416
176.081	19.186	1522.994	1199.500
177.096	19.270	1521.283	1198.636
178.110	19.225	1520.242	1197.392
179.125	19.235	1518.978	1196.364
180.140	19.119	1519.083	1195.535
181.154	19.245	1517.731	1195.240
182.169	19.310	1516.203	1194.383
183.183	19.292	1515.433	1193.539
184.198	19.259	1514.489	1192.464
185.213	19.222	1513.779	1191.544
186.227	19.285	1512.875	1191.165
187.242	19.327	1511.919	1190.594
188.256	19.339	1510.873	1189.752
189.271	19.275	1510.038	1188.542
190.286	19.334	1509.293	1188.257
191.300	19.347	1508.032	1187.250
192.315	19.246	1507.580	1186.093
193.329	19.211	1506.548	1184.939
194.344	19.265	1505.489	1184.368
195.359	19.399	1504.655	1184.532
196.373	19.302	1503.888	1183.155
197.388	19.254	1503.030	1182.043
198.402	19.309	1501.565	1181.170
199.417	19.173	1501.145	1179.804
200.432	19.141	1500.423	1178.909
201.446	19.208	1499.516	1178.551
202.461	19.328	1498.213	1178.246
203.475	19.320	1497.642	1177.636
204.490	19.209	1496.855	1176.156
205.504	19.295	1495.729	1175.749
206.519	19.241	1494.512	1174.324
207.534	19.377	1493.354	1174.235
208.548	19.450	1492.619	1174.049
209.563	19.361	1492.177	1172.991
210.577	19.342	1490.747	1171.636
211.592	19.349	1490.169	1171.124
212.607	19.360	1489.277	1170.394
213.621	19.338	1488.954	1169.890
214.636	19.386	1487.942	1169.317
215.650	19.444	1486.993	1168.862
216.665	19.365	1486.324	1167.695
217.680	19.433	1485.368	1167.303
218.694	19.402	1484.713	1166.473
219.709	19.419	1484.139	1166.037
220.723	19.503	1482.632	1165.317
221.738	19.453	1482.450	1164.732
222.753	19.488	1481.291	1163.954
223.767	19.346	1480.659	1162.397
224.782	19.379	1479.529	1161.626
225.796	19.394	1478.940	1161.163
226.811	19.539	1477.740	1161.093
227.826	19.447	1477.106	1159.872
228.840	19.501	1476.306	1159.507
229.855	19.476	1475.606	1158.687
230.869	19.506	1474.580	1157.980
231.884	19.412	1473.568	1156.455
232.899	19.396	1472.724	1155.581
233.913	19.398	1471.576	1154.590
234.928	19.486	1470.748	1154.429
235.942	19.538	1469.513	1153.701
236.957	19.496	1468.730	1152.707
237.972	19.503	1467.560	1151.731
238.986	19.487	1466.327	1150.560
240.001	19.469	1465.990	1150.073
241.015	19.620	1464.482	1149.789
242.030	19.626	1463.571	1149.017
243.045	19.646	1462.661	1148.330
244.059	19.613	1461.922	1147.432
245.074	19.604	1461.076	1146.605
246.088	19.730	1460.056	1146.536
247.103	19.682	1459.619	1145.774
248.117	19.665	1458.664	1144.812
249.132	19.684	1457.716	1144.093
250.147	19.642	1457.561	1143.589
251.161	19.678	1456.483	1142.885
252.176	19.622	1456.134	1142.134
253.190	19.722	1454.860	1141.695
254.205	19.714	1453.964	1140.842
255.220	19.739	1453.089	1140.219
256.234	19.643	1452.647	1139.134
257.249	19.705	1451.764	1138.754
258.263	19.795	1450.911	1138.575
259.278	19.774	1449.533	1137.255
260.293	19.718	1448.864	1136.262
261.307	19.746	1448.330	1135.923
262.322	19.769	1447.939	1135.668
263.336	19.856	1446.873	1135.304
264.351	19.870	1446.206	1134.772
265.366	19.790	1445.238	1133.384
266.380	19.808	1444.299	1132.666
267.395	19.787	1443.199	1131.570
268.409	19.701	1443.034	1130.776
269.424	19.858	1441.564	1130.553
270.439	19.747	1440.974	1129.264
271.453	19.990	1439.446	1129.552
272.468	19.840	1438.775	1127.948
273.482	19.870	1438.287	1127.661
274.497	19.899	1437.408	1127.058
275.512	19.969	1436.635	1126.807
276.526	20.005	1436.058	1126.494
277.541	19.954	1435.101	1125.309
278.555	19.908	1434.482	1124.424
279.570	19.959	1433.340	1123.760
280.585	19.906	1432.474	1122.643
281.599	19.932	1431.512	1121.957
282.614	19.890	1431.468	1121.546
283.628	19.934	1429.644	1120.304
284.643	19.921	1428.904	1119.544
285.657	19.871	1428.019	1118.428
286.672	19.974	1427.147	1118.308
287.687	19.948	1426.545	1117.568
288.701	19.972	1425.339	1116.685
289.716	19.954	1424.881	1116.106
290.730	19.994	1424.090	1115.650
291.745	20.044	1423.128	1115.121
292.760	20.062	1421.864	1114.145
293.774	20.038	1421.122	1113.309
294.789	20.128	1419.929	1112.856
295.803	20.056	1419.606	1112.041
296.818	20.109	1418.391	1111.331
297.833	20.060	1417.931	1110.559
298.847	20.089	1416.808	1109.763
299.862	20.042	1415.975	1108.713
300.876	20.173	1415.410	1109.009
301.891	20.131	1414.398	1107.853
302.906	20.112	1413.662	1107.057
303.920	20.034	1413.147	1106.057
304.935	20.136	1412.266	1105.921
305.949	20.177	1411.342	1105.358
306.964	20.135	1410.629	1104.437
307.979	20.200	1409.428	1103.812
308.993	20.243	1408.398	1103.179
310.008	20.118	1408.489	1102.361
311.022	20.153	1407.102	1101.399
312.037	20.138	1406.394	1100.651
313.052	20.195	1405.343	1100.091
314.066	20.194	1404.319	1099.190
315.081	20.072	1403.743	1097.866
316.095	20.195	1402.255	1097.385
317.110	20.107	1401.832	1096.398
318.125	20.239	1400.979	1096.474
319.139	20.317	1399.799	1095.941
320.154	20.217	1398.985	1094.578
321.168	20.232	1397.951	1093.767
322.183	20.274	1397.042	1093.223
323.197	20.256	1396.367	1092.482
324.212	20.266	1395.611	1091.859
325.227	20.297	1394.376	1090.992
326.241	20.360	1393.399	1090.526
327.256	20.285	1393.547	1090.074
328.270	20.398	1391.925	1089.420
329.285	20.347	1391.367	1088.565
330.300	20.420	1390.597	1088.322
331.314	20.374	1389.350	1086.963
332.329	20.487	1388.518	1086.924
333.343	20.416	1387.675	1085.727
334.358	20.420	1386.955	1085.089
335.373	20.477	1386.526	1085.016
336.387	20.450	1385.676	1084.084
337.402	20.469	1384.776	1083.401
338.416	20.444	1384.478	1082.920
339.431	20.477	1384.229	1082.830
340.446	20.478	1383.811	1082.415
341.460	20.451	1382.691	1081.275
342.475	20.476	1381.742	1080.593
343.489	20.555	1380.285	1079.847
344.504	20.573	1379.637	1079.357
345.519	20.451	1379.248	1078.204
346.533	20.554	1377.514	1077.391
347.548	20.529	1376.807	1076.583
348.562	20.546	1375.988	1075.955
349.577	20.495	1375.460	1075.133
350.592	20.473	1374.700	1074.305
351.606	20.602	1373.755	1074.268
352.621	20.665	1372.305	1073.429
353.635	20.514	1371.861	1072.055
354.650	20.644	1370.894	1072.006
355.665	20.669	1370.126	1071.463
356.679	20.643	1368.997	1070.327
357.694	20.553	1368.069	1068.952
358.708	20.857	1366.515	1069.512
359.723	20.648	1365.830	1067.602
360.738	20.620	1364.936	1066.635
361.752	20.638	1363.850	1065.802
362.767	20.646	1362.392	1064.617
363.781	20.637	1361.996	1064.156
364.796	20.764	1361.161	1064.189
365.810	20.771	1360.329	1063.487
366.825	20.751	1359.847	1062.894
367.840	20.732	1359.020	1062.038
368.854	20.761	1358.381	1061.621
369.869	20.837	1357.843	1061.567
370.883	20.802	1356.890	1060.517
371.898	20.757	1356.573	1059.902
372.913	20.867	1355.575	1059.699
373.927	20.743	1354.792	1058.234
374.942	20.719	1354.177	1057.518
375.956	20.794	1353.575	1057.408
376.971	20.815	1352.596	1056.678
377.986	20.816	1351.591	1055.806
379.000	20.839	1350.815	1055.246
380.015	20.772	1350.156	1054.229
381.029	20.917	1349.341	1054.378
382.044	20.828	1348.687	1053.234
383.059	20.936	1347.930	1053.207
384.073	20.867	1347.556	1052.401
385.088	20.953	1346.977	1052.374
386.102	21.029	1346.108	1052.064
387.117	20.919	1345.720	1051.001
388.132	21.055	1344.654	1050.896
389.146	20.977	1344.029	1049.848
390.161	20.917	1343.468	1048.951
391.175	21.023	1342.323	1048.604
392.190	21.021	1341.877	1048.153
393.205	20.920	1341.518	1047.170
394.219	21.114	1339.707	1046.827
395.234	20.993	1339.004	1045.464
396.248	20.997	1337.829	1044.478
397.263	21.127	1336.219	1043.904
398.278	20.998	1335.591	1042.549
399.292	21.063	1334.442	1041.950
400.307	21.107	1333.557	1041.425
401.321	21.175	1332.364	1040.809
402.336	21.164	1331.829	1040.233
403.350	21.195	1330.730	1039.465
404.365	21.174	1329.543	1038.325
405.380	21.162	1328.775	1037.561
406.394	21.072	1328.369	1036.615
407.409	21.150	1327.694	1036.459
408.423	21.252	1326.730	1036.221
409.438	21.189	1326.577	1035.638
410.453	21.183	1325.400	1034.590
411.467	21.141	1324.738	1033.733
412.482	21.281	1324.082	1033.961
413.496	21.154	1323.454	1032.624
414.511	21.230	1322.751	1032.435
415.526	21.241	1321.726	1031.611
416.540	21.310	1320.733	1031.150
417.555	21.265	1320.124	1030.321
418.569	21.250	1319.486	1029.639
419.584	21.220	1319.283	1029.217
420.599	21.288	1318.654	1029.034
421.613	137.028	1426.717	1791.119
422.628	133.396	1442.450	1791.244
