DTS Sentinel unit serial number:	SN413079Multiplexer serial number:	ORYXHardware model number:	OX4-SRSoftware version number:	ORYX F/W v4.00 Oryx Data Collector v3.7.2.0data status	okinstallation	princeton_trtdifferential loss correction	single-endedforward channel	channel 4reverse channel	N/Adate	2019/09/12time	07:15:10forward acquisition time	60.00reverse acquisition time	0.00gamma	496.2192k internal	0.2306k external	0.2306temperature offset calibration	1.0062default loss term (dB/km)	0.3790temperature slope calibration	1.0000multiplexer offset coefficient	1.0000multiplexer slope coefficient	1.0000fibre end	0.00T internal ref (°C)	32.25T ext. ref 1 (°C)	1.60T ext. ref 2 (°C)	28.25length (m)	temperature (°C)	Stokes	anti-Stokes-747.200	-75.037	0.157	0.057
-746.185	-200.000	0.000	0.055
-745.171	-45.431	-0.274	0.138
-744.156	540.463	-0.035	-0.085
-743.142	198.155	-0.114	-0.178
-742.127	-30.316	0.177	0.102
-741.112	-47.167	0.091	0.045
-740.098	-119.096	-0.262	0.047
-739.083	-105.980	-0.280	0.064
-738.069	800.000	-0.066	0.192
-737.054	-73.390	-0.067	-0.025
-736.039	90.769	-0.161	0.184
-735.025	-200.000	0.054	-0.305
-734.010	168.186	-0.124	-0.180
-732.996	545.731	0.083	-0.202
-731.981	-116.495	-0.136	0.025
-730.966	-41.091	0.217	-0.114
-729.952	-91.593	-0.374	0.108
-728.937	-5.951	-0.255	-0.177
-727.923	-40.134	0.342	-0.181
-726.908	133.894	0.149	-0.196
-725.894	-81.102	-0.289	-0.097
-724.879	-164.121	0.025	-0.001
-723.864	712.876	-0.025	-0.067
-722.850	-47.041	-0.192	0.095
-721.835	-99.029	-0.452	-0.116
-720.821	-88.055	0.375	0.114
-719.806	-97.467	-0.499	0.132
-718.791	800.000	-0.104	-0.297
-717.777	448.572	-0.174	-0.389
-716.762	800.000	0.060	-0.215
-715.748	356.261	-0.187	0.379
-714.733	-200.000	-0.060	-0.420
-713.718	-200.000	0.031	-0.177
-712.704	283.929	-0.054	-0.099
-711.689	-200.000	0.049	-0.230
-710.675	244.182	0.062	-0.105
-709.660	-29.410	-0.076	-0.044
-708.645	-122.112	-0.322	0.054
-707.631	-86.653	0.114	-0.036
-706.616	37.007	0.218	-0.196
-705.602	-80.410	-0.326	-0.110
-704.587	475.835	0.133	-0.306
-703.572	205.345	0.120	-0.190
-702.558	6.827	-0.117	0.088
-701.543	385.978	0.026	-0.055
-700.529	800.000	0.073	-0.283
-699.514	-95.899	0.197	0.053
-698.499	-142.838	0.174	-0.017
-697.485	255.709	-0.049	-0.085
-696.470	-200.000	0.008	0.145
-695.456	-154.366	-0.013	0.001
-694.441	800.000	-0.112	-0.397
-693.426	-94.123	0.113	0.031
-692.412	48.716	-0.376	-0.358
-691.397	-142.741	-0.114	-0.011
-690.383	-55.863	-0.174	-0.079
-689.368	-200.000	0.386	0.001
-688.354	-110.473	-0.375	0.079
-687.339	132.283	-0.099	0.129
-686.324	-200.000	-0.006	-0.261
-685.310	-200.000	0.019	0.489
-684.295	-107.574	0.109	-0.024
-683.281	75.121	0.148	0.159
-682.266	-30.423	-0.119	-0.068
-681.251	-35.857	-0.224	0.123
-680.237	-1.213	0.159	0.114
-679.222	-16.455	-0.157	0.101
-678.208	-129.580	-0.130	-0.018
-677.193	-134.846	-0.380	-0.047
-676.178	-200.000	0.007	-0.129
-675.164	69.730	-0.063	-0.066
-674.149	30.174	-0.251	0.217
-673.135	-18.717	0.079	0.050
-672.120	188.426	0.119	-0.180
-671.105	186.286	0.114	0.172
-670.091	9.690	-0.245	-0.188
-669.076	274.090	-0.157	-0.282
-668.062	569.176	0.078	-0.191
-667.047	-38.525	-0.235	-0.126
-666.032	-57.121	-0.201	-0.090
-665.018	-200.000	-0.020	-0.396
-664.003	8.960	-0.147	0.113
-662.989	-56.386	0.250	0.112
-661.974	-44.152	-0.328	-0.167
-660.959	-14.605	-0.130	-0.085
-659.945	-124.743	0.171	-0.027
-658.930	113.709	0.313	-0.386
-657.916	-107.044	0.244	0.055
-656.901	-79.928	0.409	0.139
-655.886	142.903	-0.095	-0.128
-654.872	456.550	-0.118	-0.265
-653.857	-108.742	-0.084	-0.018
-652.843	800.000	0.067	-0.204
-651.828	-200.000	0.008	-0.183
-650.814	164.209	0.074	0.106
-649.799	-26.765	-0.066	0.039
-648.784	354.480	-0.206	-0.416
-647.770	-60.226	-0.164	-0.071
-646.755	-200.000	-0.043	-0.257
-645.741	-87.874	0.328	-0.100
-644.726	-104.578	-0.272	0.064
-643.711	-11.675	-0.183	0.122
-642.697	-117.164	0.059	0.011
-641.682	-200.000	-0.249	-0.001
-640.668	-200.000	-0.012	0.126
-639.653	113.901	-0.108	0.133
-638.638	36.326	0.281	0.251
-637.624	304.109	-0.139	0.262
-636.609	184.521	-0.075	-0.112
-635.595	-176.151	-0.291	0.008
-634.580	-164.585	-0.203	0.009
-633.565	-47.261	0.077	-0.038
-632.551	800.000	0.036	-0.152
-631.536	-124.209	-0.159	0.025
-630.522	436.254	-0.146	-0.322
-629.507	786.090	-0.097	0.269
-628.492	-59.654	-0.211	-0.092
-627.478	-60.003	0.032	0.014
-626.463	-75.444	-0.186	-0.067
-625.449	-84.985	0.224	0.071
-624.434	-176.289	-0.072	0.002
-623.419	448.914	0.039	0.087
-622.405	95.970	-0.076	0.088
-621.390	-200.000	0.015	-0.123
-620.376	800.000	0.067	0.297
-619.361	-200.000	-0.046	-0.210
-618.346	63.465	-0.147	-0.149
-617.332	-4.014	0.053	-0.037
-616.317	-200.000	-0.004	-0.136
-615.303	-80.020	0.519	0.176
-614.288	-52.243	-0.212	0.099
-613.273	702.665	0.084	-0.224
-612.259	64.802	-0.331	-0.338
-611.244	-180.599	-0.130	0.003
-610.230	-90.844	-0.123	0.036
-609.215	-142.171	-0.106	-0.011
-608.201	-134.791	-0.119	-0.015
-607.186	-200.000	0.024	-0.171
-606.171	-39.295	-0.181	0.096
-605.157	273.692	0.131	0.234
-604.142	800.000	0.043	-0.147
-603.128	308.136	0.104	0.196
-602.113	800.000	-0.049	0.197
-601.098	272.508	0.080	-0.142
-600.084	-63.051	-0.170	0.071
-599.069	666.917	-0.079	0.207
-598.055	-200.000	-0.046	0.460
-597.040	-10.405	-0.216	-0.145
-596.025	-200.000	0.051	-0.535
-595.011	-200.000	0.077	-0.456
-593.996	-48.704	-0.297	-0.144
-592.982	-144.385	0.182	0.017
-591.967	352.899	-0.083	0.166
-590.952	-45.298	0.151	0.076
-589.938	-107.969	0.318	0.070
-588.923	-137.332	-0.243	0.028
-587.909	154.170	-0.032	-0.044
-586.894	668.302	0.024	-0.062
-585.879	-200.000	0.035	-0.319
-584.865	-116.248	0.275	-0.052
-583.850	-104.392	0.291	0.068
-582.836	169.761	-0.105	-0.152
-581.821	595.011	-0.023	-0.058
-580.806	53.057	0.188	0.182
-579.792	186.927	-0.206	-0.311
-578.777	510.232	-0.026	-0.061
-577.763	-34.255	-0.093	-0.051
-576.748	-200.000	0.013	-0.142
-575.733	800.000	-0.078	-0.232
-574.719	174.994	0.063	0.092
-573.704	-200.000	-0.023	0.341
-572.690	-95.892	-0.129	0.035
-571.675	53.763	0.097	0.094
-570.661	168.985	-0.098	0.141
-569.646	-200.000	-0.008	-0.048
-568.631	-140.118	-0.149	-0.016
-567.617	16.245	0.043	-0.034
-566.602	-200.000	0.035	0.334
-565.588	-200.000	-0.091	-0.446
-564.573	243.301	0.031	-0.053
-563.558	51.184	0.431	-0.413
-562.544	15.718	0.118	0.093
-561.529	-121.154	0.322	0.055
-560.515	-200.000	0.001	-0.126
-559.500	-61.443	-0.261	0.111
-558.485	-9.674	-0.093	0.062
-557.471	-79.975	0.073	-0.025
-556.456	224.982	-0.161	0.263
-555.442	-5.662	-0.231	-0.160
-554.427	-59.109	0.367	-0.160
-553.412	-200.000	-0.002	0.178
-552.398	-200.000	0.073	-0.408
-551.383	-200.000	0.009	-0.117
-550.369	38.895	-0.261	-0.235
-549.354	-200.000	0.003	-0.069
-548.339	60.137	0.096	0.095
-547.325	-23.099	-0.345	0.210
-546.310	-8.078	0.099	-0.067
-545.296	35.560	-0.236	-0.209
-544.281	449.721	-0.028	0.063
-543.266	51.246	0.117	0.112
-542.252	-65.129	-0.379	-0.154
-541.237	-102.792	0.240	-0.058
-540.223	-44.118	0.012	-0.006
-539.208	-41.458	-0.114	0.059
-538.193	800.000	0.050	0.208
-537.179	-68.110	0.233	0.092
-536.164	236.744	-0.227	-0.379
-535.150	-138.497	0.187	0.021
-534.135	147.609	0.201	-0.273
-533.121	-7.974	-0.218	0.148
-532.106	-200.000	0.012	0.149
-531.091	-158.106	0.055	0.003
-530.077	-111.879	-0.084	0.017
-529.062	183.775	0.119	0.177
-528.048	8.550	0.191	-0.145
-527.033	573.357	-0.074	0.181
-526.018	1.869	0.034	0.025
-525.004	74.741	-0.176	0.187
-523.989	-200.000	-0.007	-0.124
-522.975	800.000	0.159	-0.546
-521.960	150.402	0.031	-0.042
-520.945	16.717	-0.105	0.084
-519.931	-57.581	0.100	0.044
-518.916	-50.803	-0.303	-0.144
-517.902	-144.880	0.588	0.054
-516.887	-67.521	0.094	-0.037
-515.872	61.015	-0.320	-0.320
-514.858	142.865	-0.156	-0.209
-513.843	9.942	0.114	0.087
-512.829	476.205	0.024	-0.056
-511.814	-29.836	0.075	0.043
-510.799	-124.960	0.303	-0.047
-509.785	82.420	0.157	0.172
-508.770	-200.000	0.015	-0.154
-507.756	389.360	-0.163	-0.340
-506.741	-64.361	0.197	-0.081
-505.726	-13.489	0.263	-0.172
-504.712	-32.920	-0.088	-0.049
-503.697	41.292	-0.114	0.104
-502.683	138.321	0.101	0.133
-501.668	265.056	0.133	-0.234
-500.653	-200.000	-0.049	-0.229
-499.639	178.067	0.119	0.174
-498.624	52.248	-0.087	0.084
-497.610	457.801	-0.058	0.130
-496.595	524.862	-0.044	-0.104
-495.581	-200.000	0.063	-0.330
-494.566	-111.586	0.275	-0.056
-493.551	-200.000	-0.016	-0.157
-492.537	-157.377	0.145	-0.009
-491.522	-200.000	0.021	0.112
-490.508	-74.094	0.131	-0.048
-489.493	-113.339	0.316	0.062
-488.478	-37.512	-0.097	0.052
-487.464	-127.197	0.115	-0.017
-486.449	800.000	-0.091	0.335
-485.435	14.430	-0.335	-0.263
-484.420	7.327	0.217	-0.163
-483.405	-85.655	-0.072	-0.023
-482.391	-95.504	-0.233	0.063
-481.376	800.000	-0.095	-0.291
-480.362	-200.000	0.030	-0.207
-479.347	-28.486	0.072	0.042
-478.332	-32.217	-0.136	0.077
-477.318	339.589	0.080	-0.157
-476.303	-200.000	-0.067	0.357
-475.289	109.479	0.071	-0.085
-474.274	-200.000	-0.008	0.057
-473.259	69.229	-0.086	-0.089
-472.245	245.784	0.063	-0.106
-471.230	278.373	-0.059	0.105
-470.216	163.748	0.173	0.245
-469.201	-142.821	-0.115	0.011
-468.186	442.862	0.185	-0.408
-467.172	269.141	0.141	0.249
-466.157	231.177	-0.075	0.123
-465.143	251.405	-0.063	-0.108
-464.128	-200.000	-0.017	0.096
-463.113	156.101	-0.185	0.257
-462.099	-50.158	0.115	-0.055
-461.084	-117.884	0.102	0.018
-460.070	-25.169	0.105	-0.062
-459.055	-200.000	0.067	-0.342
-458.040	-192.675	-0.141	0.001
-457.026	-200.000	-0.022	0.233
-456.011	107.480	-0.223	0.267
-454.997	59.146	-0.246	-0.243
-453.982	-200.000	-0.053	0.250
-452.968	504.357	0.009	0.021
-451.953	-121.983	-0.279	-0.046
-450.938	152.873	-0.126	-0.173
-449.924	42.804	0.127	-0.117
-448.909	-143.973	0.246	0.023
-447.895	629.206	0.123	0.312
-446.880	94.321	-0.112	0.128
-445.865	-74.131	0.103	0.038
-444.851	78.249	-0.112	-0.120
-443.836	-200.000	-0.036	0.285
-442.822	-200.000	-0.046	0.386
-441.807	102.106	0.026	0.031
-440.792	182.560	-0.071	-0.106
-439.778	154.527	0.080	-0.110
-438.763	-47.157	-0.171	-0.084
-437.749	-17.784	0.195	0.123
-436.734	-99.646	0.212	-0.053
-435.719	49.848	0.090	-0.086
-434.705	-200.000	0.026	0.261
-433.690	800.000	0.052	0.163
-432.676	-10.487	0.178	0.118
-431.661	83.536	-0.201	-0.220
-430.646	-200.000	-0.003	-0.067
-429.632	25.930	0.204	0.171
-428.617	-102.132	0.426	0.103
-427.603	194.669	0.114	0.174
-426.588	-108.987	-0.338	-0.072
-425.573	-65.033	-0.144	-0.058
-424.559	-134.475	-0.131	0.016
-423.544	318.850	0.083	-0.158
-422.530	-135.985	0.183	0.022
-421.515	41.624	0.174	-0.158
-420.500	-176.041	-0.029	0.001
-419.486	184.517	0.144	0.214
-418.471	-38.025	0.189	0.101
-417.457	114.092	-0.119	-0.145
-416.442	255.215	-0.136	-0.234
-415.428	299.782	0.106	0.196
-414.413	-200.000	0.050	-0.241
-413.398	-98.016	0.076	0.020
-412.384	-107.578	-0.359	-0.079
-411.369	258.596	-0.142	0.246
-410.355	-200.000	0.070	0.379
-409.340	24.859	0.138	-0.115
-408.325	-14.303	-0.125	0.081
-407.311	242.709	-0.102	-0.171
-406.296	-200.000	-0.011	-0.220
-405.282	-200.000	-0.002	0.037
-404.267	-105.631	0.025	-0.006
-403.252	-21.384	0.197	-0.121
-402.238	800.000	-0.048	0.177
-401.223	13.013	0.051	0.040
-400.209	-132.543	-0.099	0.013
-399.194	90.005	-0.115	0.129
-398.179	38.885	0.315	0.283
-397.165	800.000	0.053	0.232
-396.150	301.556	-0.126	-0.234
-395.136	68.078	0.237	-0.243
-394.121	79.184	-0.055	0.059
-393.106	57.412	0.169	-0.165
-392.092	112.162	-0.157	0.190
-391.077	-200.000	0.039	0.302
-390.063	-112.090	-0.460	-0.093
-389.048	-74.246	0.014	0.005
-388.033	91.422	-0.242	0.272
-387.019	389.705	0.105	-0.218
-386.004	-78.022	-0.073	0.025
-384.990	-89.588	-0.197	0.058
-383.975	-92.768	0.129	-0.036
-382.960	-59.238	-0.112	-0.048
-381.946	800.000	-0.048	0.151
-380.931	800.000	0.098	0.287
-379.917	800.000	-0.030	0.124
-378.902	-33.498	0.373	0.207
-377.888	224.324	0.095	-0.155
-376.873	-200.000	0.007	0.235
-375.858	257.815	0.072	-0.124
-374.844	106.288	0.086	0.103
-373.829	202.985	-0.131	-0.203
-372.815	-200.000	-0.036	-0.161
-371.800	-200.000	0.003	-0.035
-370.785	13.152	-0.338	-0.263
-369.771	275.937	0.031	0.055
-368.756	-59.204	-0.057	-0.025
-367.742	-181.346	-0.216	-0.004
-366.727	117.211	0.367	0.453
-365.712	22.580	-0.187	-0.153
-364.698	-131.678	0.267	0.035
-363.683	-200.000	0.018	0.202
-362.669	218.283	0.034	0.054
-361.654	-117.066	-0.111	-0.020
-360.639	-32.451	-0.217	-0.121
-359.625	47.529	0.244	0.228
-358.610	27.962	0.130	0.110
-357.596	55.444	-0.143	0.139
-356.581	139.756	0.165	-0.218
-355.566	-43.103	-0.182	-0.093
-354.552	109.635	0.216	-0.259
-353.537	293.766	-0.102	0.187
-352.523	800.000	-0.033	-0.120
-351.508	-36.451	0.066	-0.036
-350.493	-5.868	0.246	-0.169
-349.479	-57.281	0.171	-0.075
-348.464	11.836	0.243	0.187
-347.450	13.739	-0.023	0.018
-346.435	24.211	-0.163	-0.134
-345.420	96.836	0.121	-0.139
-344.406	800.000	-0.029	0.114
-343.391	43.433	0.203	0.186
-342.377	-200.000	-0.044	0.196
-341.362	-200.000	-0.004	0.184
-340.348	254.723	0.231	-0.396
-339.333	800.000	0.050	0.183
-338.318	79.521	0.285	0.306
-337.304	-68.004	0.275	0.107
-336.289	-200.000	-0.107	0.478
-335.275	-200.000	-0.006	-0.151
-334.260	-200.000	0.006	0.042
-333.245	85.367	0.027	-0.030
-332.231	92.296	-0.106	0.120
-331.216	-92.388	0.120	0.034
-330.202	164.309	0.095	0.134
-329.187	-200.000	0.006	-0.131
-328.172	65.030	-0.167	-0.169
-327.158	145.193	0.124	0.166
-326.143	780.084	-0.214	0.587
-325.129	-200.000	-0.015	-0.305
-324.114	-200.000	-0.003	0.167
-323.099	800.000	-0.109	0.334
-322.085	106.901	0.091	-0.109
-321.070	47.163	0.131	-0.122
-320.056	800.000	-0.027	-0.082
-319.041	58.883	-0.159	-0.156
-318.026	800.000	-0.093	0.334
-317.012	48.248	0.106	-0.099
-315.997	139.836	0.084	-0.111
-314.983	-200.000	-0.026	0.185
-313.968	-151.222	0.323	-0.024
-312.953	128.200	0.138	0.176
-311.939	431.777	-0.033	-0.072
-310.924	800.000	0.062	-0.173
-309.910	222.370	-0.077	-0.124
-308.895	699.117	-0.168	0.443
-307.880	-149.300	0.450	-0.036
-306.866	340.213	0.149	-0.291
-305.851	20.609	0.112	0.091
-304.837	-200.000	-0.038	-0.293
-303.822	-79.690	-0.197	0.066
-302.807	-166.247	0.204	0.009
-301.793	800.000	-0.094	0.281
-300.778	-65.051	0.291	0.117
-299.764	-54.050	0.379	-0.172
-298.749	-90.229	-0.153	-0.044
-297.735	-17.771	-0.150	0.094
-296.720	93.085	-0.119	-0.135
-295.705	163.805	0.083	-0.116
-294.691	800.000	0.042	0.137
-293.676	-107.079	-0.261	-0.058
-292.662	-200.000	-0.063	-0.305
-291.647	-110.592	-0.122	0.025
-290.632	800.000	0.029	0.090
-289.618	-200.000	0.012	0.126
-288.603	-200.000	-0.023	0.367
-287.589	-192.524	-0.035	-0.000
-286.574	800.000	-0.037	-0.145
-285.559	69.974	0.226	-0.233
-284.545	630.432	0.058	0.147
-283.530	-137.405	-0.130	-0.015
-282.516	-82.801	0.151	0.049
-281.501	-137.510	-0.309	-0.035
-280.486	19.921	0.275	0.221
-279.472	794.730	0.049	-0.136
-278.457	-13.157	0.152	0.099
-277.443	73.484	-0.089	-0.093
-276.428	-197.732	-0.103	0.001
-275.413	519.787	-0.123	-0.288
-274.399	-90.010	-0.374	0.109
-273.384	-200.000	0.045	0.293
-272.370	34.458	-0.201	-0.175
-271.355	-13.763	-0.053	0.034
-270.340	234.916	0.095	0.157
-269.326	-50.254	0.029	-0.014
-268.311	256.093	0.066	-0.113
-267.297	100.062	-0.084	0.097
-266.282	-172.789	0.239	0.007
-265.267	-141.291	-0.264	0.027
-264.253	376.646	0.086	0.175
-263.238	800.000	-0.035	0.152
-262.224	-140.095	0.233	0.024
-261.209	-11.137	-0.303	-0.199
-260.195	-97.446	0.330	0.086
-259.180	25.044	0.305	0.252
-258.165	-157.561	-0.017	-0.001
-257.151	-142.589	0.485	0.047
-256.136	34.434	0.199	0.174
-255.122	-200.000	0.015	0.235
-254.107	-79.045	0.192	-0.065
-253.092	439.818	0.156	0.340
-252.078	144.429	0.070	0.093
-251.063	-17.631	-0.159	0.099
-250.049	7.276	-0.314	-0.234
-249.034	-104.259	-0.239	-0.055
-248.019	254.781	-0.106	0.182
-247.005	41.553	-0.138	0.125
-245.990	-164.194	-0.612	-0.028
-244.976	791.313	0.115	-0.314
-243.961	-143.115	-0.307	0.030
-242.946	-200.000	-0.038	0.236
-241.932	-60.870	0.358	0.151
-240.917	109.729	0.084	0.100
-239.903	-177.673	-0.375	0.009
-238.888	-20.438	0.141	-0.087
-237.873	-99.765	-0.241	0.060
-236.859	619.334	-0.106	0.264
-235.844	21.584	-0.436	0.353
-234.830	-200.000	-0.043	-0.327
-233.815	-145.235	-0.066	0.006
-232.800	46.056	0.098	-0.091
-231.786	-200.000	0.050	-0.237
-230.771	800.000	-0.021	0.066
-229.757	83.400	-0.181	-0.197
-228.742	136.891	-0.161	-0.209
-227.727	-20.507	0.474	0.290
-226.713	-84.035	-0.376	-0.119
-225.698	675.804	0.065	-0.168
-224.684	163.609	-0.057	-0.080
-223.669	28.463	0.107	0.090
-222.655	-6.328	0.074	0.051
-221.640	186.411	-0.178	0.263
-220.625	-40.202	0.320	-0.166
-219.611	-90.238	0.050	-0.014
-218.596	-77.218	-0.301	-0.105
-217.582	-130.641	-0.423	-0.057
-216.567	28.987	0.138	-0.116
-215.552	478.184	-0.108	-0.243
-214.538	-128.784	-0.182	-0.026
-213.523	-56.839	-0.179	0.079
-212.509	787.469	-0.075	0.205
-211.494	117.793	0.081	0.099
-210.479	449.815	0.096	-0.211
-209.465	-98.703	-0.342	-0.087
-208.450	800.000	0.036	-0.122
-207.436	-152.841	0.256	-0.018
-206.421	360.275	0.099	-0.197
-205.406	491.511	0.084	-0.191
-204.392	-39.951	0.066	0.034
-203.377	-200.000	-0.075	-0.364
-202.363	-46.043	0.182	0.090
-201.348	12.371	0.226	0.173
-200.333	800.000	0.035	-0.128
-199.319	-200.000	0.009	-0.227
-198.304	-85.267	0.076	-0.024
-197.290	-80.066	0.352	0.118
-196.275	-200.000	-0.346	0.001
-195.260	85.848	0.180	0.198
-194.246	800.000	-0.049	-0.215
-193.231	75.309	0.175	-0.184
-192.217	-177.190	0.139	-0.003
-191.202	335.066	-0.035	0.067
-190.187	-37.358	0.499	-0.265
-189.173	-125.400	-0.454	-0.069
-188.158	12.502	-0.276	0.212
-187.144	-10.649	-0.377	-0.248
-186.129	-200.000	-0.061	-0.276
-185.114	-111.316	0.282	-0.057
-184.100	44.085	0.124	-0.113
-183.085	-200.000	-0.046	0.328
-182.071	188.021	0.082	0.123
-181.056	189.329	-0.215	-0.320
-180.042	40.825	0.374	0.336
-179.027	-160.563	0.304	-0.016
-178.012	-18.839	0.260	0.161
-176.998	40.812	-0.168	0.151
-175.983	110.514	-0.166	0.199
-174.969	-77.621	0.328	0.113
-173.954	-140.407	-0.378	0.039
-172.939	-200.000	0.046	0.213
-171.925	800.000	0.083	0.232
-170.910	800.000	0.041	-0.145
-169.896	219.456	-0.055	0.088
-168.881	-51.160	-0.151	-0.070
-167.866	800.000	-0.101	-0.347
-166.852	193.187	-0.087	-0.131
-165.837	-200.000	-0.029	0.273
-164.823	611.040	0.089	-0.222
-163.808	88.287	-0.331	0.365
-162.793	-200.000	-0.012	0.076
-161.779	800.000	0.111	-0.337
-160.764	248.909	-0.095	0.160
-159.750	-165.193	-0.239	0.010
-158.735	37.489	0.010	-0.009
-157.720	658.355	-0.041	-0.104
-156.706	743.437	0.073	-0.196
-155.691	-58.553	-0.352	0.152
-154.677	304.144	0.123	0.227
-153.662	263.849	0.224	-0.387
-152.647	83.810	-0.002	-0.002
-151.633	0.536	-0.077	-0.054
-150.618	-91.734	-0.348	-0.098
-149.604	194.048	0.162	-0.244
-148.589	-200.000	0.032	-0.582
-147.574	262.778	0.124	-0.213
-146.560	-200.000	0.057	-0.296
-145.545	169.754	0.226	-0.321
-144.531	800.000	-0.023	0.076
-143.516	-53.946	0.132	0.060
-142.502	544.364	-0.050	-0.120
-141.487	-200.000	-0.027	0.171
-140.472	-39.267	0.206	-0.107
-139.458	800.000	-0.060	0.170
-138.443	-106.760	-0.070	0.015
-137.429	167.242	0.124	-0.174
-136.414	79.989	-0.066	-0.071
-135.399	-37.130	-0.140	0.074
-134.385	74.925	0.068	-0.072
-133.370	-78.674	-0.196	0.067
-132.356	-41.021	0.236	0.121
-131.341	50.111	0.012	-0.011
-130.326	800.000	0.042	0.126
-129.312	77.082	0.147	0.155
-128.297	-25.813	-0.097	0.057
-127.283	-92.415	0.286	0.080
-126.268	12.606	0.035	-0.027
-125.253	12.132	-0.033	0.025
-124.239	103.142	0.140	0.163
-123.224	57.873	-0.235	0.228
-122.210	-200.000	-0.020	0.239
-121.195	104.033	-0.223	0.260
-120.180	99.202	0.125	0.144
-119.166	54.799	0.109	-0.104
-118.151	215.933	0.160	-0.253
-117.137	32.539	-0.194	-0.166
-116.122	-108.658	0.420	-0.090
-115.107	45.637	0.350	0.321
-114.093	-18.212	0.424	0.263
-113.078	-91.108	-0.117	-0.033
-112.064	-77.534	0.197	-0.068
-111.049	-200.000	-0.011	0.436
-110.034	-50.966	-0.422	0.197
-109.020	-200.000	-0.004	0.253
-108.005	679.551	0.042	-0.109
-106.991	-38.976	0.134	0.070
-105.976	-91.904	-0.300	0.084
-104.962	-59.435	-0.155	0.066
-103.947	14.338	-0.173	-0.134
-102.932	-104.396	0.039	-0.009
-101.918	800.000	0.045	0.165
-100.903	800.000	0.089	-0.286
-99.889	-200.000	0.004	-0.097
-98.874	207.352	0.041	-0.063
-97.859	-200.000	-0.058	0.392
-96.845	109.509	0.077	-0.092
-95.830	190.857	-0.154	0.230
-94.816	-78.239	0.055	0.019
-93.801	-29.338	0.387	0.219
-92.786	-169.193	0.271	-0.010
-91.772	-157.499	0.189	-0.011
-90.757	-200.000	0.004	0.137
-89.743	800.000	0.050	0.142
-88.728	-61.526	-0.156	-0.065
-87.713	32.481	-0.284	-0.243
-86.699	120.113	0.052	-0.063
-85.684	-137.629	-0.423	-0.047
-84.670	-200.000	-0.034	0.209
-83.655	-200.000	0.047	-0.482
-82.640	-65.555	0.306	0.122
-81.626	-168.752	-0.126	-0.005
-80.611	-53.685	-0.319	0.144
-79.597	542.049	-0.158	0.372
-78.582	-200.000	-0.017	0.090
-77.567	-0.943	0.134	0.094
-76.553	158.617	0.063	-0.086
-75.538	491.363	0.048	0.108
-74.524	221.632	-0.123	-0.196
-73.509	145.152	0.198	0.263
-72.494	800.000	0.025	-0.092
-71.480	-15.431	-0.052	0.033
-70.465	-127.375	-0.363	0.052
-69.451	44.044	0.394	-0.357
-68.436	800.000	-0.109	0.424
-67.422	-164.054	-0.177	-0.008
-66.407	-8.275	0.155	0.103
-65.392	-59.027	0.136	-0.058
-64.378	-88.614	0.132	-0.039
-63.363	-110.334	0.181	0.037
-62.349	-102.322	0.286	-0.068
-61.334	181.069	-0.901	-1.312
-60.319	326.664	0.061	0.116
-59.305	-200.000	-0.090	-0.854
-58.290	155.489	0.861	1.173
-57.276	800.000	0.518	1.817
-56.261	-200.000	96.073	589.354
-55.246	552.910	1380.493	3284.659
-54.232	156.016	2569.203	3507.288
-53.217	103.164	2307.669	2677.959
-52.203	38.982	2065.479	1827.592
-51.188	34.059	1980.255	1708.043
-50.173	32.482	1962.293	1678.436
-49.159	47.261	2012.155	1854.844
-48.144	48.829	2029.795	1885.195
-47.130	34.636	1991.330	1722.529
-46.115	32.305	1980.938	1692.520
-45.100	32.137	1978.311	1688.697
-44.086	32.149	1975.351	1686.212
-43.071	31.991	1973.328	1682.997
-42.057	31.977	1971.203	1680.991
-41.042	32.105	1968.761	1679.987
-40.027	32.172	1966.584	1678.663
-39.013	32.109	1965.242	1676.886
-37.998	32.167	1963.399	1675.770
-36.984	32.159	1961.699	1674.183
-35.969	32.152	1959.807	1672.439
-34.954	32.280	1958.131	1672.078
-33.940	32.158	1956.753	1669.753
-32.925	32.334	1954.623	1669.431
-31.911	32.349	1952.806	1667.948
-30.896	32.347	1951.490	1666.733
-29.881	32.317	1950.358	1665.437
-28.867	32.382	1948.008	1663.936
-27.852	32.355	1946.917	1662.707
-26.838	32.353	1944.454	1660.518
-25.823	32.232	1943.034	1658.171
-24.809	32.199	1941.559	1656.556
-23.794	32.271	1939.459	1655.334
-22.779	32.179	1938.209	1653.385
-21.765	32.257	1936.002	1652.124
-20.750	32.219	1934.327	1650.295
-19.736	32.236	1932.801	1649.082
-18.721	32.276	1931.178	1647.978
-17.706	32.247	1929.648	1646.351
-16.692	32.227	1927.989	1644.695
-15.677	32.293	1926.128	1643.626
-14.663	32.259	1925.001	1642.296
-13.648	32.330	1923.849	1641.868
-12.633	32.296	1922.420	1640.287
-11.619	32.226	1921.636	1638.944
-10.604	32.221	1919.830	1637.297
-9.590	32.312	1918.044	1636.497
-8.575	32.277	1917.074	1635.299
-7.560	32.272	1915.745	1634.064
-6.546	32.212	1914.781	1632.654
-5.531	32.246	1913.484	1631.782
-4.517	32.309	1911.877	1630.892
-3.502	32.310	1910.689	1629.823
-2.487	32.317	1909.672	1628.949
-1.473	32.307	1908.584	1627.869
-0.458	32.324	1904.287	1624.283
0.556	32.082	1885.048	1598.241
1.571	28.262	1866.812	1550.363
2.586	24.556	1889.563	1537.290
3.600	23.667	1925.908	1558.913
4.615	23.057	1921.048	1549.497
5.629	17.134	1817.355	1416.479
6.644	6.906	1695.807	1241.633
7.659	2.074	1658.549	1177.058
8.673	1.712	1654.839	1171.535
9.688	1.661	1653.521	1170.104
10.702	1.602	1651.433	1168.074
11.717	1.436	1648.545	1164.652
12.731	1.879	1647.880	1167.479
13.746	8.522	1664.908	1230.706
14.761	19.392	1688.933	1332.805
15.775	25.176	1698.841	1385.322
16.790	26.256	1700.769	1395.115
17.804	26.396	1700.131	1395.548
18.819	26.493	1699.170	1395.384
19.834	26.548	1698.736	1395.333
20.848	26.814	1697.710	1396.409
21.863	26.759	1697.712	1395.870
22.877	26.964	1695.771	1395.727
23.892	26.919	1695.099	1394.701
24.907	26.920	1694.576	1394.155
25.921	26.860	1693.989	1393.091
26.936	26.899	1692.180	1391.777
27.950	26.935	1691.259	1391.173
28.965	26.922	1690.973	1390.717
29.980	26.925	1689.655	1389.526
30.994	26.850	1688.935	1388.241
32.009	26.890	1687.536	1387.273
33.023	26.925	1686.495	1386.561
34.038	26.808	1686.304	1385.389
35.053	26.907	1684.341	1384.410
36.067	26.790	1683.934	1383.062
37.082	26.924	1682.620	1382.880
38.096	26.876	1682.130	1381.992
39.111	26.849	1681.051	1380.776
40.126	26.838	1680.569	1380.175
41.140	26.907	1679.557	1379.741
42.155	26.982	1677.794	1378.741
43.169	26.825	1677.123	1376.876
44.184	26.908	1676.150	1376.588
45.199	26.850	1675.073	1375.141
46.213	26.853	1673.975	1374.137
47.228	26.915	1672.517	1373.296
48.242	26.876	1671.661	1372.173
49.257	26.835	1670.771	1371.008
50.271	26.838	1669.675	1370.015
51.286	26.885	1668.196	1369.033
52.301	26.848	1667.406	1367.983
53.315	26.861	1665.988	1366.796
54.330	26.825	1664.581	1365.248
55.344	26.848	1663.051	1364.046
56.359	26.938	1661.530	1363.359
57.374	26.847	1660.942	1362.067
58.388	26.857	1659.590	1360.919
59.403	26.802	1658.885	1359.806
60.417	26.914	1657.456	1359.349
61.432	26.866	1656.361	1357.974
62.447	26.894	1655.401	1357.277
63.461	26.964	1654.345	1356.814
64.476	26.855	1653.571	1355.244
65.490	26.934	1652.292	1354.668
66.505	26.926	1651.696	1353.995
67.520	26.886	1650.794	1352.838
68.534	26.888	1649.756	1351.889
69.549	26.925	1648.329	1350.874
70.563	26.894	1647.708	1350.010
71.578	26.834	1646.500	1348.458
72.593	26.921	1645.158	1347.886
73.607	26.885	1644.598	1347.039
74.622	26.926	1643.345	1346.199
75.636	26.909	1642.552	1345.300
76.651	26.943	1641.898	1344.901
77.666	26.881	1640.806	1343.429
78.680	26.873	1639.901	1342.511
79.695	26.883	1639.335	1342.001
80.709	26.909	1638.286	1341.215
81.724	26.975	1637.086	1340.603
82.739	26.920	1636.299	1339.436
83.753	26.906	1635.455	1338.520
84.768	26.924	1634.423	1337.692
85.782	26.795	1634.218	1336.455
86.797	26.872	1633.017	1335.918
87.812	26.887	1631.853	1334.957
88.826	26.981	1630.571	1334.486
89.841	26.783	1630.385	1332.757
90.855	26.877	1629.214	1332.375
91.870	26.897	1628.074	1331.469
92.884	26.905	1626.844	1330.404
93.899	26.919	1625.569	1329.350
94.914	26.966	1624.388	1328.611
95.928	26.846	1623.709	1327.059
96.943	26.954	1621.738	1326.121
97.957	26.951	1621.261	1325.592
98.972	26.920	1619.978	1324.199
99.987	26.988	1618.760	1323.582
101.001	26.969	1617.266	1322.099
102.016	26.914	1615.696	1320.303
103.030	26.951	1614.315	1319.323
104.045	26.882	1613.236	1317.825
105.060	26.908	1612.031	1316.915
106.074	26.845	1610.758	1315.301
107.089	26.911	1609.605	1314.718
108.103	27.012	1608.254	1314.231
109.118	27.023	1606.859	1313.052
110.133	26.813	1606.713	1311.300
111.147	26.999	1605.055	1311.175
112.162	26.973	1604.112	1310.101
113.176	27.054	1602.779	1309.481
114.191	27.063	1601.565	1308.439
115.206	26.930	1600.646	1306.616
116.220	26.988	1599.473	1305.961
117.235	26.844	1598.762	1304.223
118.249	26.980	1597.457	1304.024
119.264	27.011	1596.088	1303.015
120.279	26.988	1594.841	1301.713
121.293	26.975	1593.568	1300.471
122.308	27.035	1592.665	1300.043
123.322	27.061	1591.585	1299.230
124.337	27.037	1590.476	1298.040
125.352	27.064	1589.246	1297.118
126.366	27.091	1588.351	1296.464
127.381	27.077	1587.704	1295.719
128.395	27.105	1586.349	1294.701
129.410	27.079	1585.374	1293.602
130.424	27.019	1584.236	1292.137
131.439	27.099	1582.828	1291.441
132.454	26.960	1582.098	1289.741
133.468	27.107	1580.590	1289.441
134.483	27.025	1579.147	1287.569
135.497	27.037	1578.330	1286.876
136.512	27.077	1577.480	1286.352
137.527	27.076	1575.850	1284.902
138.541	27.050	1574.769	1283.722
139.556	27.009	1574.110	1282.785
140.570	27.109	1572.609	1282.152
141.585	27.080	1571.150	1280.645
142.600	27.099	1570.269	1279.946
143.614	27.065	1569.284	1278.788
144.629	26.997	1568.241	1277.352
145.643	27.104	1566.417	1276.506
146.658	27.050	1565.556	1275.310
147.673	26.955	1564.587	1273.744
148.687	26.940	1563.641	1272.750
149.702	26.946	1562.682	1271.900
150.716	27.053	1560.866	1271.061
151.731	27.018	1560.050	1270.038
152.746	26.995	1559.046	1268.948
153.760	27.026	1557.528	1267.818
154.775	27.124	1556.620	1267.647
155.789	27.085	1555.634	1266.459
156.804	27.130	1554.413	1265.670
157.819	27.047	1553.787	1264.471
158.833	27.041	1552.735	1263.462
159.848	27.158	1551.381	1263.058
160.862	27.203	1550.533	1262.569
161.877	27.142	1549.774	1261.413
162.892	27.170	1548.367	1260.357
163.906	27.120	1547.764	1259.405
164.921	27.253	1546.922	1259.530
165.935	27.202	1545.713	1258.079
166.950	27.123	1545.138	1256.953
167.964	27.172	1543.928	1256.199
168.979	27.152	1542.827	1255.050
169.994	27.227	1541.888	1254.698
171.008	27.196	1541.270	1253.871
172.023	27.200	1540.356	1253.040
173.037	27.145	1539.562	1251.905
174.052	27.151	1538.460	1250.942
175.067	27.279	1537.574	1250.991
176.081	27.171	1536.330	1249.125
177.096	27.257	1535.437	1248.878
178.110	27.177	1534.117	1247.147
179.125	27.172	1533.409	1246.425
180.140	27.187	1532.551	1245.717
181.154	27.215	1531.616	1245.043
182.169	27.252	1530.674	1244.418
183.183	27.265	1529.539	1243.475
184.198	27.192	1528.832	1242.294
185.213	27.275	1527.911	1241.998
186.227	27.212	1527.103	1240.805
187.242	27.233	1526.481	1240.329
188.256	27.254	1525.741	1239.764
189.271	27.215	1524.953	1238.745
190.286	27.355	1523.383	1238.313
191.300	27.395	1522.902	1238.089
192.315	27.289	1521.748	1236.321
193.329	27.328	1521.001	1235.870
194.344	27.247	1520.151	1234.519
195.359	27.307	1519.767	1234.503
196.373	27.301	1519.076	1233.793
197.388	27.287	1517.369	1232.202
198.402	27.277	1516.715	1231.491
199.417	27.226	1515.675	1230.193
200.432	27.246	1515.231	1229.861
201.446	27.304	1514.398	1229.467
202.461	27.319	1513.314	1228.582
203.475	27.199	1512.911	1227.332
204.490	27.249	1511.848	1226.700
205.504	27.267	1510.927	1225.963
206.519	27.334	1510.153	1225.684
207.534	27.280	1509.591	1224.755
208.548	27.337	1508.351	1224.020
209.563	27.325	1507.599	1223.221
210.577	27.285	1506.954	1222.320
211.592	27.277	1506.298	1221.631
212.607	27.404	1505.504	1221.732
213.621	27.426	1504.622	1221.052
214.636	27.562	1503.327	1220.806
215.650	27.421	1502.804	1219.328
216.665	27.291	1502.345	1217.976
217.680	27.356	1501.209	1217.383
218.694	27.420	1500.407	1217.056
219.709	27.344	1499.833	1215.973
220.723	27.475	1498.485	1215.648
221.738	27.513	1497.845	1215.271
222.753	27.380	1497.291	1213.830
223.767	27.301	1495.936	1212.098
224.782	27.324	1495.267	1211.602
225.796	27.469	1495.014	1212.257
226.811	27.449	1493.880	1211.091
227.826	27.504	1493.065	1210.691
228.840	27.526	1492.250	1210.066
229.855	27.535	1491.684	1209.565
230.869	27.422	1490.876	1208.053
231.884	27.487	1490.177	1207.806
232.899	27.483	1488.511	1206.327
233.913	27.442	1487.699	1205.287
234.928	27.479	1486.350	1204.332
235.942	27.613	1485.662	1204.552
236.957	27.626	1484.834	1203.861
237.972	27.519	1483.975	1202.354
238.986	27.567	1482.785	1201.601
240.001	27.528	1481.847	1200.474
241.015	27.527	1481.263	1199.891
242.030	27.602	1479.608	1198.937
243.045	27.632	1478.932	1198.479
244.059	27.656	1478.065	1197.832
245.074	27.681	1477.432	1197.374
246.088	27.646	1476.521	1196.299
247.103	27.728	1476.088	1196.384
248.117	27.666	1475.716	1195.568
249.132	27.705	1474.443	1194.688
250.147	27.740	1473.565	1194.100
251.161	27.701	1473.283	1193.506
252.176	27.758	1472.328	1193.001
253.190	27.767	1471.778	1192.513
254.205	27.799	1470.846	1191.861
255.220	27.850	1470.144	1191.518
256.234	27.805	1468.797	1190.029
257.249	27.822	1468.176	1189.527
258.263	27.820	1467.242	1188.657
259.278	27.750	1466.849	1187.776
260.293	27.784	1465.983	1187.186
261.307	27.879	1465.139	1187.017
262.322	27.867	1464.389	1186.229
263.336	27.842	1464.011	1185.657
264.351	27.802	1462.821	1184.328
265.366	27.764	1462.283	1183.540
266.380	27.786	1461.276	1182.763
267.395	27.802	1459.958	1181.693
268.409	27.720	1459.757	1180.898
269.424	27.812	1458.478	1180.351
270.439	27.827	1457.664	1179.685
271.453	27.930	1456.518	1179.317
272.468	27.877	1455.575	1178.112
273.482	27.888	1455.253	1177.812
274.497	27.923	1454.372	1177.222
275.512	27.784	1453.571	1175.576
276.526	27.846	1452.727	1175.191
277.541	27.929	1452.130	1175.132
278.555	27.851	1451.089	1173.688
279.570	28.007	1450.557	1174.155
280.585	28.030	1449.769	1173.559
281.599	27.926	1448.940	1172.121
282.614	27.900	1448.214	1171.261
283.628	27.962	1446.592	1170.245
284.643	27.875	1446.074	1169.165
285.657	27.957	1445.106	1168.799
286.672	27.972	1444.348	1168.181
287.687	27.943	1443.549	1167.246
288.701	27.929	1443.178	1166.755
289.716	28.049	1441.942	1166.418
290.730	28.040	1441.398	1165.814
291.745	28.062	1440.057	1164.767
292.760	28.034	1439.587	1164.110
293.774	28.091	1438.535	1163.516
294.789	28.117	1437.702	1162.903
295.803	28.052	1437.401	1162.144
296.818	28.102	1436.346	1161.509
297.833	28.038	1435.321	1160.170
298.847	28.080	1434.581	1159.733
299.862	28.147	1433.388	1159.093
300.876	28.227	1432.831	1159.046
301.891	28.093	1431.939	1157.374
302.906	28.026	1431.564	1156.544
303.920	28.275	1430.614	1157.247
304.935	28.203	1430.412	1156.527
305.949	28.313	1428.904	1155.901
306.964	28.189	1428.305	1154.529
307.979	28.237	1427.442	1154.035
308.993	28.237	1426.484	1153.158
310.008	28.264	1425.751	1152.631
311.022	28.256	1425.046	1151.909
312.037	28.253	1423.938	1150.893
313.052	28.239	1423.176	1150.085
314.066	28.357	1422.096	1149.852
315.081	28.213	1421.413	1148.296
316.095	28.266	1420.557	1147.838
317.110	28.222	1419.694	1146.763
318.125	28.356	1418.583	1146.600
319.139	28.319	1418.238	1145.992
320.154	28.252	1417.462	1144.840
321.168	28.274	1416.551	1144.139
322.183	28.308	1415.329	1143.264
323.197	28.408	1414.372	1143.016
324.212	28.400	1413.578	1142.225
325.227	28.287	1413.511	1141.364
326.241	28.332	1412.357	1140.608
327.256	28.412	1411.434	1140.265
328.270	28.430	1410.850	1139.802
329.285	28.434	1409.694	1138.790
330.300	28.437	1408.717	1137.921
331.314	28.350	1408.479	1137.090
332.329	28.426	1407.382	1136.572
333.343	28.457	1406.665	1136.084
334.358	28.548	1406.001	1136.015
335.373	28.542	1405.876	1135.773
336.387	28.524	1404.845	1134.727
337.402	28.502	1403.997	1133.809
338.416	28.486	1403.777	1133.431
339.431	28.557	1403.103	1133.225
340.446	28.569	1402.702	1132.875
341.460	28.497	1401.310	1131.203
342.475	28.571	1400.314	1130.758
343.489	28.637	1399.614	1130.499
344.504	28.608	1398.542	1129.357
345.519	28.601	1397.677	1128.514
346.533	28.630	1396.868	1127.938
347.548	28.654	1395.947	1127.242
348.562	28.720	1395.070	1126.838
349.577	28.645	1394.172	1125.557
350.592	28.632	1394.073	1125.293
351.606	28.695	1392.764	1124.523
352.621	28.643	1391.439	1123.037
353.635	28.632	1391.242	1122.711
354.650	28.634	1390.573	1122.084
355.665	28.696	1389.209	1121.261
356.679	28.605	1388.360	1119.926
357.694	28.631	1387.679	1119.433
358.708	28.774	1386.254	1119.056
359.723	28.799	1384.991	1118.091
360.738	28.662	1384.284	1116.587
361.752	28.676	1383.383	1115.845
362.767	28.661	1382.048	1114.582
363.781	28.791	1381.358	1114.711
364.796	28.734	1380.590	1113.652
365.810	28.852	1380.058	1113.835
366.825	28.857	1379.067	1112.969
367.840	28.787	1378.452	1111.948
368.854	28.843	1377.845	1111.699
369.869	28.883	1377.895	1111.882
370.883	28.976	1376.648	1111.345
371.898	28.948	1375.969	1110.525
372.913	28.964	1375.381	1110.052
373.927	28.936	1374.349	1108.953
374.942	28.976	1373.429	1108.352
375.956	28.932	1373.224	1107.824
376.971	28.976	1372.245	1107.201
377.986	28.996	1371.055	1106.261
379.000	28.987	1370.746	1105.860
380.015	29.001	1370.323	1105.508
381.029	29.070	1368.867	1104.649
382.044	29.078	1368.551	1104.343
383.059	28.893	1368.477	1103.077
384.073	28.968	1367.925	1102.979
385.088	29.052	1367.058	1102.690
386.102	29.055	1366.452	1102.122
387.117	29.039	1365.606	1101.245
388.132	29.127	1365.260	1101.394
389.146	29.021	1364.274	1099.867
390.161	28.979	1363.766	1099.110
391.175	29.025	1363.172	1098.806
392.190	29.138	1361.696	1098.196
393.205	29.147	1361.137	1097.701
394.219	29.187	1360.306	1097.171
395.234	29.228	1359.363	1096.562
396.248	29.248	1358.107	1095.567
397.263	29.231	1356.964	1094.450
398.278	29.133	1356.636	1093.502
399.292	29.134	1355.550	1092.540
400.307	29.232	1354.405	1092.100
401.321	29.249	1353.732	1091.562
402.336	29.347	1352.714	1091.223
403.350	29.337	1351.513	1090.098
404.365	29.170	1350.798	1088.439
405.380	29.366	1349.870	1088.755
406.394	29.254	1349.790	1087.932
407.409	29.317	1348.714	1087.338
408.423	29.264	1348.070	1086.411
409.438	29.325	1347.833	1086.481
410.453	29.390	1346.437	1085.644
411.467	29.487	1345.446	1085.321
412.482	29.408	1345.372	1084.698
413.496	29.423	1344.614	1084.082
414.511	29.415	1343.829	1083.305
415.526	29.441	1343.229	1082.880
416.540	29.573	1342.136	1082.671
417.555	29.438	1341.437	1081.221
418.569	29.445	1341.204	1080.983
419.584	29.409	1340.942	1080.461
420.599	29.487	1339.956	1080.028
421.613	94.473	1355.043	1459.281
422.628	94.086	1357.206	1459.402
