DTS Sentinel unit serial number:	SN413079Multiplexer serial number:	ORYXHardware model number:	OX4-SRSoftware version number:	ORYX F/W v4.00 Oryx Data Collector v3.7.2.0data status	okinstallation	princeton_trtdifferential loss correction	single-endedforward channel	channel 1reverse channel	N/Adate	2019/09/12time	10:24:11forward acquisition time	60.00reverse acquisition time	0.00gamma	496.2192k internal	0.2298k external	0.2298temperature offset calibration	1.0044default loss term (dB/km)	0.3790temperature slope calibration	1.0000multiplexer offset coefficient	1.0000multiplexer slope coefficient	1.0000fibre end	0.00T internal ref (°C)	36.86T ext. ref 1 (°C)	1.89T ext. ref 2 (°C)	34.83length (m)	temperature (°C)	Stokes	anti-Stokes-747.200	796.042	-0.010	0.029
-746.185	-80.412	-0.105	0.036
-745.171	79.241	-0.182	-0.199
-744.156	800.000	0.055	0.186
-743.142	450.520	0.023	0.053
-742.127	-16.067	-0.095	-0.062
-741.112	-156.961	-0.319	0.020
-740.098	-200.000	-0.004	0.240
-739.083	-71.534	-0.315	-0.120
-738.069	-200.000	-0.066	0.354
-737.054	-104.013	0.125	-0.030
-736.039	-44.273	-0.281	-0.144
-735.025	-141.896	-0.143	0.015
-734.010	-37.646	-0.221	0.120
-732.996	-164.916	-0.215	0.010
-731.981	-200.000	0.023	-0.168
-730.966	65.069	0.521	-0.537
-729.952	-7.235	0.218	-0.150
-728.937	800.000	-0.083	-0.244
-727.923	-44.412	0.102	-0.052
-726.908	71.522	-0.024	-0.025
-725.894	87.140	0.166	-0.187
-724.879	-173.588	0.350	0.011
-723.864	112.897	-0.171	-0.212
-722.850	256.879	-0.240	-0.420
-721.835	-120.918	-0.244	0.042
-720.821	-200.000	-0.003	-0.037
-719.806	-103.959	0.266	-0.063
-718.791	467.751	-0.028	-0.064
-717.777	90.833	0.060	-0.068
-716.762	-114.826	-0.104	0.020
-715.748	-151.807	-0.128	-0.010
-714.733	210.555	0.145	-0.232
-713.718	200.468	-0.213	0.334
-712.704	-78.485	-0.252	-0.088
-711.689	-200.000	-0.014	-0.250
-710.675	-71.125	0.057	-0.022
-709.660	-152.126	-0.176	0.013
-708.645	2.401	0.145	-0.107
-707.631	165.001	-0.118	0.170
-706.616	-76.908	-0.278	0.099
-705.602	-178.522	-0.367	-0.009
-704.587	800.000	0.077	0.322
-703.572	200.580	-0.143	-0.224
-702.558	94.747	-0.169	0.195
-701.543	-106.193	-0.147	0.034
-700.529	800.000	0.176	0.600
-699.514	-200.000	-0.003	0.141
-698.499	800.000	0.087	-0.272
-697.485	-55.844	0.252	-0.115
-696.470	-159.531	0.317	0.018
-695.456	-133.024	-0.229	-0.030
-694.441	-142.160	-0.143	0.014
-693.426	-70.320	0.410	-0.158
-692.412	800.000	-0.038	-0.145
-691.397	67.025	0.123	-0.127
-690.383	-200.000	0.018	0.156
-689.368	-98.172	-0.280	0.073
-688.354	187.324	-0.184	0.280
-687.339	7.008	-0.361	-0.274
-686.324	-101.745	-0.297	-0.073
-685.310	-58.454	-0.145	-0.064
-684.295	-151.338	-0.342	0.026
-683.281	-200.000	-0.053	0.436
-682.266	-0.487	-0.211	0.152
-681.251	216.448	0.073	-0.119
-680.237	-101.213	-0.235	-0.058
-679.222	300.256	-0.154	-0.289
-678.208	800.000	0.084	-0.266
-677.193	209.553	-0.101	0.161
-676.178	7.174	-0.055	-0.042
-675.164	-187.173	0.274	0.004
-674.149	-7.049	-0.138	-0.095
-673.135	486.847	-0.108	-0.250
-672.120	257.402	0.108	-0.189
-671.105	187.525	-0.085	-0.129
-670.091	262.136	-0.138	-0.244
-669.076	800.000	-0.050	-0.214
-668.062	-147.441	0.090	0.008
-667.047	-200.000	0.079	0.472
-666.032	211.919	-0.183	0.294
-665.018	-18.667	-0.252	-0.160
-664.003	-23.903	-0.388	-0.236
-662.989	-81.316	-0.198	-0.066
-661.974	42.356	-0.153	-0.142
-660.959	626.112	0.030	0.077
-659.945	-29.684	-0.142	0.083
-658.930	11.949	-0.073	-0.057
-657.916	793.043	-0.080	0.224
-656.901	30.961	-0.291	-0.253
-655.886	-200.000	-0.039	0.348
-654.872	-200.000	0.023	0.134
-653.857	800.000	-0.031	-0.097
-652.843	387.295	-0.205	0.431
-651.828	-169.853	-0.232	0.008
-650.814	-37.035	0.163	0.089
-649.799	800.000	0.063	0.245
-648.784	-75.637	-0.198	0.072
-647.770	255.721	0.041	0.071
-646.755	601.823	0.083	0.209
-645.741	800.000	-0.037	-0.117
-644.726	134.979	0.067	-0.089
-643.711	-200.000	0.016	0.144
-642.697	299.586	0.128	-0.241
-641.682	-200.000	0.014	-0.327
-640.668	-200.000	-0.032	-0.146
-639.653	-38.521	0.340	0.183
-638.638	9.847	0.212	-0.164
-637.624	-125.916	-0.398	-0.061
-636.609	278.390	-0.103	0.187
-635.595	64.536	-0.209	0.214
-634.580	-141.376	0.237	-0.024
-633.565	-137.623	-0.119	-0.014
-632.551	148.094	-0.069	0.095
-631.536	-200.000	0.022	0.103
-630.522	800.000	-0.023	0.088
-629.507	-200.000	0.011	-0.228
-628.492	60.437	0.182	-0.183
-627.478	190.991	0.185	0.283
-626.463	476.723	-0.074	-0.170
-625.449	-200.000	-0.014	0.079
-624.434	800.000	-0.050	0.192
-623.419	116.066	0.057	-0.071
-622.405	-86.129	-0.194	-0.061
-621.390	-106.096	0.042	0.010
-620.376	597.538	0.109	-0.274
-619.361	800.000	-0.060	0.211
-618.346	800.000	0.036	0.105
-617.332	62.381	-0.265	-0.269
-616.317	-43.746	-0.256	0.131
-615.303	-13.992	0.134	0.088
-614.288	367.095	-0.126	0.258
-613.273	-200.000	0.001	0.074
-612.259	-51.169	-0.304	0.145
-611.244	49.870	0.110	0.106
-610.230	-86.050	0.201	-0.063
-609.215	800.000	0.040	-0.134
-608.201	-10.776	-0.235	-0.158
-607.186	-103.209	-0.219	0.053
-606.171	9.328	0.156	-0.120
-605.157	-104.320	0.078	-0.018
-604.142	121.429	-0.155	-0.197
-603.128	-121.161	0.202	0.034
-602.113	800.000	-0.068	0.295
-601.098	-58.331	-0.285	-0.126
-600.084	35.275	0.229	-0.204
-599.069	-29.517	0.078	-0.045
-598.055	262.257	-0.052	0.091
-597.040	-55.702	0.341	0.155
-596.025	-90.880	-0.200	-0.058
-595.011	248.705	-0.112	0.193
-593.996	227.090	0.092	-0.153
-592.982	219.072	-0.207	-0.336
-591.967	-200.000	-0.008	0.302
-590.952	34.793	0.146	0.129
-589.938	315.327	-0.090	-0.172
-588.923	-200.000	0.015	-0.124
-587.909	120.738	-0.221	-0.279
-586.894	123.012	-0.206	0.261
-585.879	-164.663	-0.231	-0.011
-584.865	-137.797	0.089	0.010
-583.850	800.000	0.037	0.110
-582.836	-51.751	0.137	0.065
-581.821	-105.387	-0.069	0.016
-580.806	-56.886	-0.164	-0.073
-579.792	68.305	-0.199	-0.206
-578.777	-200.000	-0.021	-0.182
-577.763	-65.507	0.424	0.173
-576.748	-200.000	-0.017	0.186
-575.733	-85.686	-0.287	-0.090
-574.719	211.892	-0.064	-0.103
-573.704	239.486	0.117	0.198
-572.690	-13.641	0.059	0.038
-571.675	800.000	0.082	0.349
-570.661	-149.645	0.167	0.013
-569.646	-21.071	-0.274	0.170
-568.631	481.334	-0.031	-0.072
-567.617	128.819	0.235	0.303
-566.602	-60.567	0.363	0.156
-565.588	234.086	0.108	-0.180
-564.573	630.372	0.094	0.242
-563.558	34.089	0.226	-0.200
-562.544	-130.869	-0.213	0.029
-561.529	69.230	0.160	0.166
-560.515	-13.897	-0.038	-0.025
-559.500	71.373	-0.236	-0.248
-558.485	-107.608	0.184	-0.041
-557.471	-117.594	0.174	0.032
-556.456	-5.789	-0.360	-0.250
-555.442	800.000	0.090	0.267
-554.427	-200.000	-0.034	0.325
-553.412	800.000	-0.046	0.149
-552.398	-122.772	-0.280	-0.046
-551.383	112.131	0.148	0.181
-550.369	262.284	-0.035	-0.062
-549.354	-145.286	0.158	-0.014
-548.339	87.981	0.111	0.125
-547.325	-74.115	-0.150	0.055
-546.310	-199.243	0.167	0.001
-545.296	-51.358	-0.192	0.091
-544.281	800.000	0.056	0.187
-543.266	292.200	0.198	-0.365
-542.252	184.904	0.085	0.128
-541.237	-61.594	0.113	0.048
-540.223	-149.729	-0.103	0.008
-539.208	-33.598	0.120	0.067
-538.193	239.228	0.143	-0.241
-537.179	-99.821	0.137	-0.035
-536.164	130.895	0.021	0.027
-535.150	-47.006	-0.289	0.143
-534.135	-59.473	-0.147	-0.064
-533.121	-150.913	0.368	0.028
-532.106	-159.715	-0.199	-0.011
-531.091	144.973	-0.193	-0.262
-530.077	33.744	-0.083	-0.073
-529.062	-86.997	-0.233	-0.072
-528.048	137.555	0.246	-0.325
-527.033	-200.000	0.084	-0.418
-526.018	-77.262	-0.072	-0.025
-525.004	100.676	0.195	-0.230
-523.989	800.000	-0.101	-0.339
-522.975	1.257	0.075	-0.054
-521.960	-71.508	-0.452	-0.171
-520.945	-96.269	-0.068	0.018
-519.931	-44.182	0.225	-0.114
-518.916	800.000	0.166	0.528
-517.902	98.007	0.105	-0.122
-516.887	43.372	0.115	-0.107
-515.872	171.313	0.161	-0.234
-514.858	-200.000	-0.034	0.439
-513.843	-90.783	0.069	-0.020
-512.829	-142.399	-0.226	-0.022
-511.814	-32.163	0.163	0.092
-510.799	721.082	-0.080	-0.215
-509.785	-200.000	0.065	-0.603
-508.770	28.997	-0.269	-0.231
-507.756	-200.000	0.025	-0.251
-506.741	800.000	0.020	-0.058
-505.726	-30.302	0.172	-0.099
-504.712	-200.000	-0.050	0.664
-503.697	736.538	0.062	0.169
-502.683	-200.000	-0.008	-0.177
-501.668	206.830	0.060	-0.094
-500.653	800.000	-0.066	-0.270
-499.639	18.081	0.340	-0.274
-498.624	252.250	-0.142	-0.244
-497.610	235.986	0.193	0.323
-496.595	59.571	-0.278	-0.277
-495.581	-90.545	-0.219	0.064
-494.566	800.000	0.067	0.250
-493.551	111.086	0.028	-0.034
-492.537	-200.000	-0.006	0.103
-491.522	-46.113	-0.122	-0.061
-490.508	243.802	-0.350	-0.593
-489.493	1.365	-0.117	0.085
-488.478	-200.000	-0.002	0.182
-487.464	-119.690	0.191	0.033
-486.449	-108.381	0.237	-0.052
-485.435	-2.437	-0.126	-0.090
-484.420	352.194	-0.140	-0.281
-483.405	-40.593	-0.354	-0.186
-482.391	-4.291	-0.178	0.124
-481.376	-200.000	0.030	-0.142
-480.362	68.513	-0.232	-0.241
-479.347	-73.539	-0.005	0.002
-478.332	-117.553	0.249	-0.045
-477.318	-145.891	-0.195	-0.018
-476.303	738.461	-0.041	-0.111
-475.289	19.250	-0.184	-0.149
-474.274	42.772	0.374	0.345
-473.259	354.450	0.138	-0.276
-472.245	800.000	0.100	0.292
-471.230	-190.673	0.357	-0.004
-470.216	580.580	-0.106	-0.263
-469.201	-45.339	0.035	0.017
-468.186	-35.900	-0.092	-0.050
-467.172	252.417	-0.095	0.164
-466.157	800.000	0.036	0.142
-465.143	382.383	0.202	-0.420
-464.128	174.638	-0.128	0.187
-463.113	4.949	0.143	0.106
-462.099	-200.000	-0.022	-0.102
-461.084	94.109	0.263	0.301
-460.070	160.612	0.278	0.392
-459.055	201.974	-0.120	0.188
-458.040	-14.378	-0.122	0.080
-457.026	-200.000	0.018	-0.159
-456.011	36.003	-0.012	0.011
-454.997	-59.453	0.197	-0.085
-453.982	575.097	-0.042	-0.103
-452.968	800.000	-0.088	0.261
-451.953	319.239	-0.060	-0.114
-450.938	-200.000	-0.003	-0.140
-449.924	-58.135	0.040	0.018
-448.909	-140.967	0.203	-0.021
-447.895	83.124	-0.055	0.061
-446.880	121.581	0.150	0.189
-445.865	-66.449	-0.139	-0.056
-444.851	-200.000	0.043	-0.252
-443.836	-200.000	0.034	0.244
-442.822	-70.829	0.138	0.053
-441.807	-17.113	-0.293	0.187
-440.792	379.835	-0.062	-0.128
-439.778	-200.000	-0.008	0.505
-438.763	-77.947	-0.267	-0.093
-437.749	609.659	-0.124	0.312
-436.734	-200.000	0.078	0.634
-435.719	48.691	-0.199	-0.188
-434.705	376.568	-0.076	0.157
-433.690	371.895	-0.083	0.170
-432.676	-200.000	0.021	0.295
-431.661	26.684	0.169	-0.142
-430.646	-44.599	-0.313	-0.158
-429.632	-113.450	0.309	0.061
-428.617	217.825	0.048	-0.077
-427.603	69.805	0.100	0.104
-426.588	384.339	-0.214	-0.445
-425.573	-25.994	-0.083	0.049
-424.559	-107.895	0.158	0.035
-423.544	-136.239	0.365	0.043
-422.530	-99.899	0.121	-0.030
-421.515	-200.000	0.017	-0.139
-420.500	21.437	0.096	0.079
-419.486	-200.000	0.039	-0.182
-418.471	100.299	-0.077	-0.090
-417.457	298.292	0.088	-0.162
-416.442	-200.000	-0.022	-0.124
-415.428	-37.049	-0.242	-0.131
-414.413	621.826	0.020	-0.052
-413.398	285.952	0.081	0.147
-412.384	-78.063	0.147	0.051
-411.369	-14.010	-0.247	0.161
-410.355	743.653	0.034	0.091
-409.340	295.440	0.082	0.150
-408.325	56.489	0.181	-0.177
-407.311	800.000	0.049	0.191
-406.296	42.651	-0.149	0.137
-405.282	800.000	0.023	0.069
-404.267	-65.093	0.304	0.123
-403.252	-43.313	0.115	-0.059
-402.238	40.061	-0.019	0.018
-401.223	154.669	0.100	-0.139
-400.209	-172.789	-0.402	0.013
-399.194	-71.068	0.209	-0.079
-398.179	35.399	-0.291	0.257
-397.165	-200.000	0.012	-0.186
-396.150	-200.000	0.016	-0.145
-395.136	550.478	0.189	-0.457
-394.121	256.652	-0.095	0.164
-393.106	-102.088	0.232	0.056
-392.092	67.103	0.178	0.183
-391.077	169.372	-0.053	0.076
-390.063	-52.131	-0.352	0.164
-389.048	-200.000	-0.009	-0.042
-388.033	127.530	0.099	0.127
-387.019	-200.000	-0.015	-0.186
-386.004	-132.704	-0.207	0.027
-384.990	564.077	-0.105	-0.256
-383.975	800.000	-0.080	-0.352
-382.960	59.540	0.242	0.240
-381.946	225.496	0.042	-0.069
-380.931	320.396	-0.105	-0.201
-379.917	10.661	0.242	-0.186
-378.902	16.766	-0.150	0.119
-377.888	-3.672	0.118	-0.082
-376.873	-200.000	-0.037	0.331
-375.858	-200.000	0.034	0.341
-374.844	-200.000	-0.004	-0.211
-373.829	185.186	-0.189	-0.283
-372.815	343.538	0.206	0.406
-371.800	518.509	0.032	0.075
-370.785	755.563	0.048	-0.131
-369.771	-200.000	-0.023	-0.136
-368.756	458.875	0.050	0.111
-367.742	800.000	0.046	-0.139
-366.727	89.911	0.141	0.159
-365.712	-0.268	0.172	0.123
-364.698	800.000	0.095	0.348
-363.683	96.985	-0.062	0.071
-362.669	-139.287	-0.251	0.027
-361.654	-100.821	-0.166	0.041
-360.639	95.866	0.141	0.162
-359.625	-56.404	-0.113	-0.050
-358.610	28.930	-0.136	-0.116
-357.596	29.308	0.078	0.067
-356.581	-200.000	0.034	0.225
-355.566	-119.872	0.406	0.070
-354.552	-23.279	0.384	0.232
-353.537	-200.000	-0.013	-0.185
-352.523	43.399	0.130	0.120
-351.508	-200.000	0.003	-0.326
-350.493	-12.423	-0.110	0.072
-349.479	-77.684	-0.373	-0.130
-348.464	800.000	-0.026	0.091
-347.450	-200.000	-0.025	0.133
-346.435	-121.445	-0.232	-0.039
-345.420	-11.288	-0.085	-0.056
-344.406	-91.953	-0.210	0.060
-343.391	-115.792	0.257	0.048
-342.377	-200.000	-0.177	-0.000
-341.362	-77.939	0.266	-0.092
-340.348	-72.558	0.209	0.077
-339.333	138.354	-0.160	0.211
-338.318	-16.656	0.178	0.113
-337.304	800.000	0.083	0.280
-336.289	147.782	0.149	0.202
-335.275	-59.124	-0.179	-0.077
-334.260	211.216	-0.173	-0.273
-333.245	162.926	0.048	0.068
-332.231	-9.032	0.147	-0.099
-331.216	-84.866	0.069	-0.022
-330.202	160.141	-0.239	-0.335
-329.187	18.527	0.154	-0.124
-328.172	126.337	-0.176	-0.223
-327.158	63.676	0.130	0.131
-326.143	201.689	-0.185	-0.287
-325.129	-89.267	-0.219	0.065
-324.114	-29.354	0.275	0.158
-323.099	-160.782	0.419	0.022
-322.085	-83.510	-0.315	0.101
-321.070	178.902	0.168	0.246
-320.056	-50.416	0.201	-0.095
-319.041	-131.677	-0.071	-0.009
-318.026	-200.000	-0.067	-0.334
-317.012	-89.643	-0.058	-0.017
-315.997	126.412	0.191	-0.243
-314.983	-200.000	-0.001	0.166
-313.968	70.839	-0.182	-0.189
-312.953	-130.704	-0.067	-0.009
-311.939	-71.309	-0.266	-0.100
-310.924	92.321	-0.342	-0.387
-309.910	-91.604	0.216	-0.062
-308.895	54.111	0.152	0.147
-307.880	353.899	-0.072	0.143
-306.866	10.458	-0.439	0.336
-305.851	14.316	-0.185	0.144
-304.837	94.654	0.054	0.062
-303.822	-54.992	0.185	-0.084
-302.807	53.104	-0.088	0.085
-301.793	-200.000	-0.086	0.603
-300.778	-200.000	0.016	0.138
-299.764	-200.000	0.024	-0.130
-298.749	800.000	-0.082	-0.341
-297.735	86.912	-0.320	-0.354
-296.720	114.965	0.132	0.161
-295.705	-30.089	-0.094	0.054
-294.691	-59.465	-0.267	0.115
-293.676	3.362	-0.304	0.222
-292.662	41.679	-0.118	0.107
-291.647	800.000	0.075	-0.237
-290.632	-58.181	-0.255	0.111
-289.618	147.361	0.197	-0.266
-288.603	-43.121	-0.186	-0.095
-287.589	800.000	-0.014	-0.052
-286.574	-69.619	-0.167	0.064
-285.559	-82.626	-0.316	0.103
-284.545	12.887	0.128	0.099
-283.530	-55.917	-0.173	-0.077
-282.516	-1.341	-0.138	-0.098
-281.501	63.017	-0.101	0.102
-280.486	-49.353	-0.184	-0.088
-279.472	663.865	-0.067	-0.172
-278.457	46.853	-0.179	0.167
-277.443	172.591	0.079	0.114
-276.428	-53.588	-0.190	-0.087
-275.413	-200.000	0.040	0.180
-274.399	-105.373	-0.038	-0.009
-273.384	-165.176	0.252	-0.011
-272.370	-126.313	0.145	-0.022
-271.355	-40.606	-0.387	0.201
-270.340	-200.000	0.015	0.093
-269.326	-90.021	0.138	-0.040
-268.311	-23.385	0.302	0.182
-267.297	483.057	0.030	-0.069
-266.282	800.000	-0.052	0.159
-265.267	149.875	-0.101	0.137
-264.253	201.295	0.060	0.093
-263.238	215.795	0.194	0.308
-262.224	123.367	0.243	-0.306
-261.209	25.648	-0.303	0.252
-260.195	514.429	-0.003	0.006
-259.180	-78.741	-0.163	-0.056
-258.165	-66.369	-0.272	-0.108
-257.151	-44.459	0.047	-0.024
-256.136	800.000	-0.060	0.230
-255.122	-158.791	0.541	0.031
-254.107	93.257	0.088	-0.099
-253.092	-59.321	-0.273	0.118
-252.078	-200.000	-0.062	0.288
-251.063	255.460	-0.052	-0.089
-250.049	-88.819	-0.234	-0.069
-249.034	800.000	0.023	-0.071
-248.019	182.039	-0.095	-0.140
-247.005	327.946	-0.137	-0.264
-245.990	81.116	-0.030	0.033
-244.976	-188.226	0.346	0.004
-243.961	-15.050	0.229	0.147
-242.946	800.000	0.042	-0.157
-241.932	128.052	0.163	-0.207
-240.917	800.000	0.097	0.281
-239.903	77.086	0.207	0.220
-238.888	-73.677	0.183	-0.067
-237.873	40.976	-0.230	0.208
-236.859	-171.357	0.326	0.011
-235.844	-200.000	0.023	0.158
-234.830	-18.002	-0.097	-0.061
-233.815	48.344	0.203	-0.190
-232.800	800.000	0.060	-0.245
-231.786	-138.367	0.305	-0.034
-230.771	-200.000	0.027	-0.149
-229.757	-200.000	-0.039	-0.289
-228.742	118.079	0.258	0.318
-227.727	33.399	-0.184	-0.159
-226.713	-186.179	-0.116	-0.002
-225.698	466.606	0.048	-0.107
-224.684	-127.485	-0.211	0.031
-223.669	64.930	0.111	0.112
-222.655	-69.074	-0.196	-0.075
-221.640	-86.388	0.266	-0.082
-220.625	-14.226	0.242	0.156
-219.611	-171.669	0.352	0.012
-218.596	27.381	0.144	-0.121
-217.582	-3.492	-0.265	-0.185
-216.567	109.317	0.114	0.137
-215.552	272.346	-0.189	0.333
-214.538	800.000	-0.067	0.210
-213.523	58.060	0.048	-0.047
-212.509	-135.776	0.156	0.019
-211.494	-128.503	-0.276	-0.039
-210.479	-200.000	-0.053	-0.261
-209.465	-152.753	0.247	0.018
-208.450	92.444	0.196	-0.221
-207.436	-200.000	-0.025	0.283
-206.421	144.487	0.252	0.337
-205.406	49.524	-0.260	-0.245
-204.392	83.422	-0.211	-0.229
-203.377	-88.296	-0.152	0.045
-202.363	54.607	0.352	0.339
-201.348	-57.141	0.255	0.112
-200.333	-200.000	0.003	-0.368
-199.319	-34.852	0.281	-0.154
-198.304	41.494	-0.047	0.043
-197.290	-200.000	-0.012	0.125
-196.275	-86.016	-0.141	-0.044
-195.260	28.170	0.372	0.314
-194.246	326.611	0.112	-0.213
-193.231	-125.443	-0.110	-0.017
-192.217	-200.000	-0.001	-0.088
-191.202	-200.000	0.039	0.185
-190.187	-200.000	-0.003	-0.093
-189.173	-189.336	-0.291	0.003
-188.158	-200.000	-0.003	-0.263
-187.144	108.305	-0.189	-0.226
-186.129	390.947	0.148	0.306
-185.114	-200.000	0.005	0.094
-184.100	8.532	-0.327	0.246
-183.085	-46.191	0.205	0.101
-182.071	800.000	0.087	-0.328
-181.056	-200.000	-0.012	0.124
-180.042	-77.575	-0.117	-0.041
-179.027	-200.000	-0.003	0.327
-178.012	-53.049	-0.144	-0.066
-176.998	103.076	-0.128	-0.150
-175.983	-14.885	0.446	-0.286
-174.969	-31.599	-0.113	-0.063
-173.954	-29.604	0.113	-0.064
-172.939	-90.643	-0.145	-0.042
-171.925	-89.780	-0.357	-0.104
-170.910	-128.164	-0.304	0.043
-169.896	-200.000	-0.027	-0.162
-168.881	793.135	0.119	-0.327
-167.866	-125.555	0.164	-0.025
-166.852	30.191	0.450	-0.383
-165.837	92.069	-0.066	-0.075
-164.823	-57.359	0.353	-0.155
-163.808	-89.882	-0.306	0.089
-162.793	16.615	-0.166	0.131
-161.779	800.000	0.161	0.491
-160.764	-66.146	-0.470	0.187
-159.750	420.667	0.102	-0.219
-158.735	-13.599	-0.113	-0.073
-157.720	-200.000	0.009	0.086
-156.706	67.754	-0.193	-0.197
-155.691	-75.119	0.315	-0.112
-154.677	-111.334	0.364	-0.074
-153.662	-15.123	-0.094	0.060
-152.647	90.377	0.077	0.086
-151.633	26.668	-0.155	-0.130
-150.618	800.000	0.035	-0.130
-149.604	-153.566	0.186	-0.013
-148.589	-59.361	-0.070	-0.030
-147.574	-200.000	0.003	0.261
-146.560	-0.247	0.169	0.120
-145.545	-200.000	-0.025	-0.315
-144.531	-103.146	0.081	-0.019
-143.516	-167.318	0.283	0.011
-142.502	800.000	-0.049	-0.140
-141.487	232.349	0.051	-0.084
-140.472	-37.819	0.035	-0.019
-139.458	-3.938	-0.169	-0.117
-138.443	800.000	0.056	-0.233
-137.429	-148.871	-0.132	0.011
-136.414	-138.350	-0.123	0.014
-135.399	63.530	0.149	-0.149
-134.385	93.250	0.025	0.028
-133.370	133.752	0.171	-0.221
-132.356	-66.884	0.420	0.165
-131.341	406.704	-0.136	0.285
-130.326	800.000	-0.051	0.212
-129.312	-200.000	-0.001	-0.048
-128.297	-61.583	0.251	0.105
-127.283	-79.292	0.241	0.081
-126.268	-26.670	0.147	0.086
-125.253	-86.200	0.097	0.030
-124.239	-79.540	-0.263	0.088
-123.224	98.424	-0.196	-0.225
-122.210	-20.880	0.139	0.085
-121.195	-200.000	-0.027	-0.305
-120.180	354.499	-0.021	0.041
-119.166	39.920	0.184	-0.165
-118.151	-200.000	-0.004	0.142
-117.137	438.477	0.102	0.221
-116.122	-22.149	-0.305	-0.185
-115.107	120.305	0.152	-0.188
-114.093	-78.138	-0.413	-0.141
-113.078	-165.131	-0.261	0.012
-112.064	-200.000	-0.089	0.449
-111.049	39.083	0.296	0.264
-110.034	800.000	-0.078	-0.312
-109.020	-200.000	-0.027	0.454
-108.005	112.975	0.193	0.233
-106.991	235.981	-0.213	0.351
-105.976	84.751	-0.173	-0.189
-104.962	-20.322	-0.234	0.143
-103.947	360.046	0.236	0.470
-102.932	-84.741	0.286	-0.089
-101.918	-200.000	0.158	-0.001
-100.903	-177.994	0.203	-0.005
-99.889	82.041	0.073	0.078
-98.874	-200.000	0.076	0.400
-97.859	84.295	-0.201	0.219
-96.845	-87.833	-0.275	-0.082
-95.830	-4.120	-0.094	0.065
-94.816	-22.355	0.103	0.062
-93.801	151.092	-0.158	0.214
-92.786	800.000	0.042	0.132
-91.772	170.950	0.034	0.048
-90.757	-43.780	0.218	0.109
-89.743	-63.618	-0.025	-0.010
-88.728	-60.576	-0.319	-0.135
-87.713	-61.184	0.237	-0.099
-86.699	291.533	-0.178	-0.323
-85.684	45.541	-0.149	-0.137
-84.670	-28.871	0.118	-0.067
-83.655	2.148	-0.265	-0.191
-82.640	230.633	0.145	0.236
-81.626	-64.189	-0.223	0.090
-80.611	87.075	-0.045	-0.050
-79.597	10.266	0.255	-0.193
-78.582	-23.475	0.126	0.075
-77.567	-40.902	0.063	-0.033
-76.553	466.042	-0.136	-0.304
-75.538	-62.133	0.202	-0.084
-74.524	-131.856	-0.282	0.037
-73.509	-60.777	0.241	-0.101
-72.494	9.873	-0.275	-0.208
-71.480	800.000	0.062	-0.205
-70.465	109.454	-0.112	-0.134
-69.451	475.488	0.055	0.124
-68.436	-200.000	-0.036	0.323
-67.422	-165.481	0.120	0.005
-66.407	91.198	-0.055	0.061
-65.392	502.300	-0.064	-0.147
-64.378	-200.000	-0.006	-0.302
-63.363	-132.129	0.214	-0.028
-62.349	574.245	-0.103	0.249
-61.334	22.618	-0.796	-0.647
-60.319	642.262	0.174	0.441
-59.305	313.744	-0.336	-0.628
-58.290	92.733	0.502	0.563
-57.276	-200.000	0.300	1.372
-56.261	-200.000	87.558	491.645
-55.246	443.962	1399.158	3049.560
-54.232	145.205	2611.586	3472.568
-53.217	109.423	2222.399	2644.666
-52.203	47.464	1665.076	1542.083
-51.188	40.080	1395.177	1245.773
-50.173	36.887	1351.191	1186.926
-49.159	55.984	1395.108	1344.710
-48.144	60.346	1413.960	1389.965
-47.130	40.704	1371.700	1228.479
-46.115	36.991	1353.914	1189.771
-45.100	36.738	1349.424	1184.229
-44.086	36.551	1347.200	1181.087
-43.071	36.698	1344.095	1179.217
-42.057	36.704	1341.871	1177.250
-41.042	36.689	1340.296	1175.733
-40.027	36.733	1338.613	1174.477
-39.013	36.730	1336.813	1172.835
-37.998	36.679	1335.230	1171.089
-36.984	36.906	1333.033	1170.485
-35.969	36.854	1331.292	1168.601
-34.954	36.991	1329.275	1167.609
-33.940	36.934	1327.889	1165.997
-32.925	36.832	1326.777	1164.362
-31.911	36.978	1324.831	1163.489
-30.896	37.037	1323.402	1162.539
-29.881	37.057	1322.071	1161.442
-28.867	36.889	1320.736	1159.220
-27.852	36.955	1319.309	1158.318
-26.838	37.087	1317.617	1157.571
-25.823	37.013	1316.324	1155.948
-24.809	36.875	1315.286	1154.167
-23.794	36.891	1313.501	1152.653
-22.779	36.892	1311.975	1151.271
-21.765	37.009	1310.834	1150.920
-20.750	36.928	1309.619	1149.327
-19.736	36.699	1308.659	1147.081
-18.721	36.739	1307.036	1145.851
-17.706	36.802	1305.698	1145.008
-16.692	36.838	1304.496	1144.118
-15.677	36.745	1303.976	1143.067
-14.663	36.808	1302.553	1142.146
-13.648	36.856	1300.920	1140.951
-12.633	36.827	1300.206	1140.108
-11.619	36.849	1299.210	1139.322
-10.604	36.867	1298.426	1138.694
-9.590	36.930	1297.078	1137.838
-8.575	36.697	1296.414	1135.843
-7.560	36.722	1295.937	1135.524
-6.546	36.800	1294.797	1134.939
-5.531	36.746	1294.021	1133.897
-4.517	36.720	1293.123	1132.915
-3.502	36.703	1291.970	1131.755
-2.487	36.723	1291.015	1130.994
-1.473	36.886	1287.311	1128.652
-0.458	35.969	1272.805	1110.604
0.556	32.774	1254.023	1072.885
1.571	29.088	1258.582	1055.599
2.586	28.058	1273.278	1061.857
3.600	26.766	1261.126	1044.190
4.615	18.993	1183.217	937.411
5.629	7.380	1100.894	812.898
6.644	2.272	1077.881	770.149
7.659	1.967	1075.085	766.550
8.673	1.651	1074.172	764.244
9.688	1.662	1072.755	763.221
10.702	1.865	1071.103	762.995
11.717	8.604	1080.817	803.800
12.731	19.423	1096.957	870.625
13.746	24.654	1102.842	901.686
14.761	25.060	1104.074	904.660
15.775	25.125	1103.086	904.101
16.790	25.006	1101.843	902.402
17.804	24.904	1101.150	901.239
18.819	24.978	1101.143	901.526
19.834	25.024	1101.100	901.643
20.848	25.103	1100.061	901.110
21.863	25.131	1099.662	900.845
22.877	25.153	1098.812	900.180
23.892	24.991	1098.244	898.821
24.907	25.114	1097.735	898.941
25.921	25.097	1096.401	897.686
26.936	25.098	1094.787	896.288
27.950	24.891	1093.526	894.142
28.965	24.836	1091.674	892.277
29.980	24.962	1089.970	891.429
30.994	25.055	1090.081	891.904
32.009	25.086	1088.657	890.816
33.023	24.919	1087.503	888.961
34.038	24.959	1086.518	888.280
35.053	24.964	1086.104	887.885
36.067	25.111	1084.859	887.516
37.082	25.189	1084.133	887.232
38.096	25.328	1084.063	887.782
39.111	25.359	1082.989	886.977
40.126	25.253	1080.984	884.734
41.140	24.864	1079.822	881.789
42.155	24.682	1078.019	879.345
43.169	24.751	1077.231	878.963
44.184	24.766	1076.172	878.096
45.199	24.692	1075.198	876.858
46.213	24.738	1074.486	876.425
47.228	24.815	1074.326	876.596
48.242	24.955	1073.345	876.402
49.257	24.944	1072.748	875.781
50.271	25.062	1071.983	875.659
51.286	25.138	1070.952	875.109
52.301	25.177	1069.902	874.362
53.315	25.211	1068.707	873.474
54.330	25.023	1067.624	871.600
55.344	25.047	1067.487	871.528
56.359	25.081	1066.069	870.455
57.374	24.768	1065.707	868.566
58.388	24.811	1064.840	867.990
59.403	24.897	1063.736	867.428
60.417	24.702	1062.901	865.730
61.432	24.737	1062.259	865.300
62.447	24.811	1061.721	865.139
63.461	24.816	1061.010	864.511
64.476	24.948	1059.698	864.000
65.490	24.720	1058.990	862.248
66.505	24.688	1058.530	861.640
67.520	24.781	1057.637	861.288
68.534	24.419	1056.731	858.733
69.549	24.186	1055.669	856.674
70.563	24.262	1054.749	856.217
71.578	24.440	1053.570	856.034
72.593	24.187	1052.934	854.229
73.607	24.213	1052.675	854.067
74.622	24.691	1052.118	855.832
75.636	24.649	1051.362	854.940
76.651	24.531	1050.038	853.226
77.666	24.368	1049.575	851.995
78.680	24.460	1048.723	851.664
79.695	24.520	1048.361	851.581
80.709	24.723	1047.525	851.794
81.724	24.654	1046.577	850.619
82.739	24.697	1046.304	850.527
83.753	25.034	1045.510	851.409
84.768	25.293	1044.935	852.095
85.782	25.435	1043.506	851.529
86.797	25.403	1042.579	850.544
87.812	25.169	1041.923	848.827
88.826	25.313	1040.976	848.658
89.841	25.407	1039.794	848.066
90.855	25.260	1039.306	846.898
91.870	25.342	1037.961	846.112
92.884	25.099	1036.888	844.021
93.899	25.124	1035.970	843.318
94.914	25.342	1035.630	843.990
95.928	25.101	1034.137	841.569
96.943	24.929	1032.802	839.598
97.957	24.613	1031.945	837.350
98.972	24.632	1030.325	836.048
99.987	24.757	1030.292	836.533
101.001	24.968	1029.457	836.766
102.016	25.035	1028.381	836.130
103.030	24.977	1027.727	835.253
104.045	24.721	1026.730	833.179
105.060	24.588	1025.738	831.682
106.074	24.680	1025.162	831.565
107.089	25.119	1024.289	832.825
108.103	25.070	1023.018	831.491
109.118	24.765	1021.985	829.166
110.133	24.699	1021.351	828.269
111.147	24.560	1019.657	826.182
112.162	24.309	1019.231	824.600
113.176	24.773	1018.375	825.979
114.191	24.647	1017.545	824.653
115.206	24.225	1016.845	822.067
116.220	24.285	1015.654	821.306
117.235	24.588	1014.337	821.563
118.249	24.459	1014.086	820.693
119.264	24.305	1013.316	819.289
120.279	24.446	1012.399	819.124
121.293	24.485	1011.774	818.725
122.308	24.547	1010.880	818.210
123.322	24.347	1009.967	816.485
124.337	24.283	1008.525	814.957
125.352	23.762	1006.802	811.111
126.366	23.772	1005.917	810.375
127.381	24.439	1006.307	813.659
128.395	24.816	1005.900	814.975
129.410	25.078	1004.490	814.952
130.424	25.162	1003.744	814.658
131.439	25.022	1003.001	813.344
132.454	25.049	1001.819	812.437
133.468	24.860	1001.168	810.981
134.483	24.956	1000.453	810.765
135.497	25.114	999.838	810.908
136.512	25.308	998.878	810.934
137.527	25.372	998.007	810.447
138.541	25.359	997.105	809.581
139.556	25.311	996.694	808.960
140.570	25.283	996.043	808.233
141.585	25.358	994.953	807.619
142.600	25.313	993.709	806.332
143.614	25.665	993.161	807.395
144.629	25.579	992.468	806.378
145.643	25.409	991.017	804.363
146.658	25.129	990.107	802.303
147.673	25.233	988.523	801.412
148.687	25.156	987.517	800.181
149.702	25.054	986.369	798.726
150.716	24.997	985.885	798.012
151.731	25.074	985.497	797.968
152.746	25.356	984.431	798.290
153.760	25.410	984.236	798.301
154.775	25.527	982.930	797.691
155.789	25.471	982.440	796.974
156.804	25.457	981.177	795.814
157.819	25.454	980.795	795.420
158.833	25.549	980.158	795.253
159.848	25.625	979.218	794.756
160.862	25.303	977.856	792.162
161.877	25.495	976.715	792.013
162.892	25.484	975.875	791.212
163.906	25.413	974.815	789.973
164.921	25.426	973.573	788.954
165.935	25.385	973.150	788.362
166.950	25.535	971.783	787.842
167.964	25.381	971.050	786.500
168.979	25.193	970.277	784.983
169.994	25.099	969.150	783.591
171.008	25.470	968.532	784.645
172.023	25.463	967.901	784.031
173.037	25.287	966.455	782.024
174.052	25.222	965.716	781.073
175.067	25.029	965.264	779.800
176.081	25.179	964.521	779.785
177.096	25.183	963.721	779.083
178.110	24.860	962.676	776.768
179.125	24.621	961.962	775.090
180.140	24.915	961.549	775.959
181.154	24.901	961.356	775.675
182.169	25.244	961.181	776.949
183.183	25.478	960.699	777.503
184.198	25.407	959.743	776.354
185.213	25.372	959.293	775.774
186.227	25.361	958.392	774.929
187.242	25.535	957.400	774.807
188.256	25.441	957.013	774.020
189.271	25.593	956.417	774.125
190.286	25.233	954.898	771.277
191.300	24.530	953.788	767.295
192.315	23.752	952.150	762.570
193.329	23.687	951.977	762.086
194.344	24.586	952.245	766.092
195.359	25.188	952.240	768.600
196.373	25.413	951.623	768.994
197.388	25.364	951.103	768.299
198.402	25.346	950.713	767.839
199.417	25.267	949.690	766.608
200.432	25.002	948.763	764.660
201.446	24.950	948.078	763.817
202.461	24.984	948.009	763.838
203.475	24.076	945.781	758.111
204.490	23.275	944.496	753.608
205.504	24.186	944.941	757.771
206.519	24.842	944.875	760.443
207.534	24.876	943.965	759.786
208.548	25.367	944.012	761.840
209.563	25.102	943.234	760.022
210.577	25.162	942.303	759.458
211.592	25.595	941.799	760.815
212.607	25.455	941.182	759.657
213.621	25.588	940.632	759.708
214.636	25.458	939.933	758.528
215.650	25.307	939.363	757.368
216.665	25.504	938.635	757.543
217.680	25.529	938.066	757.123
218.694	25.138	936.169	753.879
219.709	24.900	935.906	752.599
220.723	25.199	935.857	753.750
221.738	25.282	935.230	753.529
222.753	25.185	934.687	752.615
223.767	25.245	934.168	752.385
224.782	25.650	933.825	753.737
225.796	25.596	933.348	753.062
226.811	24.986	931.368	748.845
227.826	24.329	930.252	745.137
228.840	24.460	929.788	745.251
229.855	24.589	929.118	745.184
230.869	24.059	928.289	742.245
231.884	24.594	927.900	744.095
232.899	25.233	928.115	746.865
233.913	25.292	927.471	746.526
234.928	25.165	927.293	745.785
235.942	25.033	926.531	744.561
236.957	24.816	925.472	742.742
237.972	24.748	924.905	741.940
238.986	24.858	924.290	741.836
240.001	24.957	923.838	741.820
241.015	25.109	922.875	741.606
242.030	25.271	922.405	741.833
243.045	25.350	922.153	741.891
244.059	25.451	921.659	741.844
245.074	25.240	920.623	740.078
246.088	25.103	919.204	738.308
247.103	25.215	919.497	738.936
248.117	25.720	919.315	740.806
249.132	25.971	919.126	741.621
250.147	26.067	918.640	741.555
251.161	26.368	918.156	742.336
252.176	26.218	917.572	741.184
253.190	26.246	917.098	740.847
254.205	26.359	916.657	740.892
255.220	26.350	915.896	740.175
256.234	26.165	915.157	738.755
257.249	26.131	914.419	737.954
258.263	26.168	913.601	737.379
259.278	26.150	913.091	736.827
260.293	26.270	912.423	736.712
261.307	26.105	912.050	735.674
262.322	26.049	910.797	734.371
263.336	25.228	908.969	729.498
264.351	24.149	907.355	723.755
265.366	24.178	907.106	723.609
266.380	25.394	907.437	728.745
267.395	25.819	907.280	730.278
268.409	25.738	906.584	729.327
269.424	25.909	906.231	729.669
270.439	25.906	905.148	728.720
271.453	26.084	904.544	728.887
272.468	26.147	904.677	729.187
273.482	26.201	904.058	728.841
274.497	25.889	902.480	726.250
275.512	25.510	901.799	724.110
276.526	25.851	902.107	725.666
277.541	26.098	901.088	725.774
278.555	25.760	900.876	724.180
279.570	25.772	899.616	723.155
280.585	25.911	899.249	723.353
281.599	25.849	898.287	722.264
282.614	25.275	896.975	718.850
283.628	25.264	896.500	718.360
284.643	25.575	896.481	719.525
285.657	25.289	895.408	717.459
286.672	24.906	894.244	714.930
287.687	25.624	893.948	717.497
288.701	25.620	893.972	717.435
289.716	25.112	893.117	714.664
290.730	25.233	892.192	714.343
291.745	24.749	891.834	712.064
292.760	25.287	891.384	713.784
293.774	26.257	891.768	717.885
294.789	26.542	891.431	718.681
295.803	26.651	890.931	718.647
296.818	26.616	889.925	717.633
297.833	26.195	888.906	715.080
298.847	26.006	888.244	713.738
299.862	26.373	888.068	714.984
300.876	26.545	888.016	715.560
301.891	26.423	887.064	714.246
302.906	26.145	885.696	711.985
303.920	26.156	885.626	711.909
304.935	26.499	885.376	712.999
305.949	26.487	884.784	712.412
306.964	26.162	884.156	710.562
307.979	26.365	883.656	710.897
308.993	26.584	883.508	711.577
310.008	26.830	882.502	711.669
311.022	26.349	882.021	709.329
312.037	26.218	881.425	708.275
313.052	25.981	880.191	706.290
314.066	25.066	878.599	701.374
315.081	24.803	877.704	699.569
316.095	25.561	878.471	703.084
317.110	26.114	878.159	704.932
318.125	25.336	876.686	700.653
319.139	24.300	875.003	695.210
320.154	24.378	874.629	695.154
321.168	25.206	874.989	698.604
322.183	25.974	874.906	701.464
323.197	26.094	875.037	701.975
324.212	26.232	874.386	701.927
325.227	26.094	874.049	701.059
326.241	26.103	873.491	700.583
327.256	25.911	872.820	699.237
328.270	25.955	871.908	698.615
329.285	25.858	871.061	697.499
330.300	25.541	870.492	695.758
331.314	25.824	870.126	696.497
332.329	26.320	869.738	698.041
333.343	26.404	869.727	698.293
334.358	26.290	869.049	697.248
335.373	26.367	868.987	697.434
336.387	26.708	868.954	698.660
337.402	26.788	868.257	698.347
338.416	26.631	868.458	697.843
339.431	26.907	867.947	698.434
340.446	27.081	867.409	698.607
341.460	26.888	866.690	697.224
342.475	26.731	866.126	696.106
343.489	26.691	866.238	695.979
344.504	26.971	866.118	696.897
345.519	27.284	865.451	697.500
346.533	27.193	864.744	696.518
347.548	27.262	864.409	696.450
348.562	27.275	863.610	695.795
349.577	27.121	863.095	694.730
350.592	27.112	862.203	693.918
351.606	27.215	861.332	693.549
352.621	26.946	861.002	692.193
353.635	26.790	860.384	691.043
354.650	26.153	858.441	686.998
355.665	25.270	856.917	682.362
356.679	25.611	856.973	683.642
357.694	26.320	856.121	685.594
358.708	26.066	855.723	684.250
359.723	26.404	855.612	685.383
360.738	26.883	855.457	687.012
361.752	26.854	854.906	686.398
362.767	27.268	854.278	687.397
363.781	27.525	853.839	687.955
364.796	27.632	853.865	688.321
365.810	27.699	853.272	688.033
366.825	27.603	853.069	687.446
367.840	27.266	852.098	685.335
368.854	26.916	851.591	683.548
369.869	26.914	850.993	683.001
370.883	26.853	850.416	682.248
371.898	26.795	849.979	681.616
372.913	27.003	849.477	681.935
373.927	27.042	848.916	681.570
374.942	27.240	848.674	682.058
375.956	27.257	848.405	681.847
376.971	27.363	847.961	681.829
377.986	27.589	847.562	682.291
379.000	27.534	846.859	681.458
380.015	27.317	846.235	680.087
381.029	27.358	845.723	679.767
382.044	27.495	845.340	679.911
383.059	27.428	844.733	679.114
384.073	27.574	843.894	678.922
385.088	27.463	843.253	677.934
386.102	27.309	842.681	676.839
387.117	27.299	842.189	676.348
388.132	27.004	840.547	673.876
389.146	26.339	839.742	670.703
390.161	26.812	839.933	672.551
391.175	27.200	839.793	673.818
392.190	26.909	838.788	671.874
393.205	25.392	836.845	664.651
394.219	24.133	834.373	657.979
395.234	23.972	834.241	657.223
396.248	25.538	835.878	664.245
397.263	26.936	836.761	670.053
398.278	27.030	836.462	670.102
399.292	26.718	835.817	668.377
400.307	26.924	835.180	668.566
401.321	26.788	835.081	667.928
402.336	27.190	834.968	669.257
403.350	27.588	834.880	670.593
404.365	27.876	834.722	671.465
405.380	28.111	834.271	671.908
406.394	28.218	833.653	671.742
407.409	28.045	833.404	670.848
408.423	28.100	832.737	670.453
409.438	28.235	832.410	670.626
410.453	28.274	832.139	670.489
411.467	28.099	831.471	669.253
412.482	28.253	830.893	669.289
413.496	28.270	830.688	669.127
414.511	28.198	830.441	668.606
415.526	28.286	829.843	668.387
416.540	28.210	829.189	667.523
417.555	27.805	828.228	665.218
418.569	27.924	828.006	665.414
419.584	27.784	827.537	664.466
420.599	27.708	826.778	663.524
421.613	102.114	1280.105	1424.622
422.628	88.404	1346.159	1424.742
