DTS Sentinel unit serial number:	SN413079Multiplexer serial number:	ORYXHardware model number:	OX4-SRSoftware version number:	ORYX F/W v4.00 Oryx Data Collector v3.7.2.0data status	okinstallation	princeton_trtdifferential loss correction	single-endedforward channel	channel 1reverse channel	N/Adate	2019/09/14time	15:06:35forward acquisition time	60.00reverse acquisition time	0.00gamma	496.2192k internal	0.2294k external	0.2294temperature offset calibration	1.0074default loss term (dB/km)	0.3790temperature slope calibration	1.0000multiplexer offset coefficient	1.0000multiplexer slope coefficient	1.0000fibre end	0.00T internal ref (°C)	39.06T ext. ref 1 (°C)	5.08T ext. ref 2 (°C)	35.02length (m)	temperature (°C)	Stokes	anti-Stokes-747.200	-200.000	0.009	0.105
-746.185	-32.255	0.187	0.107
-745.171	800.000	0.037	-0.117
-744.156	-21.600	-0.178	-0.111
-743.142	67.840	0.203	-0.212
-742.127	266.742	0.110	0.196
-741.112	20.437	-0.082	0.068
-740.098	-200.000	-0.038	-0.272
-739.083	301.100	-0.045	0.085
-738.069	252.281	-0.207	0.362
-737.054	-199.208	-0.172	-0.001
-736.039	26.471	-0.235	-0.201
-735.025	-61.837	0.189	0.081
-734.010	-129.788	-0.038	-0.005
-732.996	59.633	-0.150	-0.151
-731.981	-200.000	0.014	0.177
-730.966	0.041	-0.328	-0.239
-729.952	-123.067	-0.130	-0.021
-728.937	800.000	0.029	-0.103
-727.923	-8.749	-0.117	-0.080
-726.908	800.000	0.107	-0.412
-725.894	-33.534	-0.251	-0.142
-724.879	-20.071	0.078	-0.049
-723.864	-75.512	0.237	0.086
-722.850	-2.308	-0.143	0.102
-721.835	800.000	0.077	0.304
-720.821	190.502	-0.048	0.073
-719.806	126.052	-0.081	-0.104
-718.791	4.969	0.209	-0.157
-717.777	-188.207	-0.261	0.003
-716.762	-105.470	-0.250	-0.058
-715.748	55.482	0.258	-0.256
-714.733	800.000	-0.044	0.152
-713.718	-33.491	-0.098	0.055
-712.704	106.047	0.147	-0.178
-711.689	63.055	-0.180	-0.184
-710.675	69.249	0.018	-0.019
-709.660	-200.000	0.031	-0.190
-708.645	26.740	-0.282	-0.241
-707.631	800.000	0.082	0.297
-706.616	-200.000	0.023	-0.123
-705.602	800.000	-0.084	0.301
-704.587	-134.910	0.490	0.061
-703.572	-111.308	0.354	-0.074
-702.558	-200.000	-0.005	0.204
-701.543	91.817	-0.239	0.275
-700.529	587.207	-0.115	0.289
-699.514	435.995	0.038	-0.083
-698.499	375.146	0.067	-0.138
-697.485	800.000	0.040	0.153
-696.470	-200.000	-0.019	0.272
-695.456	58.063	-0.160	-0.160
-694.441	-104.020	0.275	-0.065
-693.426	-88.877	-0.414	-0.125
-692.412	-106.247	-0.170	-0.039
-691.397	28.522	-0.191	-0.165
-690.383	1.428	-0.206	-0.151
-689.368	-32.480	-0.183	0.104
-688.354	0.345	0.268	-0.196
-687.339	-45.604	0.365	-0.184
-686.324	10.216	-0.097	0.075
-685.310	-53.126	0.178	0.083
-684.295	-200.000	-0.027	0.179
-683.281	-200.000	0.027	0.345
-682.266	-165.836	0.124	0.005
-681.251	-79.084	0.085	0.030
-680.237	-81.377	-0.160	0.054
-679.222	800.000	0.030	0.116
-678.208	-72.386	-0.265	0.100
-677.193	-200.000	0.030	-0.280
-676.178	11.475	-0.074	0.058
-675.164	-101.042	0.112	-0.028
-674.149	38.423	0.125	0.113
-673.135	92.346	0.079	0.090
-672.120	-94.736	-0.237	0.066
-671.105	-92.845	-0.198	0.056
-670.091	565.955	-0.072	-0.179
-669.076	153.141	0.065	0.091
-668.062	349.916	-0.090	0.180
-667.047	-140.245	0.158	0.017
-666.032	110.821	0.135	0.165
-665.018	-35.565	-0.291	-0.161
-664.003	-99.029	-0.464	-0.120
-662.989	-88.105	-0.251	0.077
-661.974	329.598	0.142	0.279
-660.959	-64.819	-0.325	-0.134
-659.945	72.934	-0.077	-0.082
-658.930	-84.532	0.128	0.041
-657.916	217.747	0.177	-0.288
-656.901	-58.629	0.310	0.137
-655.886	-22.315	-0.020	-0.012
-654.872	800.000	0.073	0.260
-653.857	800.000	-0.015	-0.048
-652.843	-200.000	-0.023	-0.282
-651.828	43.234	0.106	-0.099
-650.814	800.000	0.070	-0.248
-649.799	139.133	-0.101	0.136
-648.784	800.000	0.022	0.093
-647.770	-114.659	-0.424	0.083
-646.755	-3.232	-0.131	-0.093
-645.741	17.856	-0.319	-0.259
-644.726	796.842	-0.037	0.103
-643.711	-200.000	0.003	-0.153
-642.697	-200.000	0.014	0.061
-641.682	800.000	-0.019	0.078
-640.668	-200.000	-0.019	0.110
-639.653	-56.357	0.274	-0.124
-638.638	-181.537	-0.234	-0.005
-637.624	-14.875	0.280	-0.183
-636.609	800.000	-0.044	-0.129
-635.595	-200.000	-0.001	0.040
-634.580	190.473	-0.176	-0.269
-633.565	20.901	-0.116	-0.096
-632.551	-163.591	-0.365	-0.018
-631.536	800.000	0.052	-0.215
-630.522	800.000	0.063	-0.180
-629.507	164.097	0.042	0.060
-628.492	-183.321	0.290	0.005
-627.478	-200.000	0.011	0.367
-626.463	-90.749	-0.340	0.100
-625.449	-29.547	-0.200	0.117
-624.434	152.419	-0.184	0.255
-623.419	271.717	0.031	-0.055
-622.405	800.000	-0.021	-0.087
-621.390	-200.000	0.008	0.038
-620.376	-120.067	-0.363	0.063
-619.361	-200.000	0.005	0.169
-618.346	-75.192	0.308	-0.112
-617.332	-20.440	0.313	0.196
-616.317	-119.521	-0.350	0.062
-615.303	4.998	0.099	-0.074
-614.288	-89.445	0.077	-0.023
-613.273	375.806	0.046	-0.095
-612.259	-28.210	0.203	-0.120
-611.244	-133.547	0.340	0.043
-610.230	800.000	-0.077	-0.315
-609.215	-135.175	0.178	-0.022
-608.201	800.000	0.036	-0.116
-607.186	656.923	-0.091	0.238
-606.171	-55.597	-0.073	-0.033
-605.157	-21.093	-0.155	0.096
-604.142	-2.098	0.102	-0.073
-603.128	593.774	-0.142	-0.356
-602.113	800.000	-0.043	-0.119
-601.098	524.926	0.062	0.148
-600.084	38.750	-0.181	-0.164
-599.069	-200.000	0.031	0.195
-598.055	-56.051	-0.168	0.076
-597.040	-200.000	-0.054	-0.314
-596.025	357.406	-0.074	0.149
-595.011	800.000	0.052	0.230
-593.996	-200.000	-0.003	0.148
-592.982	65.010	0.189	-0.194
-591.967	-98.760	0.175	0.045
-590.952	372.970	-0.095	-0.196
-589.938	-200.000	0.025	0.130
-588.923	-200.000	-0.049	0.301
-587.909	-21.824	0.399	0.247
-586.894	38.429	0.194	-0.175
-585.879	-130.591	0.121	0.017
-584.865	-105.412	-0.131	-0.030
-583.850	140.780	-0.191	0.256
-582.836	-200.000	-0.048	0.220
-581.821	171.306	-0.067	0.097
-580.806	-148.684	-0.280	0.023
-579.792	392.016	-0.092	-0.195
-578.777	-44.136	0.173	0.088
-577.763	56.238	-0.098	0.097
-576.748	-148.313	-0.147	0.012
-575.733	2.019	0.201	-0.148
-574.719	4.385	-0.113	0.084
-573.704	35.241	0.218	0.194
-572.690	-119.273	0.302	0.053
-571.675	-112.607	0.296	0.060
-570.661	-99.428	0.295	-0.075
-569.646	108.377	-0.021	0.025
-568.631	-70.602	-0.418	-0.161
-567.617	255.103	-0.157	-0.272
-566.602	800.000	0.067	0.207
-565.588	-200.000	0.021	0.203
-564.573	75.096	0.093	-0.100
-563.558	800.000	0.044	-0.180
-562.544	-156.659	-0.296	-0.019
-561.529	-200.000	-0.031	-0.167
-560.515	96.618	0.110	-0.128
-559.500	412.228	0.044	0.095
-558.485	-70.682	-0.203	0.078
-557.471	-14.424	0.086	0.056
-556.456	-134.137	-0.033	0.004
-555.442	129.277	-0.271	-0.351
-554.427	-200.000	0.042	-0.260
-553.412	18.394	0.095	0.077
-552.398	169.200	-0.272	-0.393
-551.383	407.577	0.065	0.139
-550.369	-200.000	0.023	0.136
-549.354	-167.458	0.231	-0.009
-548.339	68.084	0.231	-0.240
-547.325	392.633	0.044	-0.094
-546.310	48.455	0.173	-0.165
-545.296	-8.393	-0.156	0.106
-544.281	-103.244	-0.329	-0.079
-543.266	28.498	0.086	-0.074
-542.252	-200.000	-0.023	0.147
-541.237	278.382	0.193	-0.348
-540.223	122.984	0.291	0.370
-539.208	11.808	0.086	0.067
-538.193	-153.856	-0.123	-0.009
-537.179	89.550	0.217	-0.246
-536.164	118.649	-0.040	-0.050
-535.150	36.681	-0.156	0.140
-534.135	-200.000	0.016	-0.143
-533.121	-46.882	0.305	0.151
-532.106	-81.397	-0.071	0.024
-531.091	271.209	0.100	-0.178
-530.077	171.692	-0.029	-0.042
-529.062	800.000	0.031	0.110
-528.048	304.032	-0.057	0.108
-527.033	275.606	0.150	-0.271
-526.018	-200.000	-0.012	0.180
-525.004	-200.000	-0.011	-0.218
-523.989	512.694	-0.028	-0.066
-522.975	306.114	-0.152	-0.287
-521.960	637.061	-0.091	-0.234
-520.945	76.433	0.041	-0.044
-519.931	-24.858	0.133	0.080
-518.916	-200.000	0.007	0.043
-517.902	-200.000	-0.056	0.302
-516.887	-5.483	-0.404	0.281
-515.872	78.211	0.053	-0.057
-514.858	-64.619	0.323	0.133
-513.843	-147.549	-0.406	0.035
-512.829	111.911	-0.138	-0.169
-511.814	-27.358	-0.119	-0.070
-510.799	-200.000	-0.005	-0.189
-509.785	800.000	0.057	-0.249
-508.770	-200.000	0.022	-0.253
-507.756	-38.603	0.354	0.190
-506.741	-200.000	-0.022	0.179
-505.726	-51.428	-0.319	0.151
-504.712	134.173	0.070	-0.091
-503.697	-200.000	-0.028	-0.332
-502.683	-55.177	0.104	-0.047
-501.668	-28.678	-0.398	0.232
-500.653	-105.620	0.114	-0.026
-499.639	79.963	-0.215	-0.234
-498.624	182.932	-0.107	-0.159
-497.610	-69.182	-0.392	-0.153
-496.595	-200.000	-0.064	-0.496
-495.581	800.000	-0.007	-0.030
-494.566	-200.000	-0.030	-0.137
-493.551	-161.040	-0.306	-0.016
-492.537	-82.021	0.273	-0.090
-491.522	379.723	-0.158	0.328
-490.508	-108.879	0.115	0.025
-489.493	39.365	0.117	0.106
-488.478	-62.088	0.152	-0.064
-487.464	-200.000	-0.015	-0.234
-486.449	-44.130	-0.236	-0.120
-485.435	-138.337	0.019	-0.002
-484.420	159.252	0.075	0.106
-483.405	-70.547	0.403	0.154
-482.391	3.190	-0.116	-0.085
-481.376	-117.460	-0.143	-0.026
-480.362	315.012	0.113	0.216
-479.347	62.669	-0.154	-0.156
-478.332	0.913	0.128	-0.093
-477.318	-143.376	-0.243	0.024
-476.303	428.247	-0.010	-0.022
-475.289	-63.571	0.283	0.117
-474.274	-200.000	0.008	0.088
-473.259	-27.496	0.070	0.041
-472.245	-200.000	-0.024	0.144
-471.230	194.042	-0.100	-0.153
-470.216	4.165	-0.259	0.192
-469.201	-72.829	0.103	0.038
-468.186	420.934	0.081	-0.176
-467.172	371.363	-0.086	-0.177
-466.157	167.846	-0.172	0.247
-465.143	-147.173	0.268	0.023
-464.128	389.148	-0.072	-0.151
-463.113	32.867	0.191	0.167
-462.099	-98.025	-0.261	0.068
-461.084	-87.729	-0.203	-0.062
-460.070	-172.850	-0.339	0.011
-459.055	350.410	0.176	0.352
-458.040	800.000	-0.077	-0.233
-457.026	800.000	0.048	-0.151
-456.011	-200.000	-0.020	-0.099
-454.997	-200.000	-0.031	-0.279
-453.982	-113.448	0.123	-0.024
-452.968	392.263	-0.090	-0.189
-451.953	-154.447	0.160	0.011
-450.938	-121.926	-0.225	0.038
-449.924	273.159	-0.171	0.305
-448.909	-91.512	0.254	0.073
-447.895	214.054	-0.115	0.184
-446.880	473.696	-0.142	0.323
-445.865	800.000	0.053	-0.174
-444.851	-49.072	-0.112	0.054
-443.836	-129.289	0.568	0.080
-442.822	-127.063	0.124	0.018
-441.807	-200.000	0.017	-0.111
-440.792	26.125	-0.305	0.257
-439.778	-200.000	-0.034	-0.202
-438.763	-200.000	0.057	-0.274
-437.749	-185.957	-0.161	-0.002
-436.734	-200.000	-0.004	-0.048
-435.719	141.198	0.078	-0.104
-434.705	-30.655	-0.040	0.023
-433.690	-82.105	0.175	-0.058
-432.676	-200.000	0.070	-0.405
-431.661	57.464	0.076	0.075
-430.646	-7.233	0.208	0.143
-429.632	-52.149	0.304	-0.143
-428.617	800.000	-0.007	-0.030
-427.603	-83.766	0.205	0.066
-426.588	704.934	0.124	-0.329
-425.573	-50.223	0.215	-0.103
-424.559	27.503	0.270	-0.229
-423.544	477.285	0.012	-0.026
-422.530	-60.240	-0.195	-0.084
-421.515	-8.907	-0.138	-0.093
-420.500	127.325	0.182	0.234
-419.486	-47.569	0.264	-0.129
-418.471	-41.984	-0.219	0.113
-417.457	-200.000	0.028	0.256
-416.442	-160.037	0.225	-0.012
-415.428	-200.000	-0.035	0.213
-414.413	179.415	-0.098	0.145
-413.398	37.544	-0.123	-0.110
-412.384	160.946	0.087	-0.122
-411.369	-200.000	0.027	-0.347
-410.355	-24.895	-0.376	-0.225
-409.340	403.077	-0.010	0.020
-408.325	-153.916	0.045	0.003
-407.311	202.418	0.095	-0.147
-406.296	-145.695	0.607	-0.055
-405.282	59.785	-0.320	-0.319
-404.267	-200.000	0.048	0.309
-403.252	-200.000	-0.040	0.232
-402.238	446.282	-0.085	-0.189
-401.223	-200.000	-0.026	0.118
-400.209	-118.379	-0.221	0.040
-399.194	-200.000	0.005	0.100
-398.179	-8.605	-0.148	0.100
-397.165	-80.757	0.074	0.025
-396.150	53.505	0.181	0.175
-395.136	328.855	0.237	-0.459
-394.121	-63.364	0.187	0.078
-393.106	-62.853	0.385	0.161
-392.092	-136.917	-0.204	0.024
-391.077	-134.408	0.364	-0.045
-390.063	-200.000	-0.022	0.234
-389.048	-113.155	0.038	0.008
-388.033	-138.684	0.333	0.037
-387.019	28.031	0.204	0.173
-386.004	-103.269	0.157	0.037
-384.990	-18.613	-0.310	0.195
-383.975	-112.370	0.254	0.051
-382.960	-133.459	-0.184	-0.023
-381.946	419.799	-0.063	-0.136
-380.931	-55.469	0.064	-0.029
-379.917	166.759	0.147	-0.210
-378.902	-32.988	-0.268	0.150
-377.888	-127.074	0.170	-0.025
-376.873	383.763	-0.058	-0.120
-375.858	-106.686	0.212	-0.048
-374.844	-200.000	0.011	0.121
-373.829	-200.000	-0.071	-0.376
-372.815	-200.000	-0.025	0.207
-371.800	-31.212	0.126	0.072
-370.785	-134.018	-0.160	0.020
-369.771	88.564	-0.118	-0.132
-368.756	-119.753	-0.243	0.042
-367.742	-49.834	-0.126	-0.060
-366.727	-13.176	-0.039	0.026
-365.712	-186.074	-0.124	-0.002
-364.698	-200.000	-0.009	0.044
-363.683	-200.000	0.003	0.148
-362.669	800.000	0.074	0.257
-361.654	-200.000	-0.007	0.099
-360.639	-108.290	-0.102	0.022
-359.625	647.900	-0.026	-0.066
-358.610	-91.491	-0.196	0.056
-357.596	60.521	-0.098	-0.097
-356.581	800.000	0.044	0.167
-355.566	-36.012	-0.099	0.054
-354.552	-172.901	-0.398	0.012
-353.537	-200.000	-0.027	0.489
-352.523	-38.062	-0.129	-0.069
-351.508	-81.233	0.068	-0.023
-350.493	275.994	0.134	0.239
-349.479	499.685	0.106	0.246
-348.464	-200.000	0.025	-0.538
-347.450	800.000	-0.011	0.039
-346.435	-200.000	-0.019	0.181
-345.420	-26.730	-0.043	-0.025
-344.406	19.204	0.076	-0.062
-343.391	225.161	-0.106	-0.173
-342.377	-69.092	0.118	0.046
-341.362	735.707	0.013	-0.036
-340.348	-87.140	-0.151	-0.046
-339.333	554.101	-0.082	-0.198
-338.318	49.394	0.135	-0.128
-337.304	461.583	0.197	0.443
-336.289	-121.530	0.065	0.011
-335.275	615.218	0.109	-0.275
-334.260	-200.000	0.023	-0.154
-333.245	-63.164	-0.196	0.081
-332.231	387.220	-0.018	0.038
-331.216	231.263	0.092	-0.152
-330.202	800.000	-0.063	-0.216
-329.187	-117.400	0.133	0.024
-328.172	-200.000	-0.028	-0.222
-327.158	-109.261	-0.213	0.045
-326.143	-41.900	0.042	-0.022
-325.129	-200.000	-0.002	-0.218
-324.114	93.594	-0.046	0.053
-323.099	-200.000	-0.053	0.422
-322.085	173.933	-0.015	0.022
-321.070	800.000	-0.057	0.207
-320.056	184.288	0.058	0.086
-319.041	-200.000	-0.087	-0.387
-318.026	90.544	0.264	-0.298
-317.012	-200.000	-0.027	0.146
-315.997	800.000	0.077	0.303
-314.983	1.435	-0.505	-0.365
-313.968	17.118	-0.064	-0.051
-312.953	423.534	0.174	-0.376
-311.939	20.548	0.291	0.237
-310.924	800.000	-0.069	0.274
-309.910	-107.509	0.241	-0.053
-308.895	202.447	-0.021	-0.033
-307.880	138.216	0.052	-0.069
-306.866	-60.946	0.259	0.110
-305.851	-89.716	-0.147	0.043
-304.837	800.000	-0.077	0.231
-303.822	-18.334	-0.069	0.043
-302.807	-116.580	-0.207	0.038
-301.793	-200.000	-0.001	-0.045
-300.778	-200.000	-0.035	0.327
-299.764	83.464	0.164	0.180
-298.749	-127.450	-0.174	0.025
-297.735	-40.086	-0.103	-0.054
-296.720	351.672	0.088	-0.175
-295.705	-82.619	-0.063	-0.021
-294.691	285.180	-0.136	0.245
-293.676	124.086	-0.179	0.226
-292.662	-200.000	0.023	0.198
-291.647	35.640	0.195	-0.172
-290.632	403.417	0.028	0.059
-289.618	224.368	-0.142	0.231
-288.603	69.734	-0.152	-0.158
-287.589	51.909	0.071	0.068
-286.574	-139.185	0.115	0.012
-285.559	800.000	0.078	0.276
-284.545	-73.961	-0.386	0.141
-283.530	-155.254	0.208	0.014
-282.516	241.149	-0.190	-0.319
-281.501	-91.532	-0.186	0.053
-280.486	593.588	-0.055	0.137
-279.472	-14.441	0.046	0.030
-278.457	800.000	-0.049	0.200
-277.443	-3.264	0.181	0.127
-276.428	-200.000	0.021	0.249
-275.413	-62.340	-0.213	0.089
-274.399	-81.293	-0.282	-0.093
-273.384	-110.569	-0.213	0.044
-272.370	-200.000	-0.002	-0.092
-271.355	66.972	0.146	0.149
-270.340	258.438	-0.239	0.413
-269.326	-129.471	-0.118	0.016
-268.311	-14.043	0.032	0.021
-267.297	-125.863	0.124	0.019
-266.282	-131.689	0.324	0.043
-265.267	-21.802	-0.113	-0.069
-264.253	570.415	-0.097	-0.237
-263.238	66.561	-0.215	-0.219
-262.224	69.392	0.111	0.115
-261.209	-200.000	0.092	0.405
-260.195	99.933	0.179	0.208
-259.180	25.882	0.245	-0.205
-258.165	-200.000	0.048	-0.240
-257.151	415.722	0.156	-0.333
-256.136	-200.000	-0.025	0.157
-255.122	-200.000	0.010	-0.152
-254.107	302.275	0.172	0.318
-253.092	-134.130	0.050	0.006
-252.078	-200.000	0.014	0.105
-251.063	-143.169	0.169	0.016
-250.049	402.645	0.055	0.116
-249.034	-116.063	0.197	-0.037
-248.019	105.054	-0.032	-0.038
-247.005	-32.116	-0.237	0.133
-245.990	-46.979	0.255	0.125
-244.976	108.648	0.095	-0.114
-243.961	31.101	0.210	-0.181
-242.946	56.579	0.053	0.052
-241.932	36.911	-0.142	-0.126
-240.917	-106.226	0.532	0.120
-239.903	-69.062	0.291	-0.112
-238.888	800.000	-0.022	0.085
-237.873	-200.000	-0.003	-0.174
-236.859	87.755	-0.139	-0.154
-235.844	-30.407	-0.413	-0.235
-234.830	144.856	-0.019	0.026
-233.815	-112.424	0.265	-0.053
-232.800	-117.712	-0.313	-0.056
-231.786	-22.714	-0.420	0.254
-230.771	-200.000	-0.005	-0.184
-229.757	-10.881	0.275	-0.182
-228.742	-65.170	0.299	0.121
-227.727	105.324	0.109	-0.128
-226.713	165.830	-0.069	0.098
-225.698	44.659	-0.082	-0.076
-224.684	-37.324	-0.143	0.076
-223.669	800.000	-0.093	-0.299
-222.655	47.222	0.146	0.136
-221.640	9.084	0.210	-0.159
-220.625	-168.782	-0.390	-0.015
-219.611	-200.000	-0.012	0.169
-218.596	-112.926	-0.061	0.012
-217.582	-43.585	0.198	-0.100
-216.567	193.766	-0.028	0.043
-215.552	81.491	-0.087	0.094
-214.538	-200.000	0.005	-0.201
-213.523	68.318	0.092	-0.094
-212.509	-27.221	0.108	0.063
-211.494	800.000	-0.006	-0.019
-210.479	243.181	0.077	0.130
-209.465	-8.982	0.109	0.073
-208.450	121.347	0.171	-0.214
-207.436	-164.258	-0.183	0.008
-206.421	80.428	-0.094	0.101
-205.406	13.467	-0.167	-0.130
-204.392	233.605	-0.084	0.138
-203.377	45.589	0.171	0.158
-202.363	-51.823	-0.333	0.155
-201.348	22.263	0.234	-0.191
-200.333	-38.355	-0.091	-0.048
-199.319	-124.021	0.265	0.042
-198.304	409.630	-0.120	-0.254
-197.290	151.297	-0.026	0.036
-196.275	-200.000	0.012	0.253
-195.260	-32.394	0.300	-0.167
-194.246	257.933	-0.090	0.155
-193.231	-56.069	-0.146	-0.065
-192.217	321.744	0.049	0.093
-191.202	241.161	0.120	-0.201
-190.187	92.785	-0.254	0.287
-189.173	170.228	-0.118	-0.169
-188.158	-200.000	-0.008	-0.194
-187.144	-103.436	0.070	0.017
-186.129	624.062	0.091	0.230
-185.114	800.000	0.115	0.373
-184.100	106.991	0.241	0.287
-183.085	-169.561	0.221	-0.008
-182.071	-134.251	-0.118	0.015
-181.056	-57.874	0.302	-0.132
-180.042	-200.000	-0.012	0.083
-179.027	-174.081	-0.120	0.004
-178.012	-11.505	-0.225	-0.148
-176.998	314.030	0.100	-0.188
-175.983	-49.727	0.082	0.039
-174.969	-164.846	-0.045	0.002
-173.954	40.675	-0.126	-0.113
-172.939	174.921	-0.193	0.279
-171.925	-132.633	-0.167	0.021
-170.910	-200.000	-0.000	0.031
-169.896	-157.808	-0.250	0.015
-168.881	605.576	0.072	-0.180
-167.866	-108.819	-0.174	-0.037
-166.852	-42.665	0.263	0.134
-165.837	800.000	-0.086	0.256
-164.823	800.000	0.034	0.145
-163.808	2.782	0.189	0.137
-162.793	-200.000	0.037	-0.208
-161.779	444.030	-0.040	0.088
-160.764	-63.420	-0.280	0.115
-159.750	-59.836	0.263	-0.113
-158.735	800.000	0.041	-0.159
-157.720	231.913	0.033	-0.055
-156.706	95.665	-0.252	0.288
-155.691	-45.724	0.329	-0.162
-154.677	-13.091	0.213	0.138
-153.662	-27.270	-0.306	0.178
-152.647	-74.034	0.234	-0.085
-151.633	7.003	-0.282	0.210
-150.618	96.252	0.098	0.113
-149.604	662.637	0.084	-0.217
-148.589	167.476	-0.040	-0.056
-147.574	-200.000	-0.030	-0.285
-146.560	46.451	0.139	-0.129
-145.545	-197.427	0.243	-0.002
-144.531	800.000	0.045	0.134
-143.516	-48.226	-0.296	0.143
-142.502	-198.568	-0.350	-0.002
-141.487	-64.875	0.411	0.166
-140.472	-142.365	-0.167	0.016
-139.458	130.884	-0.037	0.047
-138.443	-200.000	0.014	0.343
-137.429	-20.188	0.049	-0.030
-136.414	275.402	-0.241	0.426
-135.399	74.453	-0.243	0.255
-134.385	-200.000	0.018	0.129
-133.370	462.500	0.090	-0.200
-132.356	205.817	0.201	-0.312
-131.341	-57.393	-0.231	-0.101
-130.326	61.586	0.108	-0.108
-129.312	77.851	0.151	0.161
-128.297	21.952	-0.135	-0.110
-127.283	800.000	0.072	-0.227
-126.268	-105.878	-0.208	0.047
-125.253	140.843	-0.242	-0.320
-124.239	0.567	-0.230	-0.164
-123.224	-98.008	0.259	0.067
-122.210	-158.318	-0.076	0.004
-121.195	-200.000	0.028	-0.304
-120.180	-133.596	-0.057	-0.007
-119.166	-200.000	-0.028	-0.198
-118.151	374.906	-0.091	-0.186
-117.137	-0.291	0.097	0.069
-116.122	-56.419	0.114	0.051
-115.107	-200.000	-0.018	0.185
-114.093	44.942	0.149	-0.137
-113.078	-62.502	0.210	-0.087
-112.064	577.982	0.060	0.146
-111.049	-103.612	-0.376	-0.088
-110.034	99.936	-0.250	0.289
-109.020	-200.000	-0.035	0.494
-108.005	-200.000	0.027	0.323
-106.991	104.534	0.171	-0.201
-105.976	-8.628	0.129	-0.087
-104.962	-151.984	0.212	0.015
-103.947	17.347	-0.220	0.174
-102.932	621.835	-0.192	-0.483
-101.918	800.000	-0.023	0.089
-100.903	73.891	-0.131	0.137
-99.889	800.000	-0.022	-0.092
-98.874	-57.652	-0.110	0.048
-97.859	168.337	-0.163	0.231
-96.845	-179.250	0.256	-0.006
-95.830	63.808	-0.194	-0.194
-94.816	100.566	-0.147	-0.171
-93.801	-200.000	0.024	-0.352
-92.786	-71.422	-0.125	-0.047
-91.772	20.181	0.140	0.113
-90.757	-61.622	-0.070	-0.029
-89.743	-200.000	-0.022	0.096
-88.728	-106.445	-0.085	-0.019
-87.713	37.112	-0.049	-0.043
-86.699	763.590	0.148	0.400
-85.684	-106.445	-0.100	-0.022
-84.670	-29.032	-0.339	0.194
-83.655	145.505	0.159	-0.212
-82.640	404.093	-0.107	0.224
-81.626	2.617	0.237	0.171
-80.611	-200.000	0.043	0.310
-79.597	32.235	0.180	-0.155
-78.582	48.724	0.091	-0.085
-77.567	800.000	-0.025	0.103
-76.553	-155.404	-0.331	0.021
-75.538	110.578	-0.056	0.067
-74.524	318.879	-0.063	-0.119
-73.509	800.000	0.045	0.132
-72.494	800.000	0.042	0.144
-71.480	-97.980	0.288	-0.074
-70.465	349.055	0.067	0.132
-69.451	-147.069	0.175	0.015
-68.436	303.450	0.092	-0.170
-67.422	-133.461	0.395	0.049
-66.407	-200.000	0.030	0.254
-65.392	-200.000	0.010	0.046
-64.378	-9.324	-0.190	0.126
-63.363	286.651	-0.063	0.113
-62.349	-116.710	0.442	0.081
-61.334	278.282	-0.460	-0.816
-60.319	-200.000	0.044	0.531
-59.305	531.550	-0.210	-0.494
-58.290	38.562	0.559	0.496
-57.276	220.205	0.951	1.517
-56.261	-200.000	80.779	493.734
-55.246	555.261	1359.096	3256.737
-54.232	183.764	2588.773	3811.521
-53.217	120.754	2241.200	2773.453
-52.203	50.065	1692.801	1590.284
-51.188	42.463	1423.575	1288.759
-50.173	39.093	1379.305	1227.621
-49.159	57.071	1417.481	1375.559
-48.144	62.423	1436.528	1427.800
-47.130	42.872	1397.390	1267.428
-46.115	39.265	1380.259	1229.354
-45.100	38.956	1376.031	1223.612
-44.086	38.885	1373.164	1220.576
-43.071	38.807	1371.514	1218.574
-42.057	38.729	1369.112	1215.905
-41.042	38.862	1367.101	1214.899
-40.027	38.936	1365.277	1213.686
-39.013	38.984	1363.673	1212.507
-37.998	38.994	1361.810	1210.862
-36.984	39.039	1360.070	1209.548
-35.969	39.042	1358.403	1208.035
-34.954	39.213	1356.087	1206.974
-33.940	39.064	1355.033	1205.076
-32.925	39.193	1353.893	1204.805
-31.911	39.081	1352.650	1202.969
-30.896	39.222	1350.713	1202.055
-29.881	39.169	1349.050	1200.204
-28.867	39.114	1347.466	1198.414
-27.852	39.217	1346.368	1198.016
-26.838	39.163	1344.973	1196.397
-25.823	39.025	1343.528	1194.226
-24.809	39.175	1341.790	1193.548
-23.794	39.198	1340.053	1192.092
-22.779	39.251	1338.883	1191.326
-21.765	39.129	1337.584	1189.383
-20.750	39.101	1336.319	1188.042
-19.736	38.969	1335.140	1186.148
-18.721	38.969	1333.860	1184.965
-17.706	39.028	1332.887	1184.412
-16.692	39.091	1331.463	1183.476
-15.677	39.007	1330.642	1182.193
-14.663	39.036	1329.285	1181.121
-13.648	38.965	1328.023	1179.521
-12.633	39.104	1326.734	1179.166
-11.619	39.008	1326.054	1177.941
-10.604	39.012	1325.273	1177.224
-9.590	38.934	1324.395	1175.927
-8.575	38.956	1323.515	1175.235
-7.560	39.061	1322.319	1174.749
-6.546	38.864	1321.773	1173.042
-5.531	38.983	1320.879	1172.915
-4.517	39.054	1319.985	1172.497
-3.502	39.023	1318.856	1171.263
-2.487	39.040	1317.915	1170.480
-1.473	39.129	1313.775	1167.284
-0.458	37.815	1298.436	1145.890
0.556	34.593	1278.152	1102.838
1.571	30.236	1281.527	1080.345
2.586	28.625	1296.628	1083.477
3.600	27.010	1284.400	1063.708
4.615	20.058	1207.768	961.715
5.629	10.080	1125.702	844.412
6.644	5.304	1102.208	802.242
7.659	4.851	1099.965	798.214
8.673	5.041	1098.882	798.330
9.688	5.135	1097.202	797.522
10.702	5.390	1095.458	797.482
11.717	10.904	1104.189	832.050
12.731	19.460	1116.333	885.210
13.746	21.573	1118.085	897.365
14.761	19.827	1115.398	886.191
15.775	18.637	1113.272	878.335
16.790	17.708	1110.802	871.562
17.804	16.902	1109.430	866.291
18.819	16.544	1108.132	863.374
19.834	16.338	1107.242	861.555
20.848	15.985	1106.456	859.067
21.863	15.971	1105.292	858.015
22.877	15.784	1104.632	856.475
23.892	15.729	1103.905	855.558
24.907	15.788	1103.099	855.158
25.921	15.857	1101.839	854.454
26.936	15.923	1100.779	853.891
27.950	15.863	1099.227	852.306
28.965	15.886	1098.082	851.463
29.980	15.937	1096.616	850.507
30.994	16.158	1095.206	850.450
32.009	16.095	1094.403	849.435
33.023	15.996	1093.275	847.988
34.038	15.986	1091.827	846.739
35.053	15.923	1091.099	845.782
36.067	15.813	1090.473	844.668
37.082	15.979	1089.337	844.549
38.096	16.059	1088.439	844.176
39.111	16.030	1087.525	843.249
40.126	15.814	1086.637	841.406
41.140	15.741	1085.338	839.959
42.155	15.642	1083.770	838.182
43.169	15.567	1082.884	837.049
44.184	15.515	1082.031	836.055
45.199	15.609	1080.590	835.332
46.213	15.586	1079.943	834.648
47.228	15.901	1078.583	835.085
48.242	15.910	1077.682	834.358
49.257	15.746	1077.072	832.997
50.271	15.822	1076.022	832.490
51.286	15.994	1074.941	832.427
52.301	15.865	1074.018	831.003
53.315	15.746	1073.149	829.671
54.330	15.740	1072.213	828.844
55.344	15.744	1070.885	827.764
56.359	15.743	1070.335	827.260
57.374	15.676	1069.441	826.166
58.388	15.692	1068.284	825.280
59.403	15.745	1067.341	824.735
60.417	15.676	1066.567	823.729
61.432	15.645	1065.757	822.880
62.447	15.604	1065.029	822.044
63.461	15.561	1064.192	821.113
64.476	15.374	1063.720	819.761
65.490	15.493	1062.459	819.298
66.505	15.612	1061.575	819.124
67.520	15.528	1060.650	817.928
68.534	15.607	1059.925	817.682
69.549	15.508	1059.364	816.694
70.563	15.484	1058.732	816.022
71.578	15.344	1058.299	814.936
72.593	15.387	1056.865	813.966
73.607	15.404	1056.407	813.625
74.622	15.339	1055.842	812.802
75.636	15.425	1055.220	812.669
76.651	15.441	1054.577	812.177
77.666	15.420	1053.739	811.362
78.680	15.490	1052.971	811.034
79.695	15.528	1052.337	810.657
80.709	15.582	1051.960	810.558
81.724	15.640	1051.307	810.262
82.739	15.542	1050.624	809.190
83.753	15.898	1049.546	810.003
84.768	15.979	1048.891	809.814
85.782	16.112	1047.907	809.621
86.797	15.974	1047.319	808.433
87.812	15.831	1045.732	806.453
88.826	15.958	1044.685	806.179
89.841	15.942	1044.022	805.523
90.855	16.003	1043.177	805.088
91.870	15.998	1042.174	804.221
92.884	15.975	1041.549	803.558
93.899	15.962	1040.610	802.700
94.914	16.153	1039.804	802.916
95.928	16.226	1038.407	802.112
96.943	16.009	1037.627	800.411
97.957	15.874	1037.127	799.314
98.972	15.896	1036.618	798.954
99.987	15.975	1035.452	798.360
101.001	15.964	1034.233	797.294
102.016	15.999	1032.767	796.258
103.030	15.996	1032.940	796.307
104.045	15.996	1031.762	795.329
105.060	15.943	1030.582	794.101
106.074	15.864	1029.404	792.748
107.089	15.683	1029.020	791.534
108.103	15.631	1028.101	790.512
109.118	15.617	1027.395	789.831
110.133	15.552	1026.178	788.524
111.147	15.680	1025.061	788.194
112.162	15.671	1024.188	787.411
113.176	15.814	1023.136	787.201
114.191	15.689	1023.021	786.459
115.206	15.719	1022.217	785.911
116.220	15.716	1021.330	785.144
117.235	15.807	1020.008	784.483
118.249	15.609	1019.659	783.225
119.264	15.661	1018.776	782.719
120.279	15.643	1018.061	782.016
121.293	15.682	1017.160	781.435
122.308	15.565	1016.148	780.044
123.322	15.498	1014.960	778.755
124.337	15.517	1013.932	777.985
125.352	15.597	1012.774	777.398
126.366	15.537	1011.843	776.338
127.381	15.589	1010.864	775.755
128.395	15.674	1009.799	775.263
129.410	15.621	1009.145	774.447
130.424	15.679	1008.005	773.771
131.439	15.830	1007.320	773.871
132.454	15.756	1006.629	772.935
133.468	15.818	1005.646	772.393
134.483	15.804	1004.758	771.580
135.497	15.830	1004.148	771.161
136.512	15.863	1002.918	770.300
137.527	15.786	1002.393	769.479
138.541	15.869	1001.490	769.095
139.556	15.818	1001.031	768.443
140.570	15.972	1000.624	768.765
141.585	16.174	999.412	768.684
142.600	16.109	998.280	767.449
143.614	16.283	997.672	767.707
144.629	16.141	997.137	766.581
145.643	16.208	995.809	765.799
146.658	16.033	994.703	764.086
147.673	15.925	993.760	762.806
148.687	15.859	992.968	761.832
149.702	15.826	991.694	760.638
150.716	15.803	991.102	760.010
151.731	15.874	990.258	759.614
152.746	15.983	989.246	759.265
153.760	15.953	988.838	758.749
154.775	15.963	988.183	758.224
155.789	16.048	987.899	758.320
156.804	16.097	986.451	757.363
157.819	16.017	986.443	756.928
158.833	16.196	985.624	757.037
159.848	16.247	984.786	756.555
160.862	16.140	983.759	755.224
161.877	16.121	982.344	753.984
162.892	15.957	981.786	752.754
163.906	15.871	980.487	751.309
164.921	15.910	980.154	751.163
165.935	16.008	978.795	750.490
166.950	16.037	977.988	749.935
167.964	16.118	976.913	749.403
168.979	15.932	976.346	748.077
169.994	16.072	975.159	747.722
171.008	16.095	974.647	747.363
172.023	16.141	973.822	746.871
173.037	16.328	973.266	747.203
174.052	16.123	972.756	745.840
175.067	16.051	971.681	744.631
176.081	15.987	970.764	743.582
177.096	16.001	970.875	743.662
178.110	16.046	970.046	743.160
179.125	15.943	969.611	742.306
180.140	16.121	968.815	742.415
181.154	16.308	967.825	742.414
182.169	16.240	967.623	741.895
183.183	16.234	967.207	741.482
184.198	16.394	966.330	741.446
185.213	16.319	965.725	740.589
186.227	16.268	964.947	739.703
187.242	16.297	964.640	739.528
188.256	16.418	964.301	739.732
189.271	16.433	962.860	738.627
190.286	16.202	961.815	736.753
191.300	16.061	961.146	735.562
192.315	15.847	960.766	734.272
193.329	15.951	959.970	734.049
194.344	16.032	959.801	734.208
195.359	16.193	959.082	734.294
196.373	16.338	958.029	734.056
197.388	16.380	957.965	734.123
198.402	16.591	957.230	734.410
199.417	16.616	956.848	734.162
200.432	16.718	956.119	733.978
201.446	16.569	955.745	732.982
202.461	16.767	955.014	733.214
203.475	16.577	954.595	732.005
204.490	16.644	953.592	731.460
205.504	16.634	952.641	730.623
206.519	16.447	952.464	729.614
207.534	16.459	951.417	728.799
208.548	16.380	950.903	728.002
209.563	16.438	950.245	727.682
210.577	16.645	949.231	727.734
211.592	16.706	948.443	727.326
212.607	16.784	947.860	727.149
213.621	16.645	947.042	725.860
214.636	16.667	947.021	725.873
215.650	16.749	945.523	725.015
216.665	16.818	944.966	724.817
217.680	16.907	944.415	724.711
218.694	16.736	943.605	723.297
219.709	16.834	942.980	723.168
220.723	16.816	942.252	722.469
221.738	16.857	941.431	721.952
222.753	16.888	941.219	721.858
223.767	16.902	940.387	721.217
224.782	16.998	939.807	721.116
225.796	16.995	939.484	720.792
226.811	16.816	938.866	719.491
227.826	16.825	937.600	718.499
228.840	16.851	937.034	718.111
229.855	16.810	936.488	717.454
230.869	16.821	935.368	716.579
231.884	16.867	934.461	716.016
232.899	16.782	934.163	715.364
233.913	16.673	933.228	714.126
234.928	16.806	932.463	714.037
235.942	16.708	932.315	713.448
236.957	16.711	931.469	712.751
237.972	16.652	930.932	712.026
238.986	16.776	929.927	711.718
240.001	16.758	929.530	711.274
241.015	16.705	929.523	710.984
242.030	16.839	928.554	710.742
243.045	16.919	927.599	710.282
244.059	16.835	927.392	709.708
245.074	16.978	926.495	709.561
246.088	17.000	926.335	709.466
247.103	17.055	925.276	708.821
248.117	17.086	925.018	708.691
249.132	17.322	924.192	708.979
250.147	17.605	923.620	709.658
251.161	17.407	923.056	708.337
252.176	17.482	922.300	708.006
253.190	17.487	921.743	707.536
254.205	17.558	921.021	707.213
255.220	17.478	920.554	706.461
256.234	17.652	919.763	706.513
257.249	17.543	919.347	705.678
258.263	17.638	917.553	704.630
259.278	17.557	917.500	704.194
260.293	17.637	916.891	703.996
261.307	17.636	916.698	703.779
262.322	17.712	915.704	703.268
263.336	17.726	914.648	702.453
264.351	17.642	914.428	701.876
265.366	17.741	913.540	701.540
266.380	17.683	913.016	700.837
267.395	17.816	911.794	700.384
268.409	17.558	911.328	698.904
269.424	17.549	910.672	698.302
270.439	17.738	909.714	698.279
271.453	17.640	908.936	697.222
272.468	17.511	908.498	696.296
273.482	17.485	908.265	695.949
274.497	17.432	907.692	695.229
275.512	17.625	907.084	695.494
276.526	17.665	906.374	695.049
277.541	17.845	905.478	695.035
278.555	17.836	905.309	694.808
279.570	17.837	904.743	694.313
280.585	17.923	903.485	693.637
281.599	17.739	902.832	692.327
282.614	17.669	902.336	691.601
283.628	17.728	901.857	691.415
284.643	17.860	900.789	691.068
285.657	17.651	900.473	689.916
286.672	17.879	899.726	690.206
287.687	17.794	899.202	689.399
288.701	17.825	898.591	688.994
289.716	17.991	898.022	689.168
290.730	17.871	897.219	688.007
291.745	17.961	896.751	687.950
292.760	17.999	896.157	687.587
293.774	18.045	895.603	687.285
294.789	18.001	894.958	686.554
295.803	17.879	894.350	685.536
296.818	17.802	893.523	684.533
297.833	17.948	892.966	684.630
298.847	17.933	892.313	684.009
299.862	17.948	891.968	683.745
300.876	17.913	891.241	682.986
301.891	18.154	890.683	683.462
302.906	18.131	890.126	682.881
303.920	18.242	889.828	683.034
304.935	18.313	888.686	682.381
305.949	18.279	888.427	681.988
306.964	18.188	887.616	680.944
307.979	18.199	886.953	680.418
308.993	18.277	886.270	680.142
310.008	18.342	885.825	679.999
311.022	18.328	885.225	679.423
312.037	18.156	884.820	678.371
313.052	18.096	883.975	677.426
314.066	18.141	883.037	676.822
315.081	18.002	883.076	676.245
316.095	18.168	882.153	676.132
317.110	18.073	881.757	675.394
318.125	18.283	880.661	675.323
319.139	18.075	880.449	674.280
320.154	18.266	879.823	674.493
321.168	18.118	879.369	673.502
322.183	18.138	879.012	673.248
323.197	18.209	878.523	673.093
324.212	18.181	877.516	672.154
325.227	18.165	877.003	671.639
326.241	18.281	876.378	671.557
327.256	18.137	875.868	670.542
328.270	18.181	875.568	670.422
329.285	18.257	874.487	669.835
330.300	18.245	874.148	669.469
331.314	18.174	873.300	668.482
332.329	18.280	873.286	668.825
333.343	18.337	873.050	668.810
334.358	18.407	872.258	668.417
335.373	18.329	872.366	668.138
336.387	18.305	872.110	667.787
337.402	18.568	871.133	668.003
338.416	18.531	871.132	667.800
339.431	18.603	870.513	667.547
340.446	18.739	869.941	667.577
341.460	18.529	870.025	666.767
342.475	18.825	869.644	667.565
343.489	18.769	868.920	666.732
344.504	18.891	868.488	666.819
345.519	18.875	867.849	666.205
346.533	18.779	867.299	665.354
347.548	18.770	866.268	664.468
348.562	18.637	866.300	663.920
349.577	18.587	865.503	663.058
350.592	18.467	864.852	662.034
351.606	18.542	864.193	661.761
352.621	18.562	863.283	661.083
353.635	18.562	863.111	660.892
354.650	18.706	862.048	660.574
355.665	18.707	861.549	660.136
356.679	18.867	860.659	660.014
357.694	18.842	860.051	659.394
358.708	18.728	859.466	658.449
359.723	18.723	858.947	657.972
360.738	18.893	858.245	658.029
361.752	18.824	857.886	657.430
362.767	18.902	857.202	657.144
363.781	19.081	856.603	657.313
364.796	19.248	856.179	657.567
365.810	19.108	856.366	657.117
366.825	19.195	855.402	656.652
367.840	19.240	855.112	656.544
368.854	18.974	854.744	655.187
369.869	19.097	853.879	654.936
370.883	19.047	853.667	654.522
371.898	19.169	853.437	654.753
372.913	19.193	853.251	654.643
373.927	19.086	852.506	653.609
374.942	19.147	851.851	653.279
375.956	19.323	851.349	653.504
376.971	19.450	850.804	653.509
377.986	19.447	850.485	653.196
379.000	19.384	850.195	652.674
380.015	19.500	849.405	652.451
381.029	19.389	848.994	651.657
382.044	19.347	848.504	651.065
383.059	19.394	847.454	650.379
384.073	19.365	846.827	649.731
385.088	19.232	846.609	649.004
386.102	19.340	845.830	648.758
387.117	19.219	844.953	647.571
388.132	19.207	844.740	647.306
389.146	19.394	843.969	647.362
390.161	19.292	843.831	646.813
391.175	19.427	843.185	646.770
392.190	19.281	842.713	645.804
393.205	19.375	842.084	645.616
394.219	19.367	841.853	645.351
395.234	19.312	841.158	644.554
396.248	19.364	840.722	644.357
397.263	19.343	840.097	643.744
398.278	19.199	839.691	642.838
399.292	19.281	839.484	642.928
400.307	19.199	839.193	642.344
401.321	19.376	838.250	642.223
402.336	19.490	837.561	642.063
403.350	19.449	837.588	641.875
404.365	19.418	837.505	641.640
405.380	19.462	836.850	641.244
406.394	19.605	836.187	641.210
407.409	19.612	835.715	640.817
408.423	19.842	835.089	641.135
409.438	19.727	835.222	640.753
410.453	19.798	834.474	640.385
411.467	19.793	834.213	640.108
412.482	19.869	833.565	639.837
413.496	19.867	833.224	639.511
414.511	19.868	833.014	639.297
415.526	19.817	832.284	638.490
416.540	20.046	831.600	638.753
417.555	19.962	831.661	638.433
418.569	19.835	831.065	637.453
419.584	19.838	830.707	637.132
420.599	19.840	830.271	636.751
421.613	150.037	1366.128	1763.992
422.628	130.939	1444.210	1764.122
