DTS Sentinel unit serial number:	SN413079Multiplexer serial number:	ORYXHardware model number:	OX4-SRSoftware version number:	ORYX F/W v4.00 Oryx Data Collector v3.7.2.0data status	okinstallation	princeton_trtdifferential loss correction	single-endedforward channel	channel 1reverse channel	N/Adate	2019/09/10time	20:16:11forward acquisition time	60.00reverse acquisition time	0.00gamma	496.2192k internal	0.2326k external	0.2326temperature offset calibration	0.9934default loss term (dB/km)	0.3790temperature slope calibration	1.0000multiplexer offset coefficient	1.0000multiplexer slope coefficient	1.0000fibre end	0.00T internal ref (°C)	32.28T ext. ref 1 (°C)	-0.31T ext. ref 2 (°C)	25.34length (m)	temperature (°C)	Stokes	anti-Stokes-747.200	631.281	-0.052	0.133
-746.185	36.050	0.267	0.237
-745.171	21.382	0.250	-0.205
-744.156	800.000	-0.053	0.179
-743.142	71.362	-0.121	-0.126
-742.127	-200.000	-0.009	-0.074
-741.112	-118.334	-0.448	-0.080
-740.098	-53.305	-0.168	0.078
-739.083	371.672	0.079	-0.162
-738.069	-118.754	0.149	0.026
-737.054	281.770	0.184	0.332
-736.039	-76.477	-0.317	0.112
-735.025	-200.000	0.009	0.185
-734.010	-150.632	-0.117	0.009
-732.996	-200.000	0.082	-0.405
-731.981	-159.978	-0.366	0.020
-730.966	431.824	-0.091	-0.199
-729.952	132.925	-0.143	-0.186
-728.937	-64.330	-0.106	-0.044
-727.923	-153.838	-0.165	0.011
-726.908	438.269	-0.085	-0.188
-725.894	-107.793	-0.317	-0.070
-724.879	-151.636	0.087	-0.006
-723.864	-53.586	0.261	-0.120
-722.850	-130.177	-0.070	-0.010
-721.835	433.162	-0.075	-0.164
-720.821	-3.616	-0.036	0.025
-719.806	-146.512	-0.312	0.027
-718.791	-200.000	0.001	-0.198
-717.777	-7.098	0.251	-0.172
-716.762	-200.000	-0.024	-0.242
-715.748	756.853	-0.054	0.148
-714.733	68.618	0.267	-0.276
-713.718	-200.000	0.013	-0.119
-712.704	148.309	-0.064	-0.087
-711.689	-60.906	-0.176	0.075
-710.675	-91.312	0.310	0.089
-709.660	-88.795	-0.172	-0.051
-708.645	-48.931	0.182	0.088
-707.631	-30.964	-0.241	-0.137
-706.616	3.269	0.180	0.132
-705.602	-76.111	-0.197	-0.070
-704.587	518.684	-0.085	-0.201
-703.572	-13.339	-0.190	0.124
-702.558	644.063	0.082	0.211
-701.543	800.000	0.072	-0.209
-700.529	-26.820	-0.365	0.215
-699.514	-84.290	-0.127	-0.040
-698.499	788.083	0.068	0.189
-697.485	325.417	-0.144	-0.277
-696.470	-59.161	0.244	-0.106
-695.456	-37.479	0.126	-0.068
-694.441	76.055	0.146	0.155
-693.426	-46.193	0.178	-0.088
-692.412	-30.659	-0.071	-0.040
-691.397	-106.544	-0.223	-0.050
-690.383	12.435	0.211	0.163
-689.368	610.202	-0.032	0.081
-688.354	-101.253	-0.101	-0.025
-687.339	-200.000	0.002	0.040
-686.324	-50.979	0.371	0.175
-685.310	306.548	0.129	-0.242
-684.295	93.526	0.066	0.075
-683.281	-200.000	-0.005	-0.105
-682.266	-101.832	0.321	-0.078
-681.251	-117.045	-0.232	0.043
-680.237	-124.680	0.160	-0.025
-679.222	-200.000	0.021	0.124
-678.208	-95.673	-0.221	0.059
-677.193	-84.899	-0.181	-0.057
-676.178	-200.000	-0.035	-0.246
-675.164	-174.609	0.258	0.007
-674.149	-81.258	0.302	0.100
-673.135	-42.231	-0.424	-0.218
-672.120	-144.855	-0.180	-0.017
-671.105	-200.000	-0.040	-0.191
-670.091	-62.351	-0.285	-0.120
-669.076	-158.893	-0.041	0.002
-668.062	-92.750	-0.229	0.065
-667.047	161.227	-0.112	-0.158
-666.032	260.860	-0.040	-0.069
-665.018	304.538	-0.061	-0.114
-664.003	-52.115	-0.107	0.050
-662.989	-71.087	0.188	-0.071
-661.974	253.332	-0.093	-0.160
-660.959	226.001	-0.020	-0.033
-659.945	-200.000	0.028	-0.455
-658.930	62.022	-0.168	-0.169
-657.916	-200.000	-0.059	-0.304
-656.901	6.538	-0.106	-0.080
-655.886	22.526	0.134	-0.110
-654.872	605.737	-0.054	-0.135
-653.857	-92.609	0.098	-0.028
-652.843	-200.000	0.031	-0.345
-651.828	-200.000	-0.060	-0.298
-650.814	72.234	-0.185	0.193
-649.799	-141.637	-0.133	-0.013
-648.784	-200.000	-0.015	0.099
-647.770	151.602	-0.236	0.323
-646.755	80.933	-0.234	-0.253
-645.741	65.798	-0.097	-0.099
-644.726	435.620	-0.067	0.147
-643.711	44.459	0.283	0.261
-642.697	121.797	-0.183	-0.229
-641.682	0.652	-0.281	0.202
-640.668	-15.370	0.197	0.127
-639.653	-163.216	0.451	-0.022
-638.638	-200.000	0.032	0.189
-637.624	-155.580	0.128	-0.008
-636.609	-33.868	-0.312	-0.172
-635.595	172.369	-0.155	-0.225
-634.580	269.251	0.085	-0.150
-633.565	800.000	-0.021	-0.062
-632.551	175.881	0.105	0.152
-631.536	-130.898	-0.246	0.033
-630.522	715.577	-0.080	-0.212
-629.507	-76.713	-0.375	-0.132
-628.492	-141.229	-0.240	-0.024
-627.478	125.607	-0.066	0.084
-626.463	135.179	-0.068	0.089
-625.449	800.000	0.068	-0.288
-624.434	13.794	-0.108	0.084
-623.419	800.000	0.063	0.243
-622.405	77.918	0.023	-0.024
-621.390	800.000	0.058	0.207
-620.376	800.000	-0.059	0.236
-619.361	800.000	0.031	-0.133
-618.346	6.994	-0.091	0.068
-617.332	-50.626	-0.477	-0.226
-616.317	116.463	-0.250	-0.308
-615.303	-63.946	-0.312	-0.128
-614.288	-105.404	0.059	-0.014
-613.273	-200.000	-0.000	0.166
-612.259	-162.699	0.171	0.008
-611.244	800.000	-0.080	-0.335
-610.230	36.835	-0.308	-0.273
-609.215	181.176	-0.162	0.239
-608.201	-18.393	-0.271	0.170
-607.186	0.784	0.036	0.026
-606.171	440.343	0.178	-0.391
-605.157	-66.993	0.255	-0.101
-604.142	64.055	-0.271	-0.274
-603.128	70.157	-0.120	-0.125
-602.113	-152.319	0.098	0.007
-601.098	-97.318	0.124	-0.032
-600.084	800.000	-0.014	0.039
-599.069	-200.000	-0.015	0.146
-598.055	77.910	-0.155	0.166
-597.040	82.354	0.069	-0.076
-596.025	-46.904	0.181	-0.089
-595.011	364.410	-0.121	-0.245
-593.996	1.234	-0.094	-0.067
-592.982	800.000	-0.020	0.077
-591.967	-200.000	0.122	0.537
-590.952	531.213	-0.042	0.100
-589.938	800.000	0.045	0.142
-588.923	-21.415	0.365	0.223
-587.909	35.201	-0.267	-0.235
-586.894	-109.972	0.020	-0.004
-585.879	-46.487	0.346	0.170
-584.865	-87.583	-0.284	0.086
-583.850	733.229	-0.178	0.477
-582.836	0.164	-0.253	-0.181
-581.821	-200.000	0.015	0.079
-580.806	60.196	-0.183	-0.181
-579.792	800.000	0.073	-0.245
-578.777	-85.944	0.272	0.084
-577.763	-112.142	0.433	-0.087
-576.748	-8.099	0.089	0.060
-575.733	-119.047	0.186	0.033
-574.719	-133.307	0.080	0.010
-573.704	-3.038	-0.260	-0.182
-572.690	-71.939	-0.172	-0.064
-571.675	800.000	0.028	-0.090
-570.661	-200.000	-0.003	-0.133
-569.646	0.531	-0.114	-0.082
-568.631	101.873	-0.090	0.106
-567.617	29.908	0.163	0.139
-566.602	-25.719	-0.492	0.291
-565.588	592.455	0.148	-0.367
-564.573	115.915	-0.142	-0.174
-563.558	-36.548	-0.336	0.181
-562.544	131.540	-0.262	-0.337
-561.529	85.741	-0.060	0.067
-560.515	8.774	-0.074	0.056
-559.500	-41.806	-0.109	0.056
-558.485	83.404	0.392	0.427
-557.471	440.791	0.056	-0.123
-556.456	-120.182	-0.053	0.009
-555.442	-101.834	0.062	0.015
-554.427	-167.327	0.447	-0.018
-553.412	-141.274	0.489	0.050
-552.398	-66.708	-0.287	-0.114
-551.383	-147.992	0.237	0.020
-550.369	126.976	0.161	0.204
-549.354	235.116	-0.061	0.100
-548.339	-175.852	-0.120	-0.003
-547.325	74.484	0.196	-0.206
-546.310	-126.422	-0.202	-0.030
-545.296	31.238	-0.342	0.294
-544.281	177.782	-0.141	-0.205
-543.266	-85.526	-0.188	0.058
-542.252	-200.000	-0.033	0.276
-541.237	-1.451	-0.175	0.124
-540.223	-200.000	-0.022	-0.162
-539.208	583.662	-0.070	-0.173
-538.193	2.459	0.115	-0.083
-537.179	-200.000	0.025	0.125
-536.164	-200.000	-0.068	-0.300
-535.150	-89.398	-0.060	-0.018
-534.135	103.539	-0.056	0.066
-533.121	21.632	0.162	-0.132
-532.106	-86.091	0.180	-0.056
-531.091	-158.020	-0.174	-0.010
-530.077	624.846	-0.063	0.158
-529.062	800.000	-0.037	0.105
-528.048	-196.971	0.334	-0.002
-527.033	-115.518	0.217	-0.041
-526.018	293.083	-0.173	-0.316
-525.004	800.000	-0.121	0.426
-523.989	-18.074	0.091	0.057
-522.975	65.730	0.156	-0.158
-521.960	-158.019	-0.233	0.014
-520.945	-200.000	0.045	-0.212
-519.931	-200.000	0.017	-0.263
-518.916	205.925	0.201	0.312
-517.902	-160.578	0.232	-0.012
-516.887	-200.000	-0.013	-0.391
-515.872	433.096	0.095	0.206
-514.858	-88.450	0.110	-0.033
-513.843	455.756	-0.040	-0.088
-512.829	-18.977	0.050	0.031
-511.814	-111.945	0.082	0.017
-510.799	-145.462	0.139	-0.012
-509.785	351.571	-0.068	-0.134
-508.770	-53.720	-0.061	0.028
-507.756	-158.681	-0.325	-0.019
-506.741	-58.630	0.235	0.102
-505.726	-200.000	-0.002	0.098
-504.712	-200.000	-0.011	-0.114
-503.697	350.785	-0.138	0.273
-502.683	-200.000	-0.011	-0.162
-501.668	-32.182	0.034	-0.019
-500.653	-176.437	0.156	-0.004
-499.639	76.463	0.157	0.166
-498.624	562.774	0.059	0.144
-497.610	484.953	0.121	-0.275
-496.595	300.777	0.107	-0.197
-495.581	-145.038	-0.211	-0.019
-494.566	-43.089	0.288	0.146
-493.551	727.221	-0.084	0.225
-492.537	-147.265	0.052	0.004
-491.522	-200.000	-0.024	-0.124
-490.508	-116.868	-0.286	0.052
-489.493	-103.837	-0.263	0.061
-488.478	174.785	-0.156	-0.226
-487.464	-97.306	-0.169	0.044
-486.449	-107.613	-0.110	-0.024
-485.435	23.310	0.190	-0.156
-484.420	299.854	-0.190	-0.350
-483.405	102.621	0.023	-0.027
-482.391	191.523	0.178	0.268
-481.376	799.563	-0.082	-0.227
-480.362	109.630	-0.060	-0.072
-479.347	118.879	0.079	0.098
-478.332	-41.736	0.371	-0.190
-477.318	-130.806	-0.335	-0.045
-476.303	800.000	0.030	0.089
-475.289	800.000	-0.046	0.197
-474.274	800.000	0.058	-0.255
-473.259	-200.000	0.008	-0.073
-472.245	-78.511	0.275	-0.094
-471.230	-200.000	0.048	0.240
-470.216	-89.436	-0.416	-0.122
-469.201	-103.989	0.318	0.074
-468.186	89.314	-0.101	-0.113
-467.172	-92.908	0.228	-0.064
-466.157	-73.500	0.402	0.146
-465.143	800.000	0.045	-0.133
-464.128	425.539	-0.043	0.093
-463.113	-24.367	0.115	0.068
-462.099	66.833	-0.107	0.108
-461.084	800.000	-0.031	0.115
-460.070	-58.821	-0.107	-0.046
-459.055	10.028	0.094	0.071
-458.040	800.000	0.070	-0.208
-457.026	-148.030	0.401	-0.033
-456.011	-200.000	-0.012	-0.122
-454.997	707.881	0.110	0.291
-453.982	-200.000	0.011	-0.110
-452.968	-28.035	0.329	0.190
-451.953	-200.000	0.055	0.360
-450.938	-62.955	-0.119	-0.049
-449.924	-122.755	-0.190	-0.031
-448.909	36.991	-0.144	0.127
-447.895	-87.657	0.250	0.075
-446.880	800.000	0.049	-0.176
-445.865	-200.000	-0.070	-0.470
-444.851	-62.847	0.166	-0.068
-443.836	220.280	0.237	-0.379
-442.822	182.599	-0.134	-0.197
-441.807	800.000	-0.066	0.242
-440.792	-88.561	0.112	-0.033
-439.778	37.736	0.109	0.097
-438.763	46.242	-0.169	-0.156
-437.749	800.000	0.014	0.054
-436.734	-113.505	-0.077	0.015
-435.719	-200.000	0.038	0.329
-434.705	800.000	0.067	0.239
-433.690	-111.267	-0.266	0.054
-432.676	5.683	0.120	0.088
-431.661	426.920	-0.129	-0.278
-430.646	7.957	-0.175	-0.131
-429.632	-49.162	-0.261	-0.124
-428.617	108.728	-0.114	0.135
-427.603	103.999	0.184	0.216
-426.588	99.152	0.257	-0.296
-425.573	-134.509	-0.292	0.036
-424.559	-74.377	0.180	-0.065
-423.544	-117.435	-0.295	-0.053
-422.530	-200.000	-0.071	-0.344
-421.515	-42.213	-0.083	0.042
-420.500	223.043	-0.094	0.151
-419.486	42.409	0.111	0.100
-418.471	-64.948	-0.067	0.027
-417.457	-106.086	0.198	0.044
-416.442	-98.666	0.077	-0.020
-415.428	-159.350	-0.221	0.012
-414.413	-186.982	0.069	0.001
-413.398	800.000	-0.120	-0.351
-412.384	-174.613	0.071	-0.002
-411.369	-96.237	0.316	-0.084
-410.355	-200.000	-0.001	-0.207
-409.340	93.394	-0.082	0.093
-408.325	-57.424	0.200	0.088
-407.311	448.746	0.091	0.201
-406.296	-200.000	-0.005	0.027
-405.282	192.142	-0.079	-0.118
-404.267	-36.183	0.172	0.092
-403.252	-42.825	-0.078	0.039
-402.238	58.157	-0.161	-0.157
-401.223	-117.952	0.256	0.046
-400.209	-200.000	-0.010	0.184
-399.194	183.987	-0.126	-0.186
-398.179	800.000	0.087	0.241
-397.165	-23.679	-0.168	0.100
-396.150	112.089	-0.078	-0.093
-395.136	-118.999	-0.130	0.023
-394.121	-58.876	-0.230	0.099
-393.106	-0.602	-0.206	-0.145
-392.092	-11.851	-0.253	0.165
-391.077	565.001	0.068	-0.164
-390.063	425.736	0.101	-0.216
-389.048	-200.000	0.008	-0.123
-388.033	-200.000	0.028	-0.200
-387.019	800.000	0.071	-0.209
-386.004	800.000	0.063	-0.251
-384.990	-8.855	0.143	-0.095
-383.975	142.403	-0.037	-0.048
-382.960	-200.000	0.052	0.394
-381.946	-82.546	-0.104	-0.034
-380.931	-200.000	-0.047	0.212
-379.917	259.915	-0.072	0.123
-378.902	191.574	0.152	-0.228
-377.888	55.752	-0.188	-0.181
-376.873	-88.610	-0.184	-0.055
-375.858	84.207	0.069	0.075
-374.844	-33.273	-0.063	0.035
-373.829	-77.986	-0.231	0.079
-372.815	-7.361	0.265	0.179
-371.800	84.406	0.390	-0.424
-370.785	-103.293	0.288	0.068
-369.771	62.381	-0.119	-0.118
-368.756	130.171	0.138	0.176
-367.742	-66.958	0.128	-0.050
-366.727	15.697	0.312	-0.243
-365.712	-123.526	0.094	0.015
-364.698	-200.000	-0.002	0.059
-363.683	35.321	0.301	-0.262
-362.669	-200.000	0.399	0.002
-361.654	-1.673	-0.200	-0.140
-360.639	311.302	0.096	0.179
-359.625	110.183	-0.097	0.116
-358.610	-200.000	-0.003	-0.046
-357.596	-200.000	-0.010	-0.094
-356.581	566.517	0.023	0.056
-355.566	-168.603	0.253	0.010
-354.552	497.109	-0.121	0.276
-353.537	434.346	-0.058	-0.126
-352.523	-71.090	-0.176	0.066
-351.508	139.255	0.184	-0.240
-350.493	0.468	-0.153	-0.109
-349.479	-152.878	-0.267	-0.019
-348.464	-200.000	0.076	-0.366
-347.450	81.813	0.075	0.081
-346.435	-64.649	0.115	0.046
-345.420	-126.424	-0.378	0.056
-344.406	-121.971	0.261	0.043
-343.391	800.000	-0.080	0.334
-342.377	440.671	0.116	0.253
-341.362	-200.000	0.001	0.080
-340.348	203.030	0.267	0.410
-339.333	57.090	-0.145	0.141
-338.318	-45.872	-0.122	-0.060
-337.304	-105.192	0.441	0.100
-336.289	-96.093	-0.166	0.044
-335.275	-142.132	-0.250	0.025
-334.260	140.580	-0.145	0.190
-333.245	-87.823	0.154	0.046
-332.231	-102.301	-0.237	0.056
-331.216	37.928	-0.217	0.191
-330.202	36.795	-0.145	0.127
-329.187	178.111	-0.137	0.198
-328.172	-106.630	-0.215	0.048
-327.158	800.000	0.020	-0.066
-326.143	-26.280	-0.085	0.049
-325.129	-77.024	0.128	-0.044
-324.114	-200.000	0.033	-0.148
-323.099	158.953	-0.194	-0.268
-322.085	34.656	-0.062	-0.054
-321.070	103.503	0.067	-0.078
-320.056	373.059	-0.184	-0.370
-319.041	-172.694	0.113	-0.004
-318.026	-141.503	0.121	0.012
-317.012	551.780	-0.011	-0.025
-315.997	-7.012	0.158	-0.106
-314.983	-162.533	-0.044	-0.002
-313.968	-73.927	-0.272	-0.098
-312.953	135.253	-0.145	-0.186
-311.939	196.762	-0.217	0.328
-310.924	800.000	0.043	0.122
-309.910	-113.271	0.197	0.038
-308.895	375.719	-0.027	0.055
-307.880	-200.000	-0.002	0.101
-306.866	-99.138	-0.494	0.124
-305.851	-91.935	-0.306	-0.086
-304.837	28.741	0.054	0.045
-303.822	204.856	0.039	-0.061
-302.807	-94.411	0.268	-0.072
-301.793	-76.291	-0.251	-0.088
-300.778	-69.808	-0.108	-0.041
-299.764	90.476	-0.143	-0.158
-298.749	157.986	0.047	0.065
-297.735	57.679	-0.215	0.209
-296.720	-18.588	-0.180	0.111
-295.705	-117.097	0.123	-0.022
-294.691	184.276	0.074	0.108
-293.676	-33.035	0.384	-0.211
-292.662	21.972	-0.254	0.205
-291.647	-120.504	0.089	-0.015
-290.632	-200.000	-0.010	0.080
-289.618	62.091	-0.256	-0.253
-288.603	-83.686	-0.221	-0.070
-287.589	-90.912	0.138	0.039
-286.574	-17.208	0.076	0.047
-285.559	504.263	0.062	0.142
-284.545	-86.660	-0.189	0.057
-283.530	-73.205	-0.169	-0.061
-282.516	-200.000	0.019	0.108
-281.501	-22.946	0.216	0.129
-280.486	3.320	0.216	-0.156
-279.472	66.322	-0.174	0.175
-278.457	-95.659	0.139	-0.037
-277.443	-10.319	0.122	-0.080
-276.428	-45.975	0.110	-0.053
-275.413	-88.127	0.080	0.024
-274.399	602.907	0.083	0.205
-273.384	800.000	0.040	0.144
-272.370	750.471	-0.007	-0.018
-271.355	-94.789	-0.041	0.011
-270.340	-17.439	0.249	-0.155
-269.326	-85.517	0.196	-0.060
-268.311	-117.872	0.153	-0.027
-267.297	-200.000	-0.028	0.295
-266.282	-200.000	0.003	0.025
-265.267	-35.218	0.357	-0.192
-264.253	-90.613	0.031	-0.009
-263.238	800.000	-0.065	-0.221
-262.224	-94.277	0.304	-0.082
-261.209	-113.173	0.096	0.019
-260.195	-149.012	0.250	0.020
-259.180	800.000	0.069	0.209
-258.165	-67.531	-0.204	0.079
-257.151	800.000	-0.030	-0.088
-256.136	-28.399	-0.078	0.044
-255.122	103.400	0.068	0.079
-254.107	-79.154	0.172	0.058
-253.092	576.961	-0.109	0.263
-252.078	-170.922	0.205	-0.007
-251.063	39.096	0.237	0.210
-250.049	58.492	-0.097	-0.094
-249.034	-99.513	0.365	0.091
-248.019	137.125	0.061	0.079
-247.005	40.206	-0.078	0.069
-245.990	800.000	0.102	0.373
-244.976	-91.626	0.196	0.055
-243.961	34.597	0.186	0.160
-242.946	-200.000	-0.026	0.182
-241.932	-134.746	-0.133	0.016
-240.917	-22.138	-0.143	-0.086
-239.903	188.083	-0.060	0.089
-238.888	45.144	-0.279	-0.254
-237.873	49.976	0.079	-0.074
-236.859	466.478	-0.105	0.232
-235.844	800.000	0.063	0.206
-234.830	50.213	-0.122	-0.114
-233.815	357.034	0.007	0.014
-232.800	-109.802	-0.010	0.002
-231.786	231.698	0.036	-0.058
-230.771	-121.081	-0.157	-0.026
-229.757	-0.185	-0.107	-0.076
-228.742	-200.000	0.029	-0.226
-227.727	-104.505	-0.334	-0.076
-226.713	-5.639	0.361	-0.244
-225.698	116.325	0.152	0.185
-224.684	72.589	-0.070	-0.072
-223.669	578.066	-0.016	0.038
-222.655	800.000	-0.057	0.187
-221.640	251.815	-0.117	-0.197
-220.625	-34.453	0.047	0.025
-219.611	-79.582	0.207	0.069
-218.596	-121.113	-0.126	0.021
-217.582	232.186	0.081	0.131
-216.567	-101.947	0.243	-0.058
-215.552	145.517	-0.154	0.204
-214.538	-90.770	-0.169	-0.048
-213.523	32.460	0.091	-0.078
-212.509	108.189	-0.162	-0.191
-211.494	-200.000	0.021	0.192
-210.479	-200.000	0.008	0.231
-209.465	-42.418	0.114	-0.058
-208.450	-114.302	-0.027	-0.005
-207.436	165.386	0.266	0.371
-206.421	800.000	-0.075	0.296
-205.406	-11.070	0.097	-0.063
-204.392	-200.000	0.012	0.100
-203.377	-26.848	0.083	-0.048
-202.363	-200.000	-0.005	0.234
-201.348	800.000	-0.079	0.279
-200.333	9.581	-0.325	0.243
-199.319	-162.761	-0.509	-0.025
-198.304	-160.143	0.095	-0.005
-197.290	-121.972	0.137	-0.022
-196.275	-200.000	0.011	-0.234
-195.260	539.712	-0.098	-0.230
-194.246	379.104	0.094	-0.190
-193.231	25.258	-0.217	0.178
-192.217	-200.000	0.003	-0.034
-191.202	-43.815	0.075	-0.037
-190.187	-45.215	-0.141	-0.069
-189.173	-73.289	-0.353	-0.127
-188.158	164.868	-0.106	0.148
-187.144	-178.036	0.211	0.005
-186.129	-13.634	0.182	0.116
-185.114	11.954	-0.141	-0.107
-184.100	-200.000	0.054	0.369
-183.085	-86.931	-0.243	-0.073
-182.071	313.957	-0.084	-0.156
-181.056	-145.284	0.360	-0.032
-180.042	-88.142	-0.138	0.041
-179.027	-36.758	0.071	0.037
-178.012	-58.739	-0.033	0.014
-176.998	-127.819	0.096	-0.014
-175.983	547.576	-0.032	-0.074
-174.969	-108.321	0.410	-0.087
-173.954	-66.889	-0.171	-0.066
-172.939	-200.000	0.008	0.097
-171.925	-101.041	-0.159	-0.038
-170.910	-19.178	0.309	0.189
-169.896	16.001	-0.088	-0.068
-168.881	349.507	0.133	-0.259
-167.866	-36.787	0.204	-0.108
-166.852	800.000	0.025	-0.072
-165.837	-52.713	-0.076	0.034
-164.823	177.524	0.187	-0.269
-163.808	25.631	0.096	0.078
-162.793	-200.000	-0.025	0.162
-161.779	800.000	-0.040	-0.158
-160.764	425.486	0.102	-0.217
-159.750	-40.190	0.158	0.081
-158.735	-200.000	-0.004	-0.120
-157.720	77.907	-0.028	-0.029
-156.706	369.940	0.057	0.114
-155.691	7.020	0.106	-0.078
-154.677	-83.642	0.090	-0.028
-153.662	-16.368	0.274	0.171
-152.647	490.364	0.043	-0.097
-151.633	366.389	0.137	-0.273
-150.618	-200.000	0.043	-0.399
-149.604	-140.021	-0.237	0.025
-148.589	-200.000	-0.041	-0.212
-147.574	-78.499	-0.121	0.041
-146.560	58.944	0.056	-0.054
-145.545	472.739	0.100	-0.223
-144.531	-200.000	-0.015	-0.078
-143.516	584.763	-0.056	0.135
-142.502	23.343	0.177	0.143
-141.487	59.864	-0.226	-0.220
-140.472	-65.098	0.196	0.078
-139.458	82.618	0.123	-0.131
-138.443	-160.502	-0.103	-0.005
-137.429	-30.607	-0.093	-0.052
-136.414	47.713	-0.166	0.152
-135.399	0.434	-0.120	0.084
-134.385	-200.000	0.010	-0.049
-133.370	105.760	-0.139	-0.162
-132.356	-125.979	-0.129	0.019
-131.341	-200.000	-0.049	0.248
-130.326	49.162	0.238	0.221
-129.312	-100.395	0.255	0.062
-128.297	-143.650	-0.090	-0.008
-127.283	52.382	-0.102	0.096
-126.268	41.683	-0.252	0.224
-125.253	-200.000	0.033	0.299
-124.239	-7.970	0.365	-0.242
-123.224	-200.000	0.007	-0.054
-122.210	-200.000	0.028	-0.364
-121.195	529.891	0.075	0.175
-120.180	-51.998	-0.217	0.099
-119.166	40.256	-0.219	-0.194
-118.151	394.585	-0.062	-0.127
-117.137	133.197	0.134	-0.170
-116.122	-88.175	0.101	-0.030
-115.107	800.000	-0.031	-0.120
-114.093	57.308	-0.056	-0.054
-113.078	265.837	0.104	0.178
-112.064	-112.277	-0.189	-0.037
-111.049	-34.913	0.279	0.150
-110.034	259.903	0.034	0.057
-109.020	-190.062	-0.524	0.006
-108.005	-200.000	0.007	0.174
-106.991	800.000	0.024	0.075
-105.976	645.412	-0.075	0.189
-104.962	800.000	-0.104	-0.298
-103.947	-81.514	0.098	-0.032
-102.932	-119.052	-0.083	0.014
-101.918	-3.019	0.203	0.139
-100.903	-200.000	-0.024	0.252
-99.889	-124.912	0.266	0.040
-98.874	202.708	-0.333	0.506
-97.859	597.199	-0.154	0.374
-96.845	-200.000	-0.001	0.190
-95.830	115.749	-0.139	-0.167
-94.816	-163.217	-0.349	-0.016
-93.801	-51.874	0.119	-0.054
-92.786	-5.967	0.117	0.079
-91.772	-56.711	0.257	-0.112
-90.757	800.000	-0.052	0.196
-89.743	254.860	-0.157	0.264
-88.728	25.404	-0.084	-0.069
-87.713	221.768	-0.058	0.092
-86.699	72.103	0.233	0.238
-85.684	800.000	0.084	0.359
-84.670	94.997	-0.406	0.454
-83.655	580.874	0.094	-0.226
-82.640	81.609	-0.212	-0.225
-81.626	173.475	-0.078	-0.111
-80.611	-83.977	0.263	-0.082
-79.597	61.437	0.104	0.102
-78.582	800.000	0.009	0.032
-77.567	-107.985	-0.200	-0.043
-76.553	-17.563	-0.036	-0.022
-75.538	21.300	0.091	0.073
-74.524	-200.000	-0.041	0.260
-73.509	386.604	-0.067	0.135
-72.494	89.285	0.195	-0.214
-71.480	7.375	0.182	0.134
-70.465	-179.419	0.191	0.004
-69.451	-200.000	-0.020	-0.170
-68.436	800.000	-0.071	0.228
-67.422	228.330	0.051	0.081
-66.407	800.000	0.084	-0.338
-65.392	800.000	0.089	0.254
-64.378	25.330	-0.217	0.177
-63.363	109.475	0.120	-0.141
-62.349	-94.060	-0.211	0.057
-61.334	83.333	-0.976	-1.044
-60.319	435.995	0.327	0.698
-59.305	-200.000	0.063	-1.149
-58.290	60.271	0.789	0.766
-57.276	-200.000	0.287	1.497
-56.261	-200.000	98.472	596.959
-55.246	604.333	1406.297	3436.672
-54.232	191.287	2599.196	3841.176
-53.217	117.655	2153.059	2601.588
-52.203	44.203	1607.847	1448.032
-51.188	35.990	1345.190	1162.141
-50.173	32.709	1303.903	1107.196
-49.159	54.403	1353.504	1279.636
-48.144	56.487	1369.201	1306.883
-47.130	35.948	1326.375	1145.456
-46.115	32.463	1308.979	1109.882
-45.100	32.284	1304.047	1104.603
-44.086	32.246	1301.543	1102.216
-43.071	32.202	1299.082	1099.830
-42.057	32.158	1297.152	1097.894
-41.042	32.088	1295.676	1096.191
-40.027	32.290	1294.186	1096.068
-39.013	32.353	1292.132	1094.651
-37.998	32.213	1290.433	1092.352
-36.984	32.286	1288.848	1091.392
-35.969	32.217	1287.130	1089.493
-34.954	32.256	1285.718	1088.482
-33.940	32.208	1284.395	1087.039
-32.925	32.358	1282.706	1086.434
-31.911	32.375	1281.156	1085.177
-30.896	32.377	1280.058	1084.215
-29.881	32.435	1278.481	1083.174
-28.867	32.495	1276.683	1081.948
-27.852	32.432	1275.470	1080.520
-26.838	32.361	1274.235	1079.018
-25.823	32.391	1272.872	1077.993
-24.809	32.336	1271.314	1076.320
-23.794	32.285	1270.427	1075.234
-22.779	32.235	1268.998	1073.695
-21.765	32.395	1267.322	1073.151
-20.750	32.333	1265.974	1071.612
-19.736	32.306	1264.833	1070.450
-18.721	32.194	1263.907	1068.987
-17.706	32.300	1262.349	1068.226
-16.692	32.285	1261.382	1067.283
-15.677	32.244	1260.041	1065.874
-14.663	32.229	1258.800	1064.695
-13.648	32.076	1258.279	1063.344
-12.633	32.202	1257.203	1063.105
-11.619	32.298	1255.994	1062.584
-10.604	32.104	1255.367	1060.915
-9.590	32.282	1254.137	1060.838
-8.575	32.270	1253.393	1060.098
-7.560	32.174	1252.728	1058.955
-6.546	32.221	1251.615	1058.237
-5.531	32.267	1250.617	1057.612
-4.517	32.102	1250.061	1056.172
-3.502	32.232	1248.858	1055.842
-2.487	32.255	1248.080	1055.269
-1.473	32.273	1244.062	1051.931
-0.458	30.506	1228.772	1029.188
0.556	24.511	1209.937	988.549
1.571	20.456	1214.563	969.658
2.586	19.724	1228.713	976.733
3.600	19.374	1218.440	966.518
4.615	14.163	1146.575	881.879
5.629	4.454	1071.244	775.572
6.644	-0.054	1050.021	738.040
7.659	-0.431	1047.480	734.338
8.673	-0.338	1046.235	733.857
9.688	-0.436	1044.644	732.198
10.702	-0.032	1043.293	733.158
11.717	5.809	1052.166	767.996
12.731	14.922	1064.580	821.964
13.746	18.642	1068.327	843.098
14.761	18.607	1068.297	842.828
15.775	18.410	1067.461	841.125
16.790	18.131	1066.696	839.079
17.804	18.106	1065.881	838.240
18.819	18.187	1065.640	838.372
19.834	18.165	1065.246	837.884
20.848	18.234	1065.045	837.989
21.863	18.219	1063.777	836.842
22.877	18.119	1063.585	836.131
23.892	17.961	1063.338	835.088
24.907	18.156	1062.163	835.042
25.921	18.256	1060.900	834.463
26.936	18.278	1059.244	833.197
27.950	18.113	1057.906	831.265
28.965	17.960	1056.032	828.977
29.980	18.072	1054.324	828.108
30.994	18.215	1052.993	827.683
32.009	18.156	1052.277	826.761
33.023	18.001	1050.604	824.622
34.038	18.140	1049.715	824.523
35.053	18.297	1049.414	824.970
36.067	18.180	1048.168	823.356
37.082	18.292	1047.250	823.097
38.096	18.446	1046.770	823.391
39.111	18.552	1045.269	822.642
40.126	18.349	1044.236	820.784
41.140	17.908	1042.844	817.506
42.155	17.975	1040.466	815.893
43.169	17.984	1040.004	815.499
44.184	17.979	1038.863	814.508
45.199	17.883	1037.949	813.265
46.213	17.965	1036.604	812.528
47.228	17.934	1036.117	811.924
48.242	18.078	1034.539	811.299
49.257	18.108	1033.915	810.881
50.271	18.224	1033.078	810.704
51.286	18.095	1032.123	809.272
52.301	18.135	1031.133	808.615
53.315	18.196	1030.260	808.144
54.330	18.185	1029.045	807.070
55.344	18.327	1028.264	807.057
56.359	18.233	1027.023	805.566
57.374	18.049	1026.310	804.072
58.388	18.015	1025.793	803.435
59.403	18.005	1025.000	802.694
60.417	17.856	1023.905	801.069
61.432	18.026	1023.138	801.196
62.447	18.174	1022.516	801.330
63.461	18.055	1021.880	800.202
64.476	18.112	1020.819	799.569
65.490	18.038	1019.827	798.373
66.505	18.070	1019.048	797.845
67.520	18.173	1018.125	797.531
68.534	17.912	1017.095	795.439
69.549	17.595	1016.094	793.108
70.563	17.630	1015.506	792.741
71.578	17.687	1014.687	792.295
72.593	17.614	1013.264	790.777
73.607	17.816	1012.720	791.221
74.622	17.931	1012.599	791.587
75.636	17.944	1011.877	791.014
76.651	17.674	1010.872	788.911
77.666	17.822	1009.558	788.499
78.680	17.906	1009.398	788.690
79.695	17.948	1008.587	788.179
80.709	18.033	1007.565	787.703
81.724	17.980	1006.944	786.904
82.739	18.008	1005.947	786.184
83.753	18.303	1005.375	787.025
84.768	18.474	1004.415	786.989
85.782	18.501	1003.422	786.264
86.797	18.343	1002.348	784.633
87.812	18.188	1001.665	783.318
88.826	18.441	1000.368	783.390
89.841	18.313	999.847	782.327
90.855	18.447	998.339	781.690
91.870	18.386	997.754	780.886
92.884	18.161	996.799	779.043
93.899	18.258	995.789	778.628
94.914	18.425	994.910	778.629
95.928	18.131	993.609	776.206
96.943	18.144	992.154	775.063
97.957	17.790	991.114	772.577
98.972	17.620	990.307	771.113
99.987	17.901	989.441	771.637
101.001	18.189	988.215	771.916
102.016	17.929	988.090	770.573
103.030	17.993	986.661	769.680
104.045	17.984	985.236	768.462
105.060	17.705	984.609	766.651
106.074	17.995	983.714	767.185
107.089	18.390	983.295	768.566
108.103	18.311	981.851	767.013
109.118	18.140	980.628	765.226
110.133	18.272	979.900	765.181
111.147	17.945	978.741	762.748
112.162	17.793	978.065	761.476
113.176	18.103	976.961	761.930
114.191	17.955	976.025	760.472
115.206	17.751	974.898	758.621
116.220	17.814	974.155	758.256
117.235	17.973	972.980	757.981
118.249	17.935	971.983	756.967
119.264	17.751	971.686	755.855
120.279	17.770	970.929	755.283
121.293	17.975	969.880	755.304
122.308	18.038	969.092	754.903
123.322	18.015	968.151	754.003
124.337	17.853	966.420	751.872
125.352	17.431	964.726	748.635
126.366	17.425	963.801	747.823
127.381	17.942	963.365	749.688
128.395	18.105	963.296	750.283
129.410	18.440	962.351	750.950
130.424	18.225	961.145	749.003
131.439	18.296	959.870	748.255
132.454	18.213	959.468	747.509
133.468	18.211	958.123	746.386
134.483	18.193	957.565	745.808
135.497	18.624	956.319	746.647
136.512	18.525	955.402	745.435
137.527	18.540	954.280	744.560
138.541	18.458	954.087	743.987
139.556	18.437	953.261	743.187
140.570	18.534	952.212	742.724
141.585	18.459	950.786	741.221
142.600	18.469	950.033	740.610
143.614	18.753	949.352	741.242
144.629	18.686	948.755	740.421
145.643	18.479	947.724	738.659
146.658	18.479	946.313	737.491
147.673	18.366	945.638	736.415
148.687	18.258	944.570	735.053
149.702	18.316	943.518	734.421
150.716	18.360	942.283	733.583
151.731	18.451	941.827	733.552
152.746	18.593	941.336	733.711
153.760	18.699	940.771	733.658
154.775	18.655	940.389	733.108
155.789	18.570	939.126	731.697
156.804	18.718	937.633	731.100
157.819	18.575	937.357	730.211
158.833	18.658	936.344	729.711
159.848	18.747	935.267	729.185
160.862	18.529	934.357	727.483
161.877	18.600	933.462	727.025
162.892	18.760	932.508	726.893
163.906	18.587	931.699	725.468
164.921	18.603	931.107	725.012
165.935	18.727	929.852	724.495
166.950	18.634	928.819	723.231
167.964	18.731	927.818	722.796
168.979	18.466	926.873	720.884
169.994	18.568	925.485	720.169
171.008	18.776	924.787	720.434
172.023	18.810	923.602	719.589
173.037	18.397	922.927	717.270
174.052	18.287	922.205	716.185
175.067	18.575	921.510	716.788
176.081	18.594	921.269	716.615
177.096	18.621	920.147	715.789
178.110	18.277	919.702	713.946
179.125	18.185	918.919	712.894
180.140	18.233	918.490	712.696
181.154	18.223	918.221	712.381
182.169	18.527	917.809	713.265
183.183	18.591	917.523	713.244
184.198	18.646	916.166	712.358
185.213	18.653	915.011	711.425
186.227	18.736	914.722	711.480
187.242	18.698	914.031	710.724
188.256	18.657	913.402	710.000
189.271	18.772	912.762	709.915
190.286	18.390	911.554	707.335
191.300	18.037	910.389	704.913
192.315	17.385	909.114	701.177
193.329	17.440	907.770	700.306
194.344	18.241	908.552	704.143
195.359	18.581	908.730	705.619
196.373	18.679	907.504	705.006
197.388	18.297	907.118	703.078
198.402	18.393	906.130	702.641
199.417	18.330	905.525	701.851
200.432	18.136	904.583	700.264
201.446	17.930	903.845	698.788
202.461	18.033	903.326	698.749
203.475	17.399	901.289	694.523
204.490	16.733	899.853	690.638
205.504	17.552	900.722	694.590
206.519	18.210	900.296	696.877
207.534	18.242	899.941	696.673
208.548	18.597	899.727	697.892
209.563	18.396	898.760	696.260
210.577	18.435	897.906	695.696
211.592	18.791	897.451	696.726
212.607	18.653	896.786	695.591
213.621	18.809	895.834	695.420
214.636	18.747	895.546	694.885
215.650	18.611	894.595	693.535
216.665	18.767	893.840	693.520
217.680	18.777	892.803	692.694
218.694	18.228	891.829	689.664
219.709	18.142	891.430	688.949
220.723	18.486	890.941	689.893
221.738	18.546	890.464	689.707
222.753	18.481	889.568	688.689
223.767	18.729	889.043	689.218
224.782	18.855	888.550	689.280
225.796	18.774	887.965	688.439
226.811	18.288	886.126	685.011
227.826	17.888	884.874	682.382
228.840	17.885	884.989	682.397
229.855	17.969	883.982	681.898
230.869	17.690	882.718	679.748
231.884	18.090	883.104	681.580
232.899	18.826	882.555	684.028
233.913	18.602	882.108	682.731
234.928	18.635	881.614	682.420
235.942	18.650	881.091	682.013
236.957	18.296	879.961	679.673
237.972	18.455	879.414	679.823
238.986	18.451	879.168	679.554
240.001	18.340	878.372	678.440
241.015	18.520	877.550	678.457
242.030	18.526	877.131	678.097
243.045	18.657	876.756	678.267
244.059	18.948	875.582	678.444
245.074	18.575	874.876	676.368
246.088	18.271	873.967	674.406
247.103	18.431	873.840	674.880
248.117	18.903	873.243	676.217
249.132	19.087	872.824	676.556
250.147	19.148	872.171	676.229
251.161	19.309	871.414	676.212
252.176	19.118	871.358	675.360
253.190	19.388	870.608	675.778
254.205	19.628	869.732	675.980
255.220	19.540	869.083	675.070
256.234	19.310	868.286	673.493
257.249	19.312	867.819	673.078
258.263	19.364	866.813	672.440
259.278	19.339	866.142	671.762
260.293	19.384	865.155	671.114
261.307	19.324	864.706	670.471
262.322	19.089	863.706	668.725
263.336	18.393	861.541	664.290
264.351	17.266	859.878	658.586
265.366	17.474	860.118	659.517
266.380	18.531	860.640	663.954
267.395	19.011	859.853	665.146
268.409	18.926	859.322	664.350
269.424	19.275	858.616	665.091
270.439	19.163	858.326	664.376
271.453	19.370	857.649	664.592
272.468	19.592	857.139	664.991
273.482	19.522	856.399	664.089
274.497	19.104	855.210	661.501
275.512	18.816	854.486	659.778
276.526	19.142	854.729	661.157
277.541	19.232	853.808	660.734
278.555	19.021	852.760	659.055
279.570	18.843	852.219	657.897
280.585	19.088	851.309	658.072
281.599	19.066	850.554	657.346
282.614	18.538	849.569	654.512
283.628	18.617	848.934	654.268
284.643	18.974	848.600	655.314
285.657	18.643	847.611	653.230
286.672	18.311	846.692	651.202
287.687	18.787	846.917	653.128
288.701	18.851	846.424	652.933
289.716	18.536	845.007	650.586
290.730	18.633	844.356	650.397
291.745	18.160	843.665	648.013
292.760	18.635	843.273	649.454
293.774	19.492	843.352	652.700
294.789	19.766	842.971	653.386
295.803	19.908	842.610	653.584
296.818	19.864	842.003	652.889
297.833	19.522	840.831	650.632
298.847	19.317	840.370	649.447
299.862	19.613	839.849	650.098
300.876	19.763	839.610	650.422
301.891	19.505	838.510	648.543
302.906	19.096	837.800	646.399
303.920	19.262	837.365	646.629
304.935	19.589	837.071	647.573
305.949	19.664	836.375	647.258
306.964	19.502	835.856	646.193
307.979	19.568	835.716	646.276
308.993	20.000	834.970	647.255
310.008	19.855	834.373	646.194
311.022	19.486	833.946	644.428
312.037	19.669	833.211	644.485
313.052	19.518	832.261	643.132
314.066	18.655	830.931	638.837
315.081	18.419	829.705	636.958
316.095	19.131	830.407	640.088
317.110	19.650	830.027	641.669
318.125	18.834	828.928	637.733
319.139	17.868	827.807	633.232
320.154	18.039	827.194	633.343
321.168	18.756	827.378	636.083
322.183	19.335	827.378	638.169
323.197	19.500	826.971	638.411
324.212	19.694	826.760	638.908
325.227	19.761	825.904	638.440
326.241	19.439	825.485	636.868
327.256	19.551	825.007	636.860
328.270	19.390	823.987	635.419
329.285	19.285	823.135	634.323
330.300	19.241	822.530	633.637
331.314	19.381	822.035	633.714
332.329	19.541	822.153	634.336
333.343	19.724	821.388	634.363
334.358	19.558	821.046	633.435
335.373	19.704	820.953	633.840
336.387	20.022	820.483	634.586
337.402	20.077	820.224	634.530
338.416	20.054	819.626	633.928
339.431	20.034	819.433	633.649
340.446	20.131	818.948	633.574
341.460	19.999	818.824	632.939
342.475	19.779	818.149	631.558
343.489	19.968	817.323	631.556
344.504	20.062	817.652	632.095
345.519	20.273	816.951	632.265
346.533	20.535	816.344	632.693
347.548	20.321	816.129	631.692
348.562	20.459	815.323	631.515
349.577	20.529	814.621	631.170
350.592	20.439	814.240	630.492
351.606	20.448	813.371	629.795
352.621	20.376	812.532	628.830
353.635	20.282	811.688	627.780
354.650	19.514	810.536	624.059
355.665	18.886	808.963	620.525
356.679	19.142	809.245	621.613
357.694	19.463	808.656	622.264
358.708	19.354	808.169	621.438
359.723	19.933	807.617	623.046
360.738	20.126	807.249	623.399
361.752	20.188	806.814	623.234
362.767	20.459	806.476	623.887
363.781	20.708	805.915	624.292
364.796	20.588	805.517	623.498
365.810	20.676	805.323	623.608
366.825	20.627	805.067	623.181
367.840	20.448	803.955	621.622
368.854	20.280	802.855	620.116
369.869	20.068	803.029	619.441
370.883	20.178	802.558	619.415
371.898	20.002	801.880	618.209
372.913	19.905	802.218	618.069
373.927	20.157	801.565	618.409
374.942	20.425	800.998	618.873
375.956	20.584	800.016	618.624
376.971	20.477	800.490	618.554
377.986	20.713	800.031	618.984
379.000	20.690	799.163	618.177
380.015	20.493	798.719	617.081
381.029	20.487	798.210	616.612
382.044	20.692	797.397	616.652
383.059	20.689	796.689	616.044
384.073	20.777	796.387	616.066
385.088	20.701	795.972	615.421
386.102	20.574	795.170	614.297
387.117	20.493	794.647	613.553
388.132	20.224	793.634	611.767
389.146	19.881	792.935	609.965
390.161	20.033	792.703	610.269
391.175	20.422	792.296	611.270
392.190	20.180	791.067	609.420
393.205	19.051	789.505	604.201
394.219	17.807	788.246	598.818
395.234	17.890	788.195	599.018
396.248	19.267	789.341	604.673
397.263	20.396	790.221	609.254
398.278	20.510	789.576	609.104
399.292	20.259	788.897	607.648
400.307	20.384	788.053	607.380
401.321	20.557	787.678	607.644
402.336	20.705	787.730	608.144
403.350	21.097	787.544	609.319
404.365	21.122	787.358	609.207
405.380	21.367	787.083	609.793
406.394	21.343	786.387	609.118
407.409	21.232	785.593	608.063
408.423	21.290	785.520	608.156
409.438	21.308	784.837	607.636
410.453	21.384	784.319	607.445
411.467	21.475	783.849	607.344
412.482	21.409	783.439	606.742
413.496	21.511	783.310	606.942
414.511	21.388	783.071	606.277
415.526	21.416	782.583	605.943
416.540	21.280	781.563	604.629
417.555	20.983	780.997	603.108
418.569	21.130	780.770	603.390
419.584	20.924	780.252	602.224
420.599	20.746	779.827	601.227
421.613	157.779	1360.675	1794.456
422.628	136.373	1445.288	1794.546
