DTS Sentinel unit serial number:	SN413079Multiplexer serial number:	ORYXHardware model number:	OX4-SRSoftware version number:	ORYX F/W v4.00 Oryx Data Collector v3.7.2.0data status	okinstallation	princeton_trtdifferential loss correction	single-endedforward channel	channel 1reverse channel	N/Adate	2019/09/15time	20:06:35forward acquisition time	60.00reverse acquisition time	0.00gamma	496.2192k internal	0.2316k external	0.2316temperature offset calibration	0.9954default loss term (dB/km)	0.3790temperature slope calibration	1.0000multiplexer offset coefficient	1.0000multiplexer slope coefficient	1.0000fibre end	0.00T internal ref (°C)	35.19T ext. ref 1 (°C)	7.62T ext. ref 2 (°C)	26.12length (m)	temperature (°C)	Stokes	anti-Stokes-747.200	-178.743	0.146	-0.003
-746.185	55.822	0.324	0.318
-745.171	-83.871	0.249	0.080
-744.156	-132.628	-0.383	-0.050
-743.142	83.829	-0.130	0.144
-742.127	-46.511	0.291	0.145
-741.112	800.000	-0.062	0.220
-740.098	-14.964	-0.466	0.303
-739.083	389.351	-0.095	0.199
-738.069	101.296	0.223	0.263
-737.054	5.281	0.190	0.142
-736.039	-67.807	-0.217	0.086
-735.025	83.649	0.166	0.183
-734.010	-200.000	-0.011	0.121
-732.996	82.051	0.079	-0.087
-731.981	-119.090	0.124	0.022
-730.966	800.000	0.070	-0.242
-729.952	-102.052	-0.037	0.009
-728.937	-57.361	-0.288	0.128
-727.923	-72.220	0.253	-0.095
-726.908	602.725	0.069	0.173
-725.894	-87.173	-0.081	-0.025
-724.879	-5.749	-0.201	-0.140
-723.864	484.882	-0.142	-0.326
-722.850	221.149	0.187	-0.304
-721.835	-66.294	0.027	-0.011
-720.821	579.028	0.184	-0.455
-719.806	-64.805	-0.345	0.141
-718.791	9.206	0.379	-0.290
-717.777	484.775	0.127	-0.293
-716.762	-200.000	0.024	-0.120
-715.748	-164.395	-0.350	-0.016
-714.733	331.201	-0.018	-0.036
-713.718	-163.698	-0.103	0.005
-712.704	14.015	-0.195	-0.153
-711.689	800.000	-0.029	0.092
-710.675	96.888	-0.195	-0.227
-709.660	-148.383	0.220	0.018
-708.645	800.000	-0.085	0.241
-707.631	96.368	0.065	-0.075
-706.616	-160.845	0.076	0.004
-705.602	13.266	-0.411	-0.322
-704.587	-21.583	-0.206	0.127
-703.572	-144.310	0.093	-0.009
-702.558	-96.863	-0.157	0.042
-701.543	76.913	-0.100	-0.107
-700.529	593.938	-0.053	-0.134
-699.514	64.403	-0.110	0.112
-698.499	-135.357	-0.353	-0.043
-697.485	-153.895	-0.305	-0.021
-696.470	-43.297	0.140	0.072
-695.456	67.996	0.033	0.034
-694.441	-23.522	0.328	0.199
-693.426	-200.000	-0.036	0.273
-692.412	800.000	0.063	0.179
-691.397	474.224	-0.085	0.194
-690.383	-41.666	-0.223	-0.116
-689.368	17.163	0.147	-0.118
-688.354	-200.000	-0.036	-0.190
-687.339	-129.191	-0.196	-0.028
-686.324	800.000	-0.010	-0.040
-685.310	800.000	0.116	-0.335
-684.295	800.000	-0.064	-0.189
-683.281	-159.331	-0.236	0.013
-682.266	263.780	-0.090	0.158
-681.251	-96.627	0.210	0.056
-680.237	800.000	0.030	0.112
-679.222	155.564	-0.180	-0.250
-678.208	-166.643	-0.228	0.010
-677.193	-94.383	-0.159	-0.044
-676.178	-186.526	0.049	-0.001
-675.164	278.959	-0.221	0.399
-674.149	-200.000	-0.024	0.108
-673.135	193.428	-0.096	0.146
-672.120	-159.175	-0.281	-0.016
-671.105	65.935	-0.083	-0.085
-670.091	-200.000	-0.040	-0.293
-669.076	-128.999	-0.068	-0.010
-668.062	12.376	0.404	-0.314
-667.047	-123.762	-0.177	-0.028
-666.032	-16.160	-0.210	-0.135
-665.018	800.000	0.015	0.051
-664.003	79.055	0.169	-0.183
-662.989	-200.000	0.008	-0.112
-661.974	-71.482	-0.183	0.069
-660.959	-18.461	-0.269	0.170
-659.945	198.755	-0.220	0.340
-658.930	800.000	0.130	0.392
-657.916	-125.350	0.199	-0.031
-656.901	800.000	0.109	0.348
-655.886	114.864	-0.044	0.054
-654.872	-65.519	0.389	0.158
-653.857	-144.194	0.312	0.029
-652.843	142.563	0.075	-0.101
-651.828	800.000	0.031	0.115
-650.814	-51.199	-0.211	-0.100
-649.799	-200.000	0.008	-0.130
-648.784	-200.000	0.006	-0.136
-647.770	99.928	0.139	-0.163
-646.755	800.000	0.093	-0.263
-645.741	85.354	-0.187	0.207
-644.726	-58.245	0.104	0.046
-643.711	136.402	-0.142	0.187
-642.697	-119.097	-0.175	-0.031
-641.682	-129.229	0.264	0.037
-640.668	9.058	0.082	0.063
-639.653	232.323	-0.113	-0.187
-638.638	39.813	0.148	-0.134
-637.624	-200.000	-0.005	0.208
-636.609	-103.528	-0.306	0.073
-635.595	-3.605	0.102	0.071
-634.580	-93.932	0.299	-0.083
-633.565	-200.000	-0.039	-0.342
-632.551	59.199	-0.113	-0.113
-631.536	-27.818	-0.267	0.156
-630.522	800.000	0.084	0.327
-629.507	-200.000	0.018	-0.290
-628.492	-33.832	-0.356	-0.198
-627.478	-200.000	0.032	0.238
-626.463	290.387	-0.100	-0.184
-625.449	213.897	-0.176	-0.281
-624.434	-200.000	0.070	-0.438
-623.419	117.969	0.034	-0.042
-622.405	-200.000	0.014	0.187
-621.390	-103.870	-0.181	0.043
-620.376	11.170	-0.062	0.048
-619.361	231.728	0.075	-0.123
-618.346	17.650	0.199	-0.159
-617.332	83.190	-0.191	-0.209
-616.317	-4.968	0.202	-0.140
-615.303	11.830	0.183	-0.142
-614.288	64.110	-0.306	-0.310
-613.273	800.000	-0.048	-0.151
-612.259	-16.638	-0.135	-0.086
-611.244	-179.688	-0.372	-0.008
-610.230	800.000	-0.037	0.128
-609.215	-15.116	0.122	0.079
-608.201	-200.000	-0.013	-0.115
-607.186	-70.599	-0.345	0.131
-606.171	-200.000	-0.058	-0.294
-605.157	-200.000	0.002	-0.328
-604.142	516.275	0.105	0.248
-603.128	-200.000	0.016	-0.295
-602.113	102.968	0.173	0.204
-601.098	50.048	0.221	0.210
-600.084	338.293	0.029	0.058
-599.069	266.558	0.147	-0.259
-598.055	-24.058	-0.128	-0.077
-597.040	93.840	0.202	0.230
-596.025	-67.266	-0.244	0.097
-595.011	-200.000	-0.003	0.073
-593.996	-29.118	-0.083	-0.048
-592.982	-53.811	0.137	0.063
-591.967	-200.000	-0.039	0.375
-590.952	-200.000	-0.020	0.179
-589.938	-177.680	0.238	0.006
-588.923	800.000	0.030	-0.100
-587.909	80.310	-0.129	-0.140
-586.894	-103.223	-0.406	-0.096
-585.879	8.003	0.185	-0.140
-584.865	3.164	0.133	-0.097
-583.850	216.878	0.159	-0.255
-582.836	-129.166	0.198	0.028
-581.821	74.903	0.123	0.131
-580.806	800.000	-0.039	0.153
-579.792	-139.037	-0.192	-0.021
-578.777	-38.905	0.127	-0.067
-577.763	800.000	0.099	-0.307
-576.748	136.122	-0.113	0.148
-575.733	21.548	-0.184	0.151
-574.719	231.463	0.060	0.098
-573.704	-132.457	0.299	-0.039
-572.690	-98.645	0.133	-0.034
-571.675	-43.724	-0.177	-0.089
-570.661	-117.305	0.095	0.017
-569.646	116.465	0.151	0.186
-568.631	-200.000	0.024	-0.374
-567.617	800.000	-0.074	-0.227
-566.602	-165.993	-0.058	-0.002
-565.588	-77.779	-0.188	-0.065
-564.573	23.376	0.202	0.167
-563.558	-40.970	0.230	0.120
-562.544	-9.712	-0.279	-0.187
-561.529	-47.130	0.180	0.088
-560.515	554.423	-0.050	0.122
-559.500	-153.252	-0.169	0.012
-558.485	294.173	-0.029	0.053
-557.471	-71.609	0.183	-0.069
-556.456	-189.741	0.146	0.002
-555.442	31.550	0.136	-0.118
-554.427	-29.538	-0.112	0.064
-553.412	391.523	-0.051	-0.106
-552.398	-59.938	0.193	0.083
-551.383	72.186	0.180	0.188
-550.369	-61.258	0.389	0.165
-549.354	-86.898	-0.257	0.079
-548.339	59.405	-0.210	0.208
-547.325	-200.000	0.040	0.260
-546.310	154.859	-0.086	0.119
-545.296	800.000	-0.146	-0.462
-544.281	-200.000	-0.043	0.208
-543.266	-51.889	0.224	0.105
-542.252	-200.000	0.023	-0.106
-541.237	-200.000	0.056	0.403
-540.223	5.173	-0.088	-0.065
-539.208	122.174	-0.120	0.151
-538.193	218.535	-0.091	0.147
-537.179	-112.101	0.173	0.035
-536.164	-152.003	-0.224	0.016
-535.150	-51.881	-0.223	0.104
-534.135	-2.270	-0.251	-0.177
-533.121	800.000	-0.020	-0.077
-532.106	-17.328	-0.190	-0.120
-531.091	-200.000	-0.037	-0.199
-530.077	438.100	-0.175	-0.382
-529.062	800.000	-0.058	-0.198
-528.048	411.424	0.074	0.157
-527.033	8.731	-0.233	-0.177
-526.018	-32.228	0.061	-0.034
-525.004	-88.735	0.261	-0.078
-523.989	-118.057	-0.119	-0.021
-522.975	-6.943	0.089	-0.060
-521.960	-200.000	0.041	-0.240
-520.945	-66.720	0.346	-0.138
-519.931	213.387	0.126	-0.199
-518.916	718.461	0.033	0.087
-517.902	-123.482	-0.168	0.027
-516.887	-37.792	-0.033	-0.018
-515.872	2.472	-0.270	-0.196
-514.858	-107.176	-0.016	0.003
-513.843	-200.000	0.001	0.152
-512.829	-44.293	-0.293	0.147
-511.814	21.248	0.198	0.161
-510.799	-90.742	0.308	0.089
-509.785	435.795	-0.179	-0.392
-508.770	45.600	0.119	0.110
-507.756	-13.091	-0.231	0.151
-506.741	-60.831	0.085	-0.036
-505.726	253.832	0.109	-0.188
-504.712	72.741	-0.084	0.088
-503.697	396.724	0.099	-0.207
-502.683	-18.096	0.235	-0.147
-501.668	800.000	0.038	-0.125
-500.653	189.728	0.026	0.039
-499.639	-28.740	0.156	0.090
-498.624	8.717	-0.219	-0.165
-497.610	-18.374	0.164	-0.103
-496.595	-126.470	-0.241	-0.036
-495.581	683.504	-0.034	-0.088
-494.566	-104.129	-0.251	-0.058
-493.551	-93.511	-0.095	0.026
-492.537	-200.000	-0.030	-0.177
-491.522	-36.155	0.277	0.150
-490.508	394.639	0.044	-0.093
-489.493	498.237	-0.110	0.253
-488.478	-200.000	-0.081	-0.459
-487.464	-96.464	0.037	-0.010
-486.449	-149.693	0.188	0.015
-485.435	800.000	0.097	0.316
-484.420	50.316	-0.040	0.038
-483.405	-110.124	-0.247	0.052
-482.391	137.842	-0.331	0.435
-481.376	126.009	0.187	0.238
-480.362	137.366	0.240	0.314
-479.347	193.899	0.080	-0.122
-478.332	35.300	0.298	0.262
-477.318	-66.488	-0.264	-0.105
-476.303	307.932	0.105	0.196
-475.289	-200.000	-0.014	-0.355
-474.274	-182.640	-0.219	-0.004
-473.259	800.000	0.116	-0.391
-472.245	-200.000	0.063	0.345
-471.230	-200.000	-0.001	-0.038
-470.216	800.000	-0.042	-0.154
-469.201	109.313	-0.189	-0.226
-468.186	-76.532	-0.122	0.043
-467.172	-200.000	0.080	-0.393
-466.157	-37.225	-0.231	-0.124
-465.143	-81.015	-0.278	0.092
-464.128	39.771	-0.250	0.225
-463.113	7.325	0.102	0.076
-462.099	-200.000	-0.037	-0.389
-461.084	-164.383	-0.427	-0.020
-460.070	-200.000	-0.041	0.272
-459.055	38.958	-0.075	-0.067
-458.040	-200.000	0.043	0.428
-457.026	-107.848	-0.167	0.036
-456.011	4.201	-0.320	-0.235
-454.997	-200.000	0.008	-0.271
-453.982	-83.929	-0.195	-0.062
-452.968	-35.068	-0.004	-0.002
-451.953	185.584	0.069	-0.103
-450.938	800.000	0.069	0.285
-449.924	-200.000	0.003	-0.153
-448.909	-200.000	0.038	-0.181
-447.895	-46.363	-0.262	-0.129
-446.880	-168.913	-0.098	-0.004
-445.865	-77.077	-0.129	-0.045
-444.851	10.264	0.238	-0.181
-443.836	-109.194	0.059	-0.012
-442.822	-57.912	0.306	0.134
-441.807	800.000	-0.086	0.320
-440.792	-156.790	0.593	0.037
-439.778	-200.000	0.022	-0.116
-438.763	-8.059	-0.214	0.144
-437.749	-108.507	0.423	-0.091
-436.734	800.000	-0.067	0.197
-435.719	-38.645	0.245	0.130
-434.705	62.857	0.156	0.157
-433.690	800.000	-0.048	-0.149
-432.676	206.206	-0.264	0.411
-431.661	800.000	-0.036	0.126
-430.646	4.529	0.043	-0.031
-429.632	-104.915	0.174	-0.040
-428.617	-112.077	-0.173	-0.035
-427.603	-109.492	-0.060	0.013
-426.588	-200.000	0.021	0.103
-425.573	-119.700	-0.212	-0.037
-424.559	-35.440	0.251	0.136
-423.544	-114.606	0.241	-0.046
-422.530	-47.575	0.271	0.132
-421.515	34.043	-0.094	-0.082
-420.500	486.398	0.120	-0.273
-419.486	-125.789	0.278	-0.042
-418.471	-151.392	0.291	-0.022
-417.457	-135.535	-0.277	-0.033
-416.442	34.638	-0.301	-0.263
-415.428	-31.669	0.334	-0.187
-414.413	-200.000	0.001	-0.081
-413.398	800.000	-0.035	-0.118
-412.384	360.313	0.071	-0.143
-411.369	459.454	-0.118	0.263
-410.355	-200.000	0.102	0.584
-409.340	382.782	-0.086	-0.176
-408.325	244.194	0.109	0.183
-407.311	-65.837	-0.301	-0.120
-406.296	-101.569	-0.098	0.024
-405.282	800.000	0.053	-0.182
-404.267	-59.328	0.057	0.024
-403.252	336.788	-0.027	0.053
-402.238	-33.555	-0.168	0.093
-401.223	-173.428	-0.408	0.012
-400.209	-200.000	0.082	0.430
-399.194	-91.861	0.084	-0.024
-398.179	-132.332	-0.185	-0.024
-397.165	-200.000	-0.014	0.316
-396.150	7.762	-0.252	0.188
-395.136	651.934	0.054	0.138
-394.121	245.740	-0.157	-0.265
-393.106	195.136	-0.100	0.151
-392.092	115.222	0.121	-0.147
-391.077	800.000	-0.121	0.409
-390.063	-200.000	-0.027	0.203
-389.048	-28.597	-0.137	0.079
-388.033	-168.534	-0.254	0.010
-387.019	237.855	-0.088	0.145
-386.004	-30.765	0.027	-0.015
-384.990	82.833	0.069	0.075
-383.975	-27.169	0.128	-0.074
-382.960	-2.919	0.115	0.080
-381.946	800.000	-0.015	-0.048
-380.931	60.920	0.214	-0.212
-379.917	204.208	0.111	-0.172
-378.902	-125.375	0.148	-0.023
-377.888	-200.000	-0.007	0.049
-376.873	141.554	-0.230	0.304
-375.858	188.072	0.145	0.217
-374.844	-35.751	0.066	-0.036
-373.829	146.926	0.204	0.273
-372.815	542.277	-0.088	0.210
-371.800	800.000	0.068	0.290
-370.785	150.527	-0.024	-0.032
-369.771	602.569	-0.149	-0.369
-368.756	-135.987	0.235	0.028
-367.742	800.000	-0.006	0.018
-366.727	71.857	0.151	-0.157
-365.712	-116.091	-0.147	0.027
-364.698	470.357	-0.089	-0.200
-363.683	270.245	-0.049	0.085
-362.669	-200.000	-0.029	-0.184
-361.654	-45.571	-0.312	0.154
-360.639	-200.000	0.015	-0.162
-359.625	13.212	-0.069	0.053
-358.610	800.000	-0.085	0.302
-357.596	-200.000	0.055	-0.270
-356.581	69.004	-0.069	0.071
-355.566	800.000	-0.063	0.222
-354.552	-15.869	0.369	0.234
-353.537	-11.165	-0.211	0.139
-352.523	533.556	0.053	-0.125
-351.508	-97.101	0.234	0.061
-350.493	-126.753	-0.048	0.007
-349.479	81.756	0.197	0.212
-348.464	800.000	-0.050	0.198
-347.450	43.843	0.007	-0.007
-346.435	-40.999	-0.144	0.074
-345.420	136.845	0.102	-0.133
-344.406	327.817	-0.114	0.219
-343.391	-30.445	-0.038	0.022
-342.377	800.000	0.028	-0.087
-341.362	177.282	0.199	-0.289
-340.348	-134.927	-0.377	-0.045
-339.333	668.955	0.206	0.531
-338.318	-101.574	-0.052	-0.013
-337.304	187.503	0.155	0.231
-336.289	415.341	-0.067	-0.142
-335.275	-162.264	-0.393	-0.020
-334.260	-58.785	-0.135	-0.058
-333.245	45.141	0.100	0.092
-332.231	-125.677	-0.360	0.054
-331.216	306.592	-0.069	0.129
-330.202	-5.500	-0.175	-0.120
-329.187	279.930	-0.130	-0.231
-328.172	368.354	0.021	0.043
-327.158	178.845	0.040	0.058
-326.143	-110.914	0.024	0.005
-325.129	-34.475	0.189	0.103
-324.114	46.440	0.169	0.156
-323.099	-107.671	-0.180	0.039
-322.085	71.121	0.152	0.157
-321.070	-54.470	-0.264	0.119
-320.056	114.494	0.158	0.192
-319.041	159.522	-0.125	0.174
-318.026	800.000	-0.059	-0.211
-317.012	-30.237	0.066	-0.037
-315.997	308.092	-0.160	-0.298
-314.983	-137.387	0.557	0.063
-313.968	95.416	-0.271	-0.308
-312.953	438.800	0.096	-0.208
-311.939	118.269	-0.296	0.363
-310.924	-107.335	-0.157	0.034
-309.910	419.389	-0.184	-0.391
-308.895	-200.000	-0.003	-0.141
-307.880	-200.000	-0.007	0.038
-306.866	-20.488	-0.098	0.060
-305.851	-59.499	0.188	0.080
-304.837	-53.565	0.266	0.121
-303.822	800.000	0.095	0.332
-302.807	109.989	0.181	-0.216
-301.793	800.000	-0.129	0.487
-300.778	-200.000	-0.025	0.459
-299.764	-200.000	0.117	0.579
-298.749	13.818	0.249	0.192
-297.735	551.391	-0.032	0.077
-296.720	588.406	0.103	-0.254
-295.705	177.698	-0.106	-0.154
-294.691	-3.852	0.153	-0.106
-293.676	10.306	0.320	-0.242
-292.662	42.704	-0.206	-0.187
-291.647	-200.000	0.005	0.159
-290.632	-200.000	-0.057	0.468
-289.618	-16.489	0.256	-0.161
-288.603	296.016	0.052	0.094
-287.589	14.021	-0.102	-0.079
-286.574	-39.664	-0.045	-0.024
-285.559	-109.438	-0.235	0.049
-284.545	450.917	0.025	-0.054
-283.530	-125.937	0.183	-0.027
-282.516	800.000	-0.105	0.353
-281.501	-200.000	-0.045	0.324
-280.486	-167.371	-0.140	-0.006
-279.472	208.647	-0.252	-0.392
-278.457	800.000	-0.087	-0.323
-277.443	-200.000	0.063	0.293
-276.428	-149.682	0.073	0.006
-275.413	-200.000	-0.030	0.372
-274.399	292.415	0.111	-0.201
-273.384	-200.000	-0.000	0.287
-272.370	122.839	0.123	0.153
-271.355	-28.225	-0.198	0.114
-270.340	-200.000	0.014	0.211
-269.326	16.162	0.376	-0.295
-268.311	-58.684	0.155	-0.067
-267.297	279.526	0.160	-0.283
-266.282	53.839	-0.124	0.118
-265.267	-3.927	0.090	-0.062
-264.253	-200.000	0.048	-0.210
-263.238	-93.650	-0.318	-0.087
-262.224	-22.079	-0.232	0.140
-261.209	307.877	-0.078	-0.145
-260.195	481.453	-0.014	-0.032
-259.180	112.205	0.187	0.225
-258.165	800.000	-0.058	-0.249
-257.151	18.883	0.236	-0.187
-256.136	-99.129	-0.124	-0.031
-255.122	-14.883	-0.139	-0.089
-254.107	158.800	-0.045	-0.062
-253.092	800.000	0.039	-0.138
-252.078	-75.020	-0.093	0.033
-251.063	-200.000	0.066	0.488
-250.049	-120.318	-0.144	-0.024
-249.034	800.000	0.091	-0.295
-248.019	-10.110	-0.137	0.091
-247.005	-151.755	0.027	0.002
-245.990	-66.310	-0.242	-0.096
-244.976	800.000	-0.050	0.201
-243.961	205.899	0.084	-0.130
-242.946	-41.752	-0.113	0.058
-241.932	-96.683	-0.179	0.047
-240.917	-200.000	-0.025	-0.340
-239.903	-38.251	-0.228	-0.120
-238.888	-188.454	0.133	0.002
-237.873	-172.538	0.049	0.002
-236.859	-200.000	0.009	-0.084
-235.844	748.015	0.035	0.093
-234.830	-200.000	0.016	0.102
-233.815	159.204	0.038	-0.052
-232.800	448.201	0.040	-0.087
-231.786	-200.000	0.041	-0.202
-230.771	640.772	-0.155	-0.391
-229.757	-106.735	-0.379	-0.084
-228.742	344.341	0.092	0.180
-227.727	-74.190	0.151	0.054
-226.713	-200.000	0.012	-0.121
-225.698	-97.738	-0.195	0.050
-224.684	271.223	-0.148	-0.259
-223.669	149.103	0.186	0.250
-222.655	443.732	-0.062	-0.134
-221.640	-90.015	0.138	0.040
-220.625	21.971	0.274	-0.222
-219.611	-11.567	0.308	0.201
-218.596	353.629	0.097	0.192
-217.582	73.526	-0.043	0.045
-216.567	800.000	0.082	-0.329
-215.552	-87.336	-0.228	-0.069
-214.538	-146.222	0.080	0.007
-213.523	164.755	0.195	-0.273
-212.509	800.000	0.034	-0.129
-211.494	800.000	-0.058	-0.182
-210.479	223.933	0.104	0.166
-209.465	-150.011	0.276	-0.021
-208.450	-71.244	0.307	0.114
-207.436	-101.572	0.288	0.069
-206.421	-196.471	0.285	-0.002
-205.406	-200.000	-0.027	0.314
-204.392	50.267	0.034	-0.032
-203.377	800.000	-0.107	-0.322
-202.363	-36.566	0.102	0.054
-201.348	-61.941	0.080	0.033
-200.333	-73.791	0.195	-0.070
-199.319	237.371	-0.148	-0.244
-198.304	800.000	0.076	0.223
-197.290	-78.133	-0.168	-0.057
-196.275	-200.000	0.012	-0.144
-195.260	144.034	-0.060	-0.079
-194.246	67.527	-0.251	-0.254
-193.231	-200.000	-0.032	0.336
-192.217	-32.714	0.172	-0.095
-191.202	188.516	0.175	-0.260
-190.187	-200.000	0.022	-0.146
-189.173	-200.000	-0.013	-0.171
-188.158	-38.562	0.136	-0.071
-187.144	115.566	0.040	-0.048
-186.129	-126.353	0.253	-0.037
-185.114	-113.023	0.159	-0.031
-184.100	-94.877	0.163	0.044
-183.085	-61.153	0.338	0.141
-182.071	-102.253	-0.139	0.033
-181.056	216.021	0.035	-0.056
-180.042	12.959	-0.090	-0.069
-179.027	-51.559	0.224	0.104
-178.012	-90.576	-0.313	0.090
-176.998	800.000	-0.041	0.124
-175.983	-200.000	-0.023	0.343
-174.969	106.019	-0.024	-0.028
-173.954	532.911	-0.054	-0.126
-172.939	-34.764	0.103	0.056
-171.925	-200.000	-0.015	-0.130
-170.910	112.101	-0.286	-0.342
-169.896	331.405	-0.087	0.165
-168.881	-93.197	0.189	0.052
-167.866	-10.131	0.134	-0.088
-166.852	335.656	0.060	-0.116
-165.837	328.471	0.164	0.312
-164.823	-148.814	0.323	-0.026
-163.808	-110.333	0.176	0.036
-162.793	147.453	0.106	0.142
-161.779	-200.000	-0.015	-0.143
-160.764	36.736	-0.183	0.160
-159.750	-200.000	-0.029	0.373
-158.735	79.945	0.132	-0.140
-157.720	-77.952	-0.179	0.061
-156.706	-142.393	-0.309	-0.030
-155.691	213.465	0.105	0.164
-154.677	-56.686	0.305	-0.134
-153.662	-157.958	0.270	0.016
-152.647	-200.000	-0.207	-0.001
-151.633	-147.240	-0.195	-0.016
-150.618	-179.889	-0.348	-0.007
-149.604	-5.419	-0.221	-0.150
-148.589	-93.199	0.251	-0.069
-147.574	-39.982	-0.073	0.037
-146.560	199.782	-0.081	0.123
-145.545	319.515	-0.073	0.137
-144.531	-2.965	-0.327	-0.226
-143.516	-200.000	-0.005	-0.209
-142.502	-200.000	0.006	-0.222
-141.487	-117.232	0.173	-0.031
-140.472	-5.976	-0.172	-0.116
-139.458	154.320	0.226	0.307
-138.443	-0.677	-0.139	-0.097
-137.429	-89.143	0.229	0.067
-136.414	-34.091	0.084	0.046
-135.399	83.176	-0.121	-0.130
-134.385	-200.000	0.021	-0.136
-133.370	783.335	-0.190	0.514
-132.356	371.498	0.027	0.054
-131.341	-160.322	-0.264	-0.014
-130.326	-60.182	0.264	-0.111
-129.312	-166.519	-0.216	0.009
-128.297	-200.000	0.019	0.145
-127.283	23.983	0.068	-0.056
-126.268	-82.486	0.140	0.045
-125.253	-200.000	0.018	-0.347
-124.239	120.115	0.167	-0.205
-123.224	559.367	0.073	0.175
-122.210	-4.410	-0.157	0.107
-121.195	-200.000	0.009	0.181
-120.180	-144.448	-0.163	-0.015
-119.166	373.535	0.173	0.347
-118.151	642.557	0.037	-0.092
-117.137	101.509	-0.101	-0.117
-116.122	-32.507	0.210	0.116
-115.107	-181.281	-0.075	-0.001
-114.093	-112.643	-0.398	-0.078
-113.078	152.488	-0.071	-0.095
-112.064	29.200	0.219	-0.184
-111.049	-200.000	-0.045	0.431
-110.034	179.105	-0.143	0.207
-109.020	-138.385	0.080	-0.009
-108.005	150.957	0.127	0.170
-106.991	-200.000	-0.039	-0.322
-105.976	-50.570	-0.209	-0.097
-104.962	19.569	0.334	0.265
-103.947	74.338	-0.101	-0.105
-102.932	395.362	-0.154	0.317
-101.918	-96.807	0.151	-0.039
-100.903	-72.701	-0.223	-0.081
-99.889	122.582	0.142	0.176
-98.874	-89.014	-0.361	0.105
-97.859	179.146	0.110	-0.160
-96.845	24.547	-0.167	-0.136
-95.830	-93.663	0.182	-0.050
-94.816	126.516	0.151	0.189
-93.801	-200.000	-0.074	-0.327
-92.786	277.767	0.029	-0.051
-91.772	118.510	0.177	-0.216
-90.757	-122.592	-0.280	-0.045
-89.743	36.114	0.464	-0.403
-88.728	-139.096	-0.309	-0.033
-87.713	50.257	-0.155	0.145
-86.699	56.262	0.193	0.185
-85.684	-160.789	-0.424	0.022
-84.670	-112.825	0.463	0.091
-83.655	652.204	-0.065	0.165
-82.640	403.415	-0.095	-0.197
-81.626	-40.005	0.371	-0.191
-80.611	800.000	0.076	-0.251
-79.597	363.249	0.041	0.081
-78.582	662.656	0.171	0.435
-77.567	94.010	-0.098	0.109
-76.553	-200.000	0.001	-0.379
-75.538	19.936	0.091	-0.072
-74.524	800.000	-0.162	0.453
-73.509	-21.449	-0.118	-0.071
-72.494	-200.000	0.003	-0.056
-71.480	131.503	-0.097	-0.123
-70.465	710.685	-0.128	-0.335
-69.451	20.100	0.096	0.077
-68.436	42.078	0.025	0.022
-67.422	-8.077	0.234	0.156
-66.407	-2.392	0.215	0.149
-65.392	383.909	0.095	-0.193
-64.378	-21.718	0.320	-0.192
-63.363	139.758	0.181	0.235
-62.349	-22.121	0.160	0.095
-61.334	67.842	-0.884	-0.892
-60.319	208.958	0.180	0.278
-59.305	229.074	-0.554	-0.890
-58.290	800.000	0.433	1.568
-57.276	-200.000	0.395	1.873
-56.261	-200.000	93.784	569.949
-55.246	566.697	1361.655	3257.603
-54.232	158.942	2548.405	3490.878
-53.217	116.019	2152.103	2597.184
-52.203	46.866	1613.412	1478.108
-51.188	38.853	1349.959	1188.416
-50.173	35.395	1308.164	1131.233
-49.159	58.119	1354.542	1307.906
-48.144	61.623	1372.689	1346.319
-47.130	38.961	1329.984	1171.289
-46.115	35.294	1312.553	1134.251
-45.100	35.200	1307.897	1129.629
-44.086	35.020	1305.807	1126.714
-43.071	34.874	1303.322	1123.670
-42.057	34.996	1301.114	1122.437
-41.042	35.021	1299.677	1121.300
-40.027	35.042	1298.127	1120.039
-39.013	34.963	1296.513	1118.143
-37.998	35.129	1294.308	1117.166
-36.984	35.200	1292.264	1115.770
-35.969	35.293	1290.318	1114.588
-34.954	35.052	1289.588	1112.511
-33.940	35.236	1287.742	1111.941
-32.925	35.226	1286.578	1110.832
-31.911	35.329	1285.235	1110.229
-30.896	35.215	1283.891	1108.363
-29.881	35.377	1282.414	1107.980
-28.867	35.341	1281.323	1106.787
-27.852	35.296	1279.963	1105.305
-26.838	35.324	1278.579	1104.228
-25.823	35.184	1277.484	1102.434
-24.809	35.296	1275.955	1101.715
-23.794	35.210	1274.487	1099.912
-22.779	35.340	1272.885	1099.229
-21.765	35.271	1271.869	1097.910
-20.750	35.156	1270.671	1096.176
-19.736	35.058	1269.762	1094.787
-18.721	35.113	1268.466	1093.942
-17.706	35.223	1267.002	1093.266
-16.692	35.232	1266.068	1092.467
-15.677	35.128	1265.069	1090.967
-14.663	35.252	1263.378	1090.170
-13.648	35.078	1263.036	1088.841
-12.633	35.013	1262.333	1087.822
-11.619	35.150	1261.212	1087.596
-10.604	35.051	1260.630	1086.489
-9.590	35.210	1259.041	1085.974
-8.575	35.245	1257.962	1085.198
-7.560	35.082	1257.550	1083.879
-6.546	35.172	1256.677	1083.594
-5.531	35.159	1255.613	1082.560
-4.517	35.162	1255.009	1082.011
-3.502	35.116	1254.201	1081.014
-2.487	35.197	1253.195	1080.560
-1.473	34.934	1248.886	1075.323
-0.458	32.637	1232.809	1048.675
0.556	25.692	1212.175	999.037
1.571	20.700	1215.513	973.834
2.586	19.228	1230.364	977.300
3.600	18.845	1219.719	966.605
4.615	15.801	1153.295	897.671
5.629	10.430	1082.525	815.550
6.644	7.866	1062.844	787.972
7.659	7.663	1060.625	785.253
8.673	7.463	1059.578	783.420
9.688	7.498	1058.065	782.406
10.702	7.807	1056.293	782.544
11.717	10.964	1060.500	801.161
12.731	15.860	1066.897	830.125
13.746	17.838	1068.812	841.306
14.761	17.225	1068.097	837.645
15.775	16.287	1065.598	830.998
16.790	15.191	1063.623	823.994
17.804	14.369	1062.360	818.906
18.819	14.150	1061.064	816.757
19.834	13.859	1060.106	814.522
20.848	13.498	1059.462	812.184
21.863	13.325	1058.489	810.521
22.877	13.183	1057.672	809.126
23.892	13.058	1056.934	807.878
24.907	13.085	1056.252	807.419
25.921	13.313	1054.867	807.402
26.936	13.295	1053.424	806.138
27.950	13.223	1052.606	805.089
28.965	13.482	1050.658	804.785
29.980	13.394	1049.738	803.585
30.994	13.432	1048.671	802.879
32.009	13.454	1047.132	801.739
33.023	13.336	1046.307	800.465
34.038	13.344	1045.321	799.679
35.053	13.382	1044.427	799.106
36.067	13.488	1043.404	798.766
37.082	13.346	1042.670	797.449
38.096	13.403	1041.761	796.957
39.111	13.371	1040.952	796.112
40.126	13.323	1039.917	795.021
41.140	13.214	1038.478	793.325
42.155	13.143	1037.556	792.209
43.169	13.188	1036.290	791.392
44.184	13.097	1035.463	790.251
45.199	13.169	1034.047	789.445
46.213	13.122	1033.575	788.791
47.228	13.257	1032.395	788.467
48.242	13.341	1031.028	787.754
49.257	13.227	1030.747	786.923
50.271	13.485	1029.226	786.919
51.286	13.437	1028.496	786.063
52.301	13.377	1027.307	784.803
53.315	13.231	1026.799	783.652
54.330	13.230	1025.735	782.765
55.344	13.258	1024.786	782.106
56.359	13.377	1023.785	781.837
57.374	13.126	1023.094	780.054
58.388	13.036	1022.265	778.926
59.403	13.244	1021.209	779.031
60.417	13.081	1020.684	777.793
61.432	13.130	1019.953	777.400
62.447	12.951	1019.116	775.854
63.461	13.104	1018.024	775.670
64.476	13.081	1016.941	774.671
65.490	13.098	1016.197	774.114
66.505	13.245	1015.409	774.134
67.520	13.092	1015.025	773.056
68.534	13.123	1014.504	772.734
69.549	13.207	1013.500	772.294
70.563	13.099	1012.843	771.222
71.578	13.105	1012.231	770.714
72.593	13.073	1011.359	769.832
73.607	13.049	1010.462	768.970
74.622	13.052	1009.995	768.561
75.636	13.055	1009.157	767.869
76.651	13.074	1008.792	767.612
77.666	13.005	1008.083	766.685
78.680	13.132	1007.350	766.651
79.695	13.155	1006.822	766.288
80.709	13.128	1006.080	765.527
81.724	13.120	1005.577	765.041
82.739	13.077	1004.581	764.016
83.753	13.285	1003.910	764.399
84.768	13.416	1003.147	764.358
85.782	13.438	1002.080	763.577
86.797	13.531	1001.163	763.242
87.812	13.375	1000.296	761.796
88.826	13.315	999.114	760.551
89.841	13.458	998.521	760.686
90.855	13.457	997.875	760.126
91.870	13.476	996.607	759.179
92.884	13.403	995.922	758.257
93.899	13.371	995.325	757.585
94.914	13.387	994.849	757.231
95.928	13.623	993.528	757.235
96.943	13.435	993.051	755.949
97.957	13.450	991.841	755.028
98.972	13.537	990.806	754.571
99.987	13.534	990.048	753.914
101.001	13.522	988.927	752.936
102.016	13.338	988.658	751.832
103.030	13.350	987.987	751.306
104.045	13.386	987.283	750.867
105.060	13.409	985.935	749.881
106.074	13.342	984.966	748.776
107.089	13.239	984.021	747.524
108.103	13.053	983.355	746.111
109.118	13.316	981.716	745.987
110.133	13.230	981.041	745.022
111.147	13.073	980.542	743.870
112.162	13.216	979.562	743.705
113.176	13.258	978.862	743.294
114.191	13.353	977.913	742.937
115.206	13.303	977.317	742.193
116.220	13.292	976.068	741.130
117.235	13.247	975.425	740.376
118.249	13.199	974.621	739.485
119.264	13.299	973.799	739.242
120.279	13.229	972.918	738.193
121.293	13.182	972.467	737.577
122.308	13.282	971.072	736.901
123.322	13.110	970.096	735.328
124.337	13.169	969.605	735.153
125.352	13.109	968.462	733.954
126.366	13.245	966.932	733.334
127.381	13.211	966.083	732.474
128.395	13.238	965.293	731.930
129.410	13.295	964.835	731.773
130.424	13.363	963.499	730.992
131.439	13.316	963.102	730.418
132.454	13.412	962.213	730.105
133.468	13.435	961.246	729.409
134.483	13.322	960.709	728.440
135.497	13.327	959.802	727.709
136.512	13.391	958.735	727.114
137.527	13.442	958.079	726.779
138.541	13.407	957.272	725.947
139.556	13.447	956.720	725.641
140.570	13.519	956.229	725.519
141.585	13.596	955.233	725.038
142.600	13.585	954.047	724.025
143.614	13.725	953.233	723.954
144.629	13.668	952.752	723.276
145.643	13.683	951.843	722.585
146.658	13.622	950.408	721.166
147.673	13.476	949.703	719.934
148.687	13.404	949.178	719.158
149.702	13.402	947.945	718.152
150.716	13.328	947.789	717.652
151.731	13.432	946.579	717.123
152.746	13.412	945.935	716.481
153.760	13.420	945.660	716.245
154.775	13.575	945.006	716.358
155.789	13.654	944.181	716.009
156.804	13.524	943.579	714.927
157.819	13.677	942.853	714.976
158.833	13.647	942.353	714.403
159.848	13.653	941.227	713.511
160.862	13.693	940.199	712.845
161.877	13.463	939.491	711.253
162.892	13.519	938.517	710.697
163.906	13.441	937.495	709.526
164.921	13.452	937.087	709.200
165.935	13.592	935.627	708.630
166.950	13.636	934.805	708.135
167.964	13.508	934.358	707.183
168.979	13.548	933.294	706.486
169.994	13.519	932.453	705.665
171.008	13.578	931.992	705.503
172.023	13.650	931.045	705.033
173.037	13.814	930.458	705.223
174.052	13.778	929.579	704.341
175.067	13.543	929.024	702.861
176.081	13.604	928.685	702.799
177.096	13.573	927.682	701.848
178.110	13.611	927.234	701.607
179.125	13.486	927.129	700.937
180.140	13.706	926.210	701.111
181.154	13.647	926.187	700.780
182.169	13.729	925.619	700.636
183.183	13.841	924.498	700.197
184.198	13.982	923.547	700.012
185.213	13.839	923.194	699.080
186.227	13.959	922.497	698.994
187.242	13.896	922.013	698.301
188.256	14.080	921.332	698.495
189.271	13.931	920.442	697.135
190.286	13.797	919.792	696.019
191.300	13.624	919.034	694.660
192.315	13.490	918.613	693.717
193.329	13.704	917.844	693.971
194.344	13.624	917.313	693.173
195.359	13.777	916.710	693.293
196.373	13.930	915.938	693.287
197.388	14.011	915.767	693.436
198.402	14.079	915.236	693.256
199.417	14.078	914.546	692.668
200.432	14.149	914.162	692.610
201.446	14.268	913.029	692.187
202.461	14.255	912.654	691.789
203.475	14.133	912.611	691.185
204.490	14.082	911.481	690.059
205.504	14.064	910.791	689.400
206.519	14.062	909.936	688.684
207.534	13.982	909.630	688.059
208.548	14.005	908.881	687.525
209.563	14.216	907.812	687.529
210.577	14.234	907.303	687.159
211.592	14.228	907.273	687.051
212.607	14.283	905.964	686.224
213.621	14.372	905.208	685.958
214.636	14.228	904.536	684.795
215.650	14.165	904.084	684.135
216.665	14.258	903.298	683.858
217.680	14.354	902.692	683.734
218.694	14.374	901.813	683.089
219.709	14.351	901.789	682.917
220.723	14.388	901.047	682.445
221.738	14.283	900.242	681.345
222.753	14.345	899.412	680.913
223.767	14.427	898.734	680.675
224.782	14.518	898.479	680.792
225.796	14.530	897.673	680.171
226.811	14.475	897.281	679.587
227.826	14.390	896.661	678.714
228.840	14.461	895.221	677.852
229.855	14.377	894.502	676.905
230.869	14.428	894.170	676.802
231.884	14.389	893.600	676.151
232.899	14.425	892.864	675.682
233.913	14.420	892.039	674.976
234.928	14.388	891.082	674.063
235.942	14.407	890.859	673.913
236.957	14.353	890.692	673.508
237.972	14.363	889.940	672.918
238.986	14.308	889.805	672.535
240.001	14.403	888.803	672.101
241.015	14.559	887.646	671.795
242.030	14.552	886.877	671.126
243.045	14.522	886.692	670.806
244.059	14.465	886.166	670.119
245.074	14.754	884.922	670.280
246.088	14.583	884.629	669.311
247.103	14.525	884.325	668.790
248.117	14.690	883.965	669.119
249.132	14.887	883.309	669.355
250.147	14.920	882.775	669.021
251.161	14.797	882.017	667.895
252.176	14.858	881.344	667.572
253.190	14.977	880.685	667.486
254.205	14.927	880.313	666.949
255.220	15.020	879.544	666.675
256.234	14.930	879.041	665.877
257.249	15.191	877.790	665.908
258.263	15.029	877.593	665.056
259.278	14.853	876.957	663.817
260.293	15.237	876.138	664.660
261.307	15.172	875.913	664.175
262.322	15.233	874.844	663.546
263.336	15.239	874.312	663.107
264.351	15.350	873.398	662.794
265.366	15.263	873.084	662.152
266.380	15.299	872.140	661.523
267.395	15.225	871.682	660.823
268.409	15.296	870.901	660.455
269.424	15.179	870.016	659.265
270.439	15.196	869.584	658.943
271.453	15.217	868.867	658.427
272.468	15.077	868.807	657.771
273.482	15.119	868.377	657.552
274.497	15.187	867.329	656.966
275.512	15.116	866.972	656.362
276.526	15.250	866.522	656.488
277.541	15.280	866.053	656.189
278.555	15.252	865.317	655.465
279.570	15.359	864.848	655.468
280.585	15.344	863.810	654.568
281.599	15.428	863.148	654.337
282.614	15.295	862.399	653.189
283.628	15.402	861.946	653.205
284.643	15.413	861.249	652.662
285.657	15.429	860.876	652.387
286.672	15.446	860.105	651.809
287.687	15.309	859.549	650.799
288.701	15.309	859.451	650.668
289.716	15.441	858.330	650.272
290.730	15.404	858.031	649.843
291.745	15.353	857.526	649.206
292.760	15.512	856.903	649.292
293.774	15.580	856.228	648.988
294.789	15.594	855.214	648.216
295.803	15.578	854.449	647.518
296.818	15.452	854.191	646.778
297.833	15.592	853.259	646.555
298.847	15.525	852.662	645.786
299.862	15.566	852.170	645.514
300.876	15.768	851.474	645.704
301.891	15.621	851.250	644.916
302.906	15.613	850.748	644.445
303.920	15.735	850.062	644.338
304.935	15.779	849.390	643.940
305.949	15.745	848.763	643.278
306.964	15.712	848.034	642.540
307.979	15.809	847.667	642.575
308.993	15.806	847.212	642.165
310.008	15.815	846.708	641.759
311.022	15.764	845.859	640.863
312.037	15.707	845.474	640.298
313.052	15.752	844.845	639.937
314.066	15.735	843.952	639.141
315.081	15.771	843.763	639.078
316.095	15.728	843.182	638.418
317.110	15.663	842.359	637.491
318.125	15.652	842.265	637.321
319.139	15.662	841.537	636.751
320.154	15.844	841.211	637.138
321.168	15.905	840.518	636.789
322.183	15.897	840.064	636.358
323.197	15.702	839.849	635.399
324.212	15.906	838.860	635.365
325.227	15.785	838.878	634.868
326.241	15.789	838.004	634.165
327.256	15.808	836.993	633.416
328.270	15.755	836.820	633.030
329.285	15.830	836.617	633.102
330.300	15.892	835.729	632.607
331.314	15.733	835.447	631.739
332.329	15.985	834.474	631.891
333.343	16.070	834.159	631.918
334.358	16.090	833.586	631.501
335.373	15.992	833.510	631.023
336.387	16.077	833.480	631.263
337.402	16.258	832.710	631.301
338.416	16.066	832.579	630.424
339.431	16.109	832.300	630.321
340.446	16.285	831.717	630.479
341.460	16.299	831.553	630.352
342.475	16.263	830.934	629.694
343.489	16.176	830.875	629.269
344.504	16.419	829.769	629.280
345.519	16.322	829.730	628.835
346.533	16.421	828.971	628.570
347.548	16.311	828.372	627.652
348.562	16.258	827.927	627.061
349.577	16.150	827.074	625.961
350.592	16.279	826.477	625.933
351.606	16.293	825.858	625.459
352.621	16.271	825.476	625.032
353.635	16.157	825.136	624.297
354.650	16.413	823.926	624.274
355.665	16.293	823.314	623.310
356.679	16.414	822.867	623.366
357.694	16.574	822.059	623.287
358.708	16.437	821.465	622.276
359.723	16.511	820.769	621.967
360.738	16.353	820.561	621.173
361.752	16.435	820.148	621.106
362.767	16.509	819.623	620.927
363.781	16.611	819.108	620.855
364.796	16.563	818.585	620.229
365.810	16.635	818.307	620.227
366.825	16.634	817.804	619.787
367.840	16.693	817.124	619.430
368.854	16.694	816.840	619.167
369.869	16.690	816.193	618.604
370.883	16.522	815.803	617.641
371.898	16.515	816.175	617.842
372.913	16.852	815.162	618.250
373.927	16.819	814.311	617.430
374.942	16.845	814.001	617.235
375.956	16.775	813.829	616.794
376.971	16.964	813.410	617.112
377.986	16.869	812.901	616.326
379.000	16.961	812.356	616.191
380.015	16.965	811.781	615.715
381.029	17.003	811.258	615.403
382.044	17.022	810.795	615.064
383.059	17.051	810.316	614.752
384.073	16.983	809.347	613.716
385.088	17.038	808.838	613.476
386.102	16.973	808.428	612.875
387.117	17.034	807.636	612.441
388.132	17.045	807.309	612.178
389.146	16.899	807.233	611.541
390.161	16.993	806.485	611.257
391.175	17.155	806.024	611.436
392.190	17.091	805.238	610.557
393.205	16.918	805.187	609.842
394.219	16.917	804.796	609.490
395.234	16.810	804.376	608.734
396.248	16.848	804.233	608.707
397.263	16.774	803.480	607.817
398.278	16.813	803.151	607.655
399.292	17.008	802.246	607.614
400.307	16.930	802.117	607.184
401.321	16.981	801.530	606.869
402.336	17.021	801.218	606.723
403.350	17.066	800.863	606.562
404.365	16.936	800.622	605.861
405.380	17.234	799.651	606.134
406.394	17.166	799.609	605.807
407.409	17.371	798.758	605.838
408.423	17.252	798.724	605.334
409.438	17.306	798.094	604.996
410.453	17.472	797.602	605.158
411.467	17.360	797.633	604.730
412.482	17.432	797.278	604.664
413.496	17.506	796.807	604.518
414.511	17.394	796.621	603.923
415.526	17.443	795.876	603.479
416.540	17.462	795.425	603.153
417.555	17.702	794.446	603.207
418.569	17.577	794.178	602.507
419.584	17.570	794.090	602.361
420.599	17.647	793.490	602.124
421.613	104.462	1284.512	1442.860
422.628	89.545	1356.052	1442.950
