DTS Sentinel unit serial number:	SN413079Multiplexer serial number:	ORYXHardware model number:	OX4-SRSoftware version number:	ORYX F/W v4.00 Oryx Data Collector v3.7.2.0data status	okinstallation	princeton_trtdifferential loss correction	single-endedforward channel	channel 1reverse channel	N/Adate	2019/09/15time	07:18:35forward acquisition time	60.00reverse acquisition time	0.00gamma	496.2192k internal	0.2324k external	0.2324temperature offset calibration	0.9992default loss term (dB/km)	0.3790temperature slope calibration	1.0000multiplexer offset coefficient	1.0000multiplexer slope coefficient	1.0000fibre end	0.00T internal ref (°C)	30.56T ext. ref 1 (°C)	4.86T ext. ref 2 (°C)	25.81length (m)	temperature (°C)	Stokes	anti-Stokes-747.200	-200.000	0.009	-0.176
-746.185	-200.000	-0.002	0.421
-745.171	-101.456	0.381	0.094
-744.156	800.000	0.029	-0.117
-743.142	-88.262	-0.279	0.084
-742.127	-121.904	-0.154	-0.026
-741.112	-90.468	-0.247	-0.072
-740.098	558.461	-0.110	0.269
-739.083	-22.851	-0.045	0.028
-738.069	-170.098	-0.120	-0.004
-737.054	-86.776	-0.189	-0.058
-736.039	800.000	-0.131	-0.447
-735.025	21.170	0.256	0.209
-734.010	-200.000	0.002	-0.085
-732.996	-50.117	-0.361	-0.172
-731.981	116.824	0.118	0.146
-730.966	20.733	0.220	-0.179
-729.952	-200.000	-0.008	-0.201
-728.937	-126.655	-0.154	0.023
-727.923	-88.102	-0.238	0.072
-726.908	-30.555	0.077	-0.044
-725.894	347.491	-0.043	-0.085
-724.879	-129.155	0.078	0.011
-723.864	29.133	0.174	0.149
-722.850	760.260	-0.008	-0.022
-721.835	-200.000	0.014	-0.308
-720.821	-140.343	0.288	0.030
-719.806	146.141	0.188	-0.254
-718.791	224.219	-0.087	-0.142
-717.777	-86.551	-0.196	0.061
-716.762	133.224	0.171	0.223
-715.748	-200.000	0.027	0.441
-714.733	-200.000	0.040	0.336
-713.718	145.137	-0.244	-0.329
-712.704	-87.046	0.302	-0.093
-711.689	-200.000	-0.072	0.332
-710.675	800.000	0.035	0.139
-709.660	-200.000	0.011	0.281
-708.645	-55.480	-0.031	0.014
-707.631	204.811	-0.056	0.087
-706.616	41.685	-0.186	0.170
-705.602	-8.489	-0.183	-0.124
-704.587	697.694	-0.041	-0.109
-703.572	800.000	0.074	0.250
-702.558	-200.000	-0.009	0.068
-701.543	37.682	-0.264	-0.236
-700.529	44.943	0.189	-0.176
-699.514	295.789	-0.197	-0.363
-698.499	800.000	-0.080	0.266
-697.485	25.224	0.180	0.150
-696.470	259.967	0.069	0.119
-695.456	-135.977	0.222	0.026
-694.441	800.000	-0.031	-0.102
-693.426	331.343	0.044	-0.086
-692.412	-138.511	0.408	0.045
-691.397	-97.682	0.339	-0.088
-690.383	800.000	-0.063	-0.212
-689.368	-77.477	0.118	0.041
-688.354	241.560	0.028	0.047
-687.339	-62.082	-0.183	-0.077
-686.324	-200.000	-0.012	-0.103
-685.310	800.000	-0.116	-0.354
-684.295	107.179	-0.095	-0.114
-683.281	-200.000	-0.003	-0.033
-682.266	440.544	-0.042	-0.093
-681.251	-200.000	0.028	-0.308
-680.237	120.119	-0.092	0.115
-679.222	800.000	-0.053	-0.231
-678.208	-20.095	0.170	-0.106
-677.193	-193.306	-0.186	0.002
-676.178	223.374	0.081	-0.131
-675.164	800.000	0.029	0.108
-674.149	21.222	-0.005	-0.004
-673.135	-200.000	0.021	-0.201
-672.120	185.666	-0.261	-0.391
-671.105	-200.000	-0.001	0.355
-670.091	291.679	-0.054	0.099
-669.076	800.000	0.053	0.148
-668.062	331.526	-0.078	-0.150
-667.047	138.646	0.048	-0.063
-666.032	-102.606	0.230	-0.055
-665.018	-7.655	0.376	-0.256
-664.003	800.000	-0.053	0.169
-662.989	-200.000	0.005	-0.212
-661.974	-200.000	0.010	0.371
-660.959	-200.000	0.024	-0.439
-659.945	-189.888	0.095	-0.001
-658.930	-24.000	-0.263	-0.158
-657.916	-80.811	0.200	0.067
-656.901	-49.373	-0.197	0.095
-655.886	-200.000	-0.034	0.416
-654.872	106.434	-0.102	0.122
-653.857	-200.000	0.056	0.272
-652.843	-200.000	-0.067	-0.415
-651.828	38.070	-0.253	0.227
-650.814	800.000	-0.023	0.081
-649.799	800.000	0.052	0.149
-648.784	-1.975	0.230	-0.162
-647.770	258.617	-0.070	0.122
-646.755	-79.714	-0.133	0.045
-645.741	76.670	-0.112	0.119
-644.726	-89.539	-0.150	-0.044
-643.711	-200.000	0.003	-0.068
-642.697	-32.390	0.061	-0.034
-641.682	-80.795	-0.233	0.078
-640.668	800.000	-0.127	0.387
-639.653	-170.513	-0.238	-0.008
-638.638	22.735	0.332	-0.273
-637.624	-40.248	-0.035	0.018
-636.609	800.000	0.059	0.255
-635.595	195.019	0.101	0.154
-634.580	-117.139	-0.142	0.026
-633.565	-200.000	-0.030	0.190
-632.551	23.329	0.155	0.128
-631.536	302.552	0.118	-0.219
-630.522	378.841	-0.073	-0.151
-629.507	-200.000	-0.013	0.093
-628.492	-87.198	0.296	0.090
-627.478	-121.805	0.145	-0.024
-626.463	-102.374	-0.245	0.059
-625.449	-59.424	-0.208	0.090
-624.434	800.000	-0.065	-0.224
-623.419	-149.435	-0.321	-0.026
-622.405	463.829	-0.070	-0.157
-621.390	-116.217	0.176	-0.033
-620.376	-7.163	-0.260	-0.177
-619.361	183.685	-0.092	-0.137
-618.346	-43.057	0.235	-0.120
-617.332	-59.418	0.086	-0.037
-616.317	88.146	0.194	0.216
-615.303	-21.285	-0.069	-0.042
-614.288	-200.000	0.006	-0.265
-613.273	800.000	0.085	0.277
-612.259	24.167	-0.086	0.072
-611.244	-10.544	0.226	-0.150
-610.230	120.599	-0.091	0.114
-609.215	800.000	-0.081	0.321
-608.201	91.792	0.065	-0.073
-607.186	-130.003	0.129	-0.018
-606.171	-76.335	-0.358	0.126
-605.157	-125.858	-0.122	0.019
-604.142	-106.706	-0.119	0.027
-603.128	124.356	0.101	-0.127
-602.113	760.979	-0.044	0.119
-601.098	138.315	0.123	0.162
-600.084	27.420	-0.130	-0.109
-599.069	-45.791	0.392	0.195
-598.055	79.476	0.198	-0.213
-597.040	-172.409	-0.450	0.014
-596.025	81.430	-0.137	0.149
-595.011	26.878	0.031	-0.026
-593.996	-172.788	0.227	-0.007
-592.982	100.341	-0.028	-0.032
-591.967	-38.412	0.087	0.046
-590.952	158.503	0.025	0.034
-589.938	36.215	-0.136	-0.120
-588.923	-121.754	0.259	0.043
-587.909	91.317	0.084	0.094
-586.894	-70.010	-0.198	-0.076
-585.879	671.983	0.029	-0.075
-584.865	-3.891	0.269	0.187
-583.850	-41.823	-0.393	-0.202
-582.836	800.000	0.082	0.277
-581.821	800.000	0.095	0.342
-580.806	-126.053	0.294	0.044
-579.792	354.523	0.069	0.138
-578.777	749.713	-0.029	0.078
-577.763	-8.459	-0.135	-0.091
-576.748	-200.000	0.034	0.219
-575.733	-134.483	-0.160	0.020
-574.719	-150.994	-0.226	-0.017
-573.704	759.206	-0.079	0.215
-572.690	31.556	0.182	-0.157
-571.675	800.000	0.071	-0.257
-570.661	800.000	0.080	-0.301
-569.646	688.785	0.088	-0.231
-568.631	-200.000	0.013	0.110
-567.617	-76.557	0.116	0.041
-566.602	-135.353	0.299	0.036
-565.588	13.507	-0.102	-0.080
-564.573	269.753	0.043	-0.076
-563.558	108.910	0.076	0.091
-562.544	-4.084	-0.126	0.088
-561.529	-24.220	-0.215	0.129
-560.515	-200.000	0.004	-0.203
-559.500	800.000	-0.113	-0.325
-558.485	526.958	-0.042	0.099
-557.471	41.410	-0.082	-0.074
-556.456	-200.000	-0.007	-0.141
-555.442	-70.039	-0.059	-0.023
-554.427	15.817	-0.184	0.145
-553.412	-95.642	-0.240	-0.064
-552.398	-200.000	0.028	0.335
-551.383	-30.670	0.213	-0.121
-550.369	-45.033	-0.207	0.103
-549.354	100.478	0.088	0.102
-548.339	-124.856	-0.223	0.035
-547.325	34.960	0.068	-0.060
-546.310	47.998	0.033	-0.031
-545.296	-200.000	-0.045	-0.281
-544.281	-200.000	-0.061	-0.380
-543.266	-156.751	0.310	0.019
-542.252	-200.000	-0.003	-0.049
-541.237	-18.297	-0.404	0.253
-540.223	-121.635	0.153	-0.025
-539.208	222.765	0.140	0.226
-538.193	800.000	-0.027	0.096
-537.179	800.000	0.090	0.320
-536.164	100.586	-0.219	0.254
-535.150	-28.896	-0.298	-0.172
-534.135	341.528	-0.078	-0.153
-533.121	-8.235	0.395	0.266
-532.106	800.000	-0.053	0.195
-531.091	410.548	-0.178	-0.378
-530.077	2.518	0.110	0.080
-529.062	250.651	0.104	0.176
-528.048	-200.000	0.067	-0.393
-527.033	-92.598	-0.171	0.048
-526.018	365.503	-0.193	-0.389
-525.004	16.611	-0.086	-0.068
-523.989	431.294	0.162	0.351
-522.975	-73.496	0.207	0.076
-521.960	783.315	0.166	-0.455
-520.945	-25.990	0.118	0.070
-519.931	800.000	0.109	0.338
-518.916	-30.133	0.163	0.093
-517.902	88.699	0.262	-0.292
-516.887	100.505	0.164	-0.190
-515.872	-93.318	-0.340	0.094
-514.858	-12.740	0.139	-0.090
-513.843	-200.000	-0.005	-0.124
-512.829	164.452	-0.138	0.195
-511.814	-114.846	-0.045	-0.009
-510.799	24.987	-0.080	-0.067
-509.785	350.525	-0.059	-0.117
-508.770	373.537	0.042	0.086
-507.756	-200.000	0.095	0.488
-506.741	154.011	-0.033	-0.045
-505.726	-200.000	0.017	-0.207
-504.712	270.829	0.103	0.181
-503.697	550.123	-0.134	0.321
-502.683	-200.000	0.013	-0.115
-501.668	370.770	0.140	-0.283
-500.653	54.221	0.143	0.138
-499.639	-108.799	0.454	-0.097
-498.624	800.000	0.110	-0.453
-497.610	654.068	-0.042	0.107
-496.595	-56.343	-0.086	-0.038
-495.581	-8.347	0.251	-0.169
-494.566	-149.008	-0.114	-0.009
-493.551	-154.226	0.141	-0.010
-492.537	169.544	0.110	-0.158
-491.522	73.185	-0.094	-0.099
-490.508	-137.396	-0.065	-0.007
-489.493	-93.795	0.119	0.033
-488.478	98.072	-0.228	-0.262
-487.464	-22.929	0.061	0.037
-486.449	-8.681	0.288	-0.193
-485.435	-25.574	-0.234	0.138
-484.420	-93.458	0.279	0.077
-483.405	-52.445	0.376	0.174
-482.391	-81.985	-0.294	-0.096
-481.376	15.207	0.155	-0.122
-480.362	77.015	-0.021	-0.022
-479.347	-57.317	-0.322	0.142
-478.332	-200.000	-0.046	-0.333
-477.318	5.315	-0.171	-0.126
-476.303	234.929	0.157	-0.259
-475.289	-82.052	-0.408	0.133
-474.274	586.584	0.128	-0.315
-473.259	800.000	0.051	-0.195
-472.245	800.000	0.022	-0.082
-471.230	-132.571	-0.423	0.054
-470.216	-140.441	0.445	0.046
-469.201	-67.476	-0.157	-0.062
-468.186	800.000	-0.021	0.080
-467.172	-182.690	-0.321	-0.006
-466.157	-13.072	-0.270	0.175
-465.143	18.316	0.084	0.067
-464.128	-145.154	-0.360	-0.033
-463.113	-153.351	0.360	0.025
-462.099	800.000	-0.114	0.321
-461.084	96.309	-0.035	0.040
-460.070	261.739	-0.258	0.446
-459.055	-53.760	-0.189	-0.086
-458.040	97.220	-0.190	-0.218
-457.026	32.052	0.129	-0.111
-456.011	800.000	-0.061	-0.185
-454.997	356.904	-0.097	-0.193
-453.982	128.728	0.074	-0.094
-452.968	-136.655	-0.274	-0.032
-451.953	43.686	-0.160	-0.146
-450.938	-130.738	-0.309	-0.041
-449.924	280.737	-0.099	-0.177
-448.909	199.906	0.090	0.138
-447.895	-64.006	0.257	-0.105
-446.880	800.000	0.114	0.345
-445.865	-200.000	-0.051	0.357
-444.851	-133.893	0.439	-0.054
-443.836	12.375	-0.185	-0.142
-442.822	-8.872	0.171	0.114
-441.807	-37.761	-0.141	0.075
-440.792	27.298	0.343	-0.288
-439.778	-182.738	0.123	-0.002
-438.763	800.000	0.071	-0.236
-437.749	45.730	-0.348	-0.321
-436.734	-200.000	-0.008	-0.150
-435.719	-200.000	0.003	-0.032
-434.705	580.418	-0.083	-0.202
-433.690	-62.350	0.511	0.212
-432.676	320.019	0.200	0.379
-431.661	67.274	0.161	0.164
-430.646	-67.845	-0.062	0.024
-429.632	-137.877	0.138	-0.015
-428.617	-89.756	0.141	-0.041
-427.603	-136.122	-0.338	-0.039
-426.588	-200.000	0.027	-0.297
-425.573	-110.536	-0.261	-0.054
-424.559	-102.628	0.084	-0.020
-423.544	-200.000	-0.005	0.147
-422.530	0.056	-0.058	0.041
-421.515	-200.000	-0.002	0.206
-420.500	249.321	0.103	0.174
-419.486	-125.814	0.213	0.032
-418.471	180.689	-0.121	-0.177
-417.457	-200.000	-0.011	0.099
-416.442	-145.359	-0.298	-0.027
-415.428	-147.578	-0.207	0.017
-414.413	213.367	0.140	-0.220
-413.398	-40.839	-0.234	-0.121
-412.384	-31.296	0.164	0.092
-411.369	57.613	0.128	-0.125
-410.355	101.155	-0.180	-0.209
-409.340	-83.329	-0.323	-0.103
-408.325	42.720	0.278	-0.253
-407.311	30.278	-0.126	0.108
-406.296	-200.000	-0.014	0.280
-405.282	75.189	-0.206	-0.216
-404.267	405.921	0.168	0.353
-403.252	43.064	-0.150	0.136
-402.238	107.176	-0.073	0.086
-401.223	71.176	0.183	-0.189
-400.209	97.576	-0.018	0.020
-399.194	-47.654	0.170	0.082
-398.179	-148.832	0.194	-0.016
-397.165	-116.572	0.359	-0.066
-396.150	-95.486	-0.148	0.039
-395.136	-115.765	0.139	0.026
-394.121	-200.000	-0.025	0.185
-393.106	800.000	0.069	0.218
-392.092	800.000	-0.013	-0.058
-391.077	-200.000	0.076	0.601
-390.063	-42.376	-0.084	-0.042
-389.048	508.170	-0.066	-0.153
-388.033	-186.037	0.337	-0.005
-387.019	800.000	-0.027	0.110
-386.004	-106.808	-0.338	0.075
-384.990	-7.422	0.074	-0.050
-383.975	-134.711	0.311	0.038
-382.960	-200.000	0.009	0.481
-381.946	-177.062	-0.213	0.005
-380.931	362.037	-0.113	-0.225
-379.917	-200.000	-0.031	-0.311
-378.902	126.854	-0.068	0.086
-377.888	-200.000	0.042	0.380
-376.873	194.391	0.330	-0.498
-375.858	89.319	0.018	0.020
-374.844	6.017	0.144	0.106
-373.829	-70.401	-0.347	-0.131
-372.815	-142.288	-0.084	-0.008
-371.800	203.063	-0.178	-0.273
-370.785	507.779	0.081	0.186
-369.771	581.916	0.095	-0.231
-368.756	-157.201	-0.258	-0.016
-367.742	-123.964	0.265	0.041
-366.727	11.380	0.189	-0.144
-365.712	-128.811	0.070	-0.010
-364.698	-82.748	-0.196	0.063
-363.683	226.069	-0.063	0.102
-362.669	471.947	-0.031	-0.070
-361.654	-34.621	0.205	-0.112
-360.639	-117.710	0.206	0.037
-359.625	-200.000	-0.015	0.256
-358.610	-47.373	-0.079	0.038
-357.596	-40.900	0.182	0.094
-356.581	-40.511	0.325	0.167
-355.566	-64.492	-0.117	0.047
-354.552	146.213	-0.235	-0.314
-353.537	-172.907	-0.157	0.005
-352.523	-200.000	0.030	0.185
-351.508	294.233	0.099	0.179
-350.493	435.670	0.187	0.404
-349.479	-200.000	0.002	0.310
-348.464	-153.528	-0.235	0.016
-347.450	-140.115	-0.196	-0.021
-346.435	-71.024	0.132	-0.049
-345.420	-200.000	-0.033	0.333
-344.406	61.381	-0.199	0.197
-343.391	297.377	-0.019	-0.035
-342.377	495.910	0.091	-0.208
-341.362	-150.881	0.091	-0.007
-340.348	-0.526	-0.042	-0.030
-339.333	-116.108	-0.458	0.085
-338.318	132.122	0.255	0.326
-337.304	196.886	0.038	-0.057
-336.289	640.968	-0.076	-0.192
-335.275	800.000	0.070	-0.215
-334.260	309.938	0.127	-0.236
-333.245	-130.666	0.152	0.020
-332.231	800.000	0.113	0.345
-331.216	800.000	-0.070	-0.300
-330.202	-191.430	0.236	-0.002
-329.187	800.000	-0.050	-0.153
-328.172	-22.199	-0.264	0.159
-327.158	508.197	0.136	0.314
-326.143	-200.000	0.018	0.140
-325.129	14.772	-0.067	-0.052
-324.114	-71.895	0.301	0.111
-323.099	407.955	-0.025	-0.053
-322.085	606.749	0.092	-0.229
-321.070	-200.000	-0.012	-0.306
-320.056	-99.440	-0.246	0.062
-319.041	-148.471	0.355	-0.029
-318.026	-9.271	-0.073	-0.048
-317.012	-137.289	-0.177	0.020
-315.997	171.818	-0.045	0.064
-314.983	-200.000	-0.010	-0.085
-313.968	167.170	0.075	0.105
-312.953	-65.974	-0.205	-0.081
-311.939	-91.064	0.085	0.024
-310.924	7.814	-0.143	0.106
-309.910	-113.360	-0.215	-0.042
-308.895	87.795	0.050	-0.056
-307.880	74.557	0.186	0.194
-306.866	187.683	0.361	0.535
-305.851	-200.000	0.005	0.150
-304.837	-200.000	0.013	0.142
-303.822	-200.000	0.008	0.041
-302.807	-200.000	0.022	-0.316
-301.793	-152.653	-0.136	-0.010
-300.778	149.999	0.039	0.053
-299.764	-200.000	0.023	-0.138
-298.749	421.186	0.051	0.109
-297.735	-11.493	-0.030	0.020
-296.720	-69.277	-0.291	-0.111
-295.705	800.000	-0.081	0.332
-294.691	-40.874	-0.130	-0.067
-293.676	341.938	0.059	-0.115
-292.662	-73.195	-0.391	0.142
-291.647	800.000	0.047	-0.129
-290.632	131.350	0.083	0.106
-289.618	-61.249	0.253	-0.106
-288.603	243.845	-0.156	-0.260
-287.589	-200.000	-0.029	-0.250
-286.574	-200.000	0.018	-0.109
-285.559	636.196	-0.069	-0.175
-284.545	88.997	-0.169	-0.186
-283.530	800.000	0.063	0.265
-282.516	-17.594	-0.114	-0.071
-281.501	-170.385	-0.192	0.007
-280.486	-13.589	0.080	-0.051
-279.472	-118.985	0.173	0.030
-278.457	-200.000	0.004	0.042
-277.443	-42.164	0.335	-0.170
-276.428	37.218	0.105	-0.092
-275.413	-43.433	0.154	0.077
-274.399	-63.765	0.349	0.141
-273.384	-147.029	0.267	-0.023
-272.370	9.743	-0.195	-0.147
-271.355	553.222	0.153	0.364
-270.340	-200.000	0.006	-0.570
-269.326	104.005	-0.045	0.052
-268.311	13.441	-0.095	-0.073
-267.297	77.270	-0.102	-0.107
-266.282	604.252	0.083	-0.205
-265.267	-62.153	0.159	-0.066
-264.253	-87.383	-0.209	-0.063
-263.238	-5.601	-0.288	0.196
-262.224	128.365	0.080	0.101
-261.209	-81.660	-0.291	0.095
-260.195	-4.756	-0.024	0.016
-259.180	-200.000	-0.023	-0.300
-258.165	-171.528	0.349	-0.011
-257.151	800.000	-0.177	-0.535
-256.136	-5.571	-0.089	-0.061
-255.122	-22.071	0.145	-0.087
-254.107	-52.150	-0.083	0.038
-253.092	-78.764	-0.193	-0.065
-252.078	-200.000	0.057	0.280
-251.063	-78.948	-0.037	0.012
-250.049	-11.302	-0.312	-0.203
-249.034	-57.394	-0.102	-0.044
-248.019	-115.245	0.184	-0.034
-247.005	800.000	-0.086	0.266
-245.990	114.692	0.163	0.197
-244.976	-104.615	-0.018	0.004
-243.961	-18.191	0.274	-0.169
-242.946	-125.505	0.248	0.037
-241.932	-120.097	-0.406	-0.069
-240.917	-42.114	-0.413	0.209
-239.903	-134.065	0.050	-0.006
-238.888	-71.240	-0.254	-0.094
-237.873	188.901	-0.264	0.391
-236.859	-58.048	-0.278	0.120
-235.844	197.846	-0.035	0.054
-234.830	-89.107	0.182	0.053
-233.815	-200.000	-0.004	-0.122
-232.800	-33.025	0.236	0.129
-231.786	-200.000	-0.005	0.097
-230.771	-200.000	0.048	-0.275
-229.757	-14.481	-0.086	-0.055
-228.742	135.557	-0.172	0.221
-227.727	642.861	-0.092	-0.233
-226.713	800.000	0.013	0.036
-225.698	433.125	-0.028	-0.061
-224.684	484.942	0.177	0.399
-223.669	-78.053	0.201	-0.068
-222.655	-200.000	0.013	-0.285
-221.640	62.333	-0.190	-0.187
-220.625	35.491	-0.213	-0.185
-219.611	-92.797	-0.294	-0.081
-218.596	-136.915	-0.195	0.022
-217.582	-7.029	0.100	0.067
-216.567	-65.352	0.190	-0.076
-215.552	800.000	0.041	0.130
-214.538	52.061	0.117	-0.110
-213.523	-40.565	-0.176	0.090
-212.509	-155.582	0.114	0.007
-211.494	188.823	-0.089	0.131
-210.479	800.000	0.123	0.464
-209.465	-73.748	0.451	0.162
-208.450	178.709	0.173	-0.250
-207.436	-200.000	0.084	0.486
-206.421	-200.000	-0.040	0.203
-205.406	-85.175	-0.140	0.043
-204.392	-144.727	-0.237	-0.022
-203.377	-10.459	0.107	0.070
-202.363	-200.000	-0.019	0.541
-201.348	-108.290	0.212	-0.045
-200.333	13.741	-0.150	0.115
-199.319	70.443	-0.236	0.241
-198.304	59.204	0.128	-0.125
-197.290	-47.676	0.336	-0.161
-196.275	112.612	-0.251	0.300
-195.260	800.000	0.087	-0.355
-194.246	800.000	0.120	-0.483
-193.231	-63.308	-0.208	-0.084
-192.217	-53.377	0.183	-0.083
-191.202	-200.000	-0.016	-0.238
-190.187	-144.262	-0.102	0.009
-189.173	-54.399	0.265	-0.119
-188.158	421.874	0.087	-0.184
-187.144	472.418	-0.134	-0.297
-186.129	-152.803	-0.379	-0.027
-185.114	491.014	-0.128	0.289
-184.100	-66.301	-0.116	0.046
-183.085	87.975	0.153	-0.168
-182.071	-80.495	-0.088	0.029
-181.056	-10.581	0.129	-0.084
-180.042	-66.032	-0.209	0.082
-179.027	-200.000	-0.010	0.085
-178.012	435.274	-0.045	-0.096
-176.998	672.233	-0.012	0.030
-175.983	-200.000	-0.013	0.166
-174.969	140.572	-0.072	-0.094
-173.954	-191.929	-0.077	-0.001
-172.939	-196.822	-0.235	-0.002
-171.925	-104.001	0.359	0.082
-170.910	77.528	-0.144	0.152
-169.896	736.061	0.099	-0.262
-168.881	-37.578	0.290	-0.153
-167.866	800.000	0.052	-0.198
-166.852	-200.000	0.034	0.379
-165.837	-183.675	0.149	-0.003
-164.823	-103.696	0.182	-0.042
-163.808	-200.000	0.033	-0.145
-162.793	144.834	-0.129	-0.170
-161.779	-116.959	0.058	-0.011
-160.764	362.599	-0.049	0.098
-159.750	-59.281	0.335	-0.142
-158.735	-11.871	-0.177	-0.115
-157.720	-82.791	0.142	0.045
-156.706	-59.389	0.265	0.112
-155.691	-78.399	-0.098	-0.033
-154.677	-200.000	-0.023	0.302
-153.662	-149.832	0.159	-0.012
-152.647	-200.000	-0.046	-0.223
-151.633	-21.612	0.071	0.043
-150.618	-52.697	-0.117	-0.053
-149.604	-20.745	-0.154	0.093
-148.589	-200.000	-0.043	-0.289
-147.574	800.000	0.050	-0.172
-146.560	-200.000	0.072	0.313
-145.545	800.000	0.004	-0.014
-144.531	320.757	0.110	-0.205
-143.516	29.469	0.221	0.185
-142.502	-66.572	0.203	-0.080
-141.487	434.323	-0.102	-0.217
-140.472	155.380	0.081	-0.109
-139.458	328.820	0.122	-0.231
-138.443	-91.609	0.084	-0.024
-137.429	800.000	0.102	-0.331
-136.414	85.206	-0.115	0.124
-135.399	-54.544	0.321	0.143
-134.385	197.751	0.071	0.108
-133.370	-50.927	-0.295	-0.137
-132.356	-197.927	0.309	-0.002
-131.341	291.230	-0.146	-0.261
-130.326	-200.000	-0.017	0.093
-129.312	-15.846	0.066	0.041
-128.297	-200.000	0.045	-0.205
-127.283	-74.823	-0.162	-0.057
-126.268	-200.000	-0.029	0.251
-125.253	800.000	-0.110	0.315
-124.239	41.073	0.096	-0.085
-123.224	-200.000	0.010	-0.316
-122.210	142.485	-0.274	-0.359
-121.195	18.048	0.291	-0.229
-120.180	-49.270	0.148	0.070
-119.166	498.314	0.143	-0.323
-118.151	708.350	-0.016	-0.040
-117.137	-200.000	-0.012	0.141
-116.122	22.867	0.161	0.130
-115.107	-200.000	0.036	-0.210
-114.093	-100.319	-0.209	0.051
-113.078	180.141	0.158	0.228
-112.064	800.000	-0.050	-0.152
-111.049	800.000	0.092	-0.306
-110.034	-40.159	-0.034	0.017
-109.020	128.394	-0.049	-0.062
-108.005	37.529	-0.068	-0.060
-106.991	-89.459	-0.218	-0.063
-105.976	-109.923	0.095	0.020
-104.962	203.833	-0.135	-0.206
-103.947	-93.891	-0.431	-0.117
-102.932	-59.033	0.133	-0.057
-101.918	800.000	-0.187	0.662
-100.903	-58.358	-0.192	-0.082
-99.889	-127.091	-0.138	-0.020
-98.874	-45.921	-0.126	-0.061
-97.859	-23.818	-0.065	0.038
-96.845	-86.398	0.166	-0.050
-95.830	-199.349	-0.180	-0.001
-94.816	-125.157	-0.194	0.029
-93.801	-129.361	0.278	-0.038
-92.786	-200.000	-0.019	-0.439
-91.772	-130.101	0.107	-0.014
-90.757	-75.316	0.290	-0.102
-89.743	-200.000	0.025	-0.366
-88.728	-200.000	-0.030	0.238
-87.713	29.028	-0.055	0.046
-86.699	800.000	-0.085	0.251
-85.684	278.070	0.173	0.303
-84.670	-60.162	0.388	0.163
-83.655	800.000	0.066	-0.224
-82.640	-179.487	0.076	0.002
-81.626	176.240	-0.176	0.251
-80.611	-2.593	0.311	0.214
-79.597	-200.000	-0.029	-0.130
-78.582	35.681	-0.075	-0.065
-77.567	-89.723	0.184	0.053
-76.553	-172.392	-0.052	0.002
-75.538	604.783	-0.085	-0.208
-74.524	-114.955	-0.345	0.065
-73.509	-200.000	0.014	0.172
-72.494	505.485	0.020	0.045
-71.480	248.462	0.036	-0.060
-70.465	186.301	0.129	0.189
-69.451	-101.896	0.165	-0.039
-68.436	800.000	-0.041	0.124
-67.422	187.091	-0.121	0.177
-66.407	-200.000	0.010	0.182
-65.392	-200.000	-0.038	0.367
-64.378	-200.000	0.062	0.320
-63.363	-200.000	0.036	-0.280
-62.349	232.203	-0.134	-0.216
-61.334	-36.710	-1.100	-0.581
-60.319	-5.660	0.371	0.250
-59.305	800.000	-0.363	-1.061
-58.290	275.715	0.673	1.174
-57.276	291.201	0.827	1.478
-56.261	-200.000	102.763	598.826
-55.246	562.187	1435.560	3411.937
-54.232	186.675	2626.195	3842.439
-53.217	117.890	2149.129	2600.674
-52.203	42.738	1594.392	1426.552
-51.188	34.063	1328.953	1137.420
-50.173	30.792	1287.402	1082.830
-49.159	54.907	1338.782	1269.570
-48.144	56.077	1354.723	1291.563
-47.130	34.235	1310.968	1122.862
-46.115	30.687	1293.399	1087.087
-45.100	30.626	1288.455	1082.531
-44.086	30.449	1286.066	1079.453
-43.071	30.409	1283.721	1077.212
-42.057	30.459	1281.980	1075.994
-41.042	30.464	1280.298	1074.570
-40.027	30.465	1278.851	1073.318
-39.013	30.541	1277.014	1072.174
-37.998	30.525	1274.937	1070.298
-36.984	30.543	1273.557	1069.197
-35.969	30.581	1271.732	1067.842
-34.954	30.585	1270.304	1066.625
-33.940	30.632	1268.772	1065.561
-32.925	30.591	1267.628	1064.325
-31.911	30.652	1265.837	1063.126
-30.896	30.785	1263.965	1062.271
-29.881	30.725	1262.878	1060.977
-28.867	30.676	1261.352	1059.373
-27.852	30.651	1260.266	1058.275
-26.838	30.709	1258.611	1057.173
-25.823	30.704	1257.184	1055.905
-24.809	30.616	1256.625	1054.895
-23.794	30.663	1255.353	1054.053
-22.779	30.687	1253.728	1052.781
-21.765	30.564	1252.785	1051.248
-20.750	30.624	1251.396	1050.380
-19.736	30.545	1249.907	1048.646
-18.721	30.424	1249.184	1047.315
-17.706	30.495	1247.404	1046.182
-16.692	30.449	1246.525	1045.143
-15.677	30.535	1245.272	1044.537
-14.663	30.498	1244.371	1043.531
-13.648	30.438	1243.364	1042.305
-12.633	30.394	1242.467	1041.267
-11.619	30.461	1241.742	1040.996
-10.604	30.563	1240.423	1040.417
-9.590	30.586	1238.936	1039.256
-8.575	30.473	1238.327	1038.074
-7.560	30.435	1237.511	1037.139
-6.546	30.554	1236.396	1036.827
-5.531	30.436	1235.723	1035.564
-4.517	30.533	1234.936	1035.403
-3.502	30.481	1234.274	1034.518
-2.487	30.454	1233.173	1033.401
-1.473	30.598	1228.940	1030.609
-0.458	29.110	1214.817	1010.568
0.556	24.503	1197.718	973.609
1.571	21.112	1202.971	959.187
2.586	20.185	1218.386	966.228
3.600	19.681	1207.364	954.616
4.615	15.182	1137.216	875.612
5.629	7.956	1066.201	785.339
6.644	5.117	1046.951	757.329
7.659	4.785	1045.019	754.256
8.673	4.797	1044.012	753.520
9.688	4.732	1042.338	751.932
10.702	4.890	1040.688	751.437
11.717	8.968	1046.266	775.139
12.731	15.791	1055.302	814.920
13.746	18.560	1058.394	830.663
14.761	17.923	1057.400	826.727
15.775	16.896	1055.468	820.179
16.790	15.876	1053.320	813.510
17.804	15.199	1051.414	808.699
18.819	14.809	1050.668	806.171
19.834	14.645	1049.499	804.413
20.848	14.364	1048.853	802.493
21.863	14.130	1048.179	800.781
22.877	14.000	1047.156	799.306
23.892	13.979	1046.664	798.757
24.907	14.157	1045.383	798.562
25.921	14.168	1044.503	797.875
26.936	14.068	1043.217	796.342
27.950	14.139	1041.990	795.673
28.965	14.153	1040.878	794.822
29.980	14.257	1039.052	793.854
30.994	14.269	1037.964	793.010
32.009	14.448	1037.351	793.324
33.023	14.334	1035.776	791.505
34.038	14.288	1034.526	790.262
35.053	14.207	1033.895	789.328
36.067	14.105	1033.298	788.317
37.082	14.265	1031.992	788.011
38.096	14.179	1031.671	787.286
39.111	14.218	1031.194	787.037
40.126	14.120	1029.509	785.217
41.140	13.957	1028.836	783.865
42.155	13.903	1027.565	782.575
43.169	13.886	1026.505	781.619
44.184	13.822	1025.677	780.617
45.199	13.888	1024.311	779.820
46.213	13.996	1023.202	779.412
47.228	14.072	1022.438	779.116
48.242	13.997	1021.505	777.986
49.257	14.106	1020.436	777.615
50.271	14.142	1019.587	777.067
51.286	14.261	1018.399	776.646
52.301	14.192	1017.623	775.664
53.315	13.971	1016.657	773.831
54.330	14.049	1015.649	773.357
55.344	13.943	1014.757	772.119
56.359	14.143	1013.710	772.183
57.374	13.967	1013.101	770.832
58.388	13.966	1012.290	770.143
59.403	13.994	1010.858	769.113
60.417	13.998	1010.434	768.742
61.432	13.950	1009.751	767.932
62.447	13.951	1008.918	767.238
63.461	13.783	1008.483	766.060
64.476	13.734	1007.961	765.371
65.490	13.824	1006.689	764.751
66.505	13.917	1006.032	764.612
67.520	13.915	1004.978	763.737
68.534	13.871	1004.550	763.142
69.549	13.935	1003.514	762.579
70.563	13.926	1002.868	761.980
71.578	13.877	1001.938	760.983
72.593	13.721	1001.234	759.665
73.607	13.721	1000.474	759.019
74.622	13.733	1000.644	759.140
75.636	13.826	999.248	758.436
76.651	13.767	998.980	757.896
77.666	13.794	998.284	757.423
78.680	13.722	997.675	756.567
79.695	13.897	996.576	756.463
80.709	13.932	996.726	756.669
81.724	13.929	995.685	755.798
82.739	13.931	995.384	755.514
83.753	14.089	994.480	755.481
84.768	14.327	993.521	755.764
85.782	14.269	992.616	754.747
86.797	14.253	991.798	753.984
87.812	14.063	991.271	752.655
88.826	14.030	990.351	751.744
89.841	14.089	989.285	751.133
90.855	14.229	988.260	750.922
91.870	14.323	987.421	750.639
92.884	14.134	986.552	749.061
93.899	14.169	985.990	748.728
94.914	14.292	984.936	748.412
95.928	14.320	984.086	747.828
96.943	14.170	983.140	746.370
97.957	14.216	982.518	746.036
98.972	14.296	981.802	745.785
99.987	14.265	980.714	744.752
101.001	14.185	980.111	743.870
102.016	14.176	979.295	743.148
103.030	14.273	978.764	743.110
104.045	14.185	977.550	741.733
105.060	14.301	976.686	741.527
106.074	14.073	975.591	739.615
107.089	13.891	974.522	737.931
108.103	13.932	974.113	737.740
109.118	13.891	972.886	736.562
110.133	13.899	971.865	735.759
111.147	13.918	971.446	735.460
112.162	13.987	970.512	734.994
113.176	14.118	969.518	734.753
114.191	14.138	968.986	734.375
115.206	14.054	968.067	733.243
116.220	14.111	967.217	732.787
117.235	14.066	966.154	731.716
118.249	13.988	965.676	730.949
119.264	14.021	964.726	730.307
120.279	13.919	964.415	729.562
121.293	13.892	963.181	728.444
122.308	13.869	962.511	727.771
123.322	14.030	961.400	727.572
124.337	13.929	960.320	726.250
125.352	13.895	959.422	725.359
126.366	13.931	958.355	724.642
127.381	14.007	957.185	724.028
128.395	14.058	956.472	723.643
129.410	14.103	955.453	723.005
130.424	14.055	954.784	722.228
131.439	14.189	954.114	722.236
132.454	14.067	953.380	721.087
133.468	14.210	952.593	721.051
134.483	14.060	952.137	719.991
135.497	14.169	951.127	719.634
136.512	14.049	950.830	718.826
137.527	14.214	949.713	718.630
138.541	14.195	948.725	717.738
139.556	14.095	948.475	717.057
140.570	14.087	947.875	716.502
141.585	14.187	946.652	715.946
142.600	14.405	945.914	716.264
143.614	14.390	944.689	715.208
144.629	14.292	944.651	714.694
145.643	14.366	943.407	714.006
146.658	14.173	942.683	712.567
147.673	14.049	941.874	711.362
148.687	14.180	940.311	710.679
149.702	14.127	939.828	710.026
150.716	14.112	939.094	709.347
151.731	14.307	938.409	709.594
152.746	14.179	937.574	708.357
153.760	14.319	937.087	708.522
154.775	14.225	936.944	707.950
155.789	14.374	936.017	707.821
156.804	14.303	935.359	706.958
157.819	14.380	934.653	706.690
158.833	14.369	934.054	706.127
159.848	14.380	933.616	705.781
160.862	14.439	932.159	704.868
161.877	14.325	931.220	703.613
162.892	14.190	930.672	702.567
163.906	14.254	929.474	701.869
164.921	14.153	928.794	700.867
165.935	14.255	927.914	700.573
166.950	14.388	926.828	700.247
167.964	14.389	925.724	699.356
168.979	14.326	924.869	698.386
169.994	14.338	924.157	697.835
171.008	14.443	923.537	697.744
172.023	14.488	923.009	697.473
173.037	14.629	922.167	697.365
174.052	14.612	921.809	696.962
175.067	14.241	920.943	694.697
176.081	14.344	920.083	694.415
177.096	14.450	919.768	694.558
178.110	14.341	919.256	693.658
179.125	14.353	918.615	693.162
180.140	14.459	918.175	693.209
181.154	14.473	917.791	692.916
182.169	14.595	917.024	692.782
183.183	14.598	916.735	692.514
184.198	14.664	915.572	691.847
185.213	14.698	915.046	691.529
186.227	14.588	914.356	690.491
187.242	14.622	913.950	690.264
188.256	14.696	913.250	689.980
189.271	14.578	912.738	689.044
190.286	14.579	911.478	688.038
191.300	14.369	910.880	686.658
192.315	14.237	910.541	685.800
193.329	14.442	909.430	685.748
194.344	14.445	909.095	685.447
195.359	14.551	908.418	685.310
196.373	14.648	907.647	685.064
197.388	14.687	907.750	685.243
198.402	14.900	907.021	685.504
199.417	14.916	906.653	685.233
200.432	14.964	905.617	684.583
201.446	14.948	905.579	684.430
202.461	14.947	905.051	683.965
203.475	14.908	904.273	683.159
204.490	14.881	903.371	682.305
205.504	14.928	902.555	681.822
206.519	14.810	901.843	680.741
207.534	14.769	901.563	680.306
208.548	14.814	900.782	679.837
209.563	14.693	899.961	678.666
210.577	14.803	899.386	678.618
211.592	14.986	898.867	678.912
212.607	14.966	898.014	678.124
213.621	15.054	897.152	677.772
214.636	14.924	896.646	676.801
215.650	15.060	896.062	676.851
216.665	15.248	895.130	676.846
217.680	15.136	894.837	676.114
218.694	15.153	894.201	675.641
219.709	15.109	893.263	674.697
220.723	15.179	892.820	674.581
221.738	15.077	891.641	673.223
222.753	15.084	891.470	673.061
223.767	15.195	890.876	672.998
224.782	15.346	890.259	673.079
225.796	15.254	890.105	672.536
226.811	15.333	889.342	672.215
227.826	15.165	888.563	670.893
228.840	15.182	887.713	670.262
229.855	15.105	887.020	669.371
230.869	15.171	886.598	669.255
231.884	15.142	885.679	668.387
232.899	15.107	884.477	667.283
233.913	15.085	883.841	666.657
234.928	15.140	883.716	666.720
235.942	15.173	883.049	666.290
236.957	15.076	882.632	665.531
237.972	15.067	881.976	664.941
238.986	15.089	881.564	664.660
240.001	15.094	880.970	664.172
241.015	15.201	880.177	663.939
242.030	15.298	879.378	663.661
243.045	15.238	878.948	663.044
244.059	15.252	878.456	662.667
245.074	15.182	877.904	661.918
246.088	15.413	876.880	661.997
247.103	15.355	876.678	661.556
248.117	15.438	875.985	661.303
249.132	15.688	875.652	661.977
250.147	15.696	874.735	661.256
251.161	15.755	874.076	660.931
252.176	15.663	873.775	660.284
253.190	15.801	872.944	660.138
254.205	15.842	872.303	659.758
255.220	15.869	871.720	659.362
256.234	15.760	871.086	658.398
257.249	15.638	870.793	657.643
258.263	15.759	869.659	657.199
259.278	15.756	868.946	656.592
260.293	15.951	868.227	656.749
261.307	15.794	867.932	655.860
262.322	15.891	867.685	655.991
263.336	15.820	866.461	654.734
264.351	15.975	865.793	654.772
265.366	15.890	865.267	653.985
266.380	16.033	864.235	653.701
267.395	15.884	863.989	652.883
268.409	15.917	862.929	652.148
269.424	16.013	862.227	651.934
270.439	15.831	861.720	650.788
271.453	15.867	860.927	650.270
272.468	15.963	860.660	650.384
273.482	15.956	860.270	650.004
274.497	15.989	859.683	649.630
275.512	15.982	858.590	648.719
276.526	15.902	858.455	648.252
277.541	15.956	858.230	648.231
278.555	16.030	857.499	647.907
279.570	16.174	856.696	647.797
280.585	16.109	855.823	646.829
281.599	16.098	855.023	646.126
282.614	16.113	854.543	645.765
283.628	16.112	853.782	645.125
284.643	16.179	853.322	644.977
285.657	16.125	852.361	643.990
286.672	16.173	852.278	644.054
287.687	16.118	851.447	643.157
288.701	16.120	850.863	642.668
289.716	16.169	850.515	642.535
290.730	16.124	849.978	641.902
291.745	16.235	849.458	641.871
292.760	16.225	849.021	641.448
293.774	16.306	848.029	640.949
294.789	16.344	847.183	640.398
295.803	16.156	846.932	639.439
296.818	16.200	846.025	638.862
297.833	16.221	845.495	638.487
298.847	16.368	844.656	638.353
299.862	16.312	844.373	637.868
300.876	16.436	843.670	637.751
301.891	16.465	843.113	637.383
302.906	16.459	842.536	636.867
303.920	16.502	842.257	636.760
304.935	16.698	841.542	636.900
305.949	16.613	841.369	636.396
306.964	16.467	840.572	635.186
307.979	16.515	839.946	634.838
308.993	16.505	839.484	634.396
310.008	16.699	838.351	634.211
311.022	16.549	838.484	633.691
312.037	16.558	837.617	633.015
313.052	16.509	837.011	632.316
314.066	16.545	836.269	631.836
315.081	16.283	836.079	630.657
316.095	16.435	835.614	630.817
317.110	16.429	835.041	630.309
318.125	16.370	834.527	629.645
319.139	16.478	833.966	629.565
320.154	16.491	833.414	629.144
321.168	16.596	832.507	628.792
322.183	16.601	832.367	628.649
323.197	16.599	831.865	628.206
324.212	16.450	831.347	627.208
325.227	16.633	830.659	627.314
326.241	16.574	830.207	626.698
327.256	16.719	829.354	626.533
328.270	16.694	828.729	625.914
329.285	16.464	828.956	625.178
330.300	16.665	827.583	624.831
331.314	16.535	827.454	624.197
332.329	16.609	827.263	624.273
333.343	16.684	826.478	623.902
334.358	16.790	826.163	623.996
335.373	16.733	825.745	623.417
336.387	16.759	825.701	623.426
337.402	16.847	825.704	623.696
338.416	16.819	825.283	623.220
339.431	16.989	824.348	623.083
340.446	16.958	824.318	622.891
341.460	16.973	823.731	622.447
342.475	17.137	823.352	622.707
343.489	17.036	822.705	621.792
344.504	17.119	822.485	621.874
345.519	17.144	822.212	621.705
346.533	17.203	821.330	621.198
347.548	16.964	821.087	620.086
348.562	17.073	820.026	619.629
349.577	16.991	819.478	618.862
350.592	16.896	819.026	618.118
351.606	16.967	818.138	617.653
352.621	16.826	817.819	616.843
353.635	16.841	817.497	616.598
354.650	16.986	816.507	616.327
355.665	16.994	815.989	615.910
356.679	17.266	815.216	616.257
357.694	17.041	814.606	614.926
358.708	17.172	813.894	614.811
359.723	17.290	813.323	614.752
360.738	17.248	812.600	613.996
361.752	17.220	812.566	613.816
362.767	17.200	812.215	613.424
363.781	17.300	811.422	613.132
364.796	17.461	810.816	613.202
365.810	17.372	810.552	612.627
366.825	17.392	810.491	612.597
367.840	17.493	809.518	612.173
368.854	17.351	809.247	611.402
369.869	17.560	808.987	611.901
370.883	17.460	808.468	611.095
371.898	17.458	808.276	610.892
372.913	17.518	807.817	610.702
373.927	17.420	807.392	609.978
374.942	17.468	806.941	609.756
375.956	17.502	806.612	609.572
376.971	17.768	805.840	609.890
377.986	17.702	805.061	609.009
379.000	17.581	805.051	608.514
380.015	17.690	804.364	608.332
381.029	17.769	803.699	608.054
382.044	17.722	803.344	607.567
383.059	17.687	802.397	606.672
384.073	17.679	801.923	606.232
385.088	17.623	801.683	605.798
386.102	17.582	801.143	605.189
387.117	17.616	800.409	604.701
388.132	17.617	799.753	604.155
389.146	17.584	799.147	603.529
390.161	17.714	798.935	603.774
391.175	17.791	798.749	603.854
392.190	17.720	797.960	602.952
393.205	17.619	797.731	602.369
394.219	17.517	797.534	601.809
395.234	17.724	796.749	601.890
396.248	17.555	796.506	601.060
397.263	17.719	795.588	600.891
398.278	17.528	795.553	600.139
399.292	17.661	795.028	600.159
400.307	17.483	795.180	599.593
401.321	17.613	794.377	599.392
402.336	17.575	793.879	598.828
403.350	17.605	793.597	598.669
404.365	17.865	792.940	599.033
405.380	17.821	792.404	598.419
406.394	17.884	792.024	598.300
407.409	18.009	791.446	598.249
408.423	17.974	791.360	598.007
409.438	18.189	790.404	597.986
410.453	18.104	790.348	597.592
411.467	18.216	789.863	597.565
412.482	18.283	789.310	597.325
413.496	18.234	789.628	597.342
414.511	18.142	789.189	596.638
415.526	18.231	788.367	596.273
416.540	18.054	787.927	595.273
417.555	18.142	787.662	595.325
418.569	18.227	787.024	595.087
419.584	18.249	786.571	594.766
420.599	18.414	785.595	594.550
421.613	157.333	1369.742	1795.198
422.628	135.977	1454.867	1795.259
