DTS Sentinel unit serial number:	SN413079Multiplexer serial number:	ORYXHardware model number:	OX4-SRSoftware version number:	ORYX F/W v4.00 Oryx Data Collector v3.7.2.0data status	okinstallation	princeton_trtdifferential loss correction	single-endedforward channel	channel 1reverse channel	N/Adate	2019/09/14time	18:02:35forward acquisition time	60.00reverse acquisition time	0.00gamma	496.2192k internal	0.2299k external	0.2299temperature offset calibration	1.0039default loss term (dB/km)	0.3790temperature slope calibration	1.0000multiplexer offset coefficient	1.0000multiplexer slope coefficient	1.0000fibre end	0.00T internal ref (°C)	37.31T ext. ref 1 (°C)	4.97T ext. ref 2 (°C)	31.83length (m)	temperature (°C)	Stokes	anti-Stokes-747.200	32.733	-0.204	-0.180
-746.185	102.543	0.162	-0.193
-745.171	90.956	0.216	0.247
-744.156	-200.000	-0.016	0.297
-743.142	30.520	-0.268	-0.234
-742.127	325.027	0.113	0.221
-741.112	-24.913	0.129	0.078
-740.098	27.177	-0.031	0.026
-739.083	48.077	-0.314	-0.299
-738.069	265.483	0.094	0.167
-737.054	800.000	-0.072	-0.274
-736.039	329.568	0.030	0.060
-735.025	759.185	-0.013	0.035
-734.010	183.001	0.185	-0.279
-732.996	5.888	0.055	-0.042
-731.981	-9.419	-0.104	-0.071
-730.966	-168.513	0.136	0.005
-729.952	-200.000	0.093	-0.448
-728.937	48.447	-0.079	0.075
-727.923	457.150	0.038	-0.086
-726.908	379.022	0.053	-0.110
-725.894	-79.154	-0.103	-0.035
-724.879	109.937	0.055	-0.067
-723.864	21.212	0.281	-0.233
-722.850	-200.000	-0.017	-0.654
-721.835	224.268	0.062	0.102
-720.821	-200.000	-0.026	-0.186
-719.806	280.693	0.097	-0.177
-718.791	-22.092	-0.188	-0.117
-717.777	800.000	-0.142	0.585
-716.762	181.713	-0.147	0.221
-715.748	92.287	-0.160	-0.184
-714.733	-83.181	-0.072	0.024
-713.718	-166.029	0.153	0.007
-712.704	278.314	0.052	0.095
-711.689	117.418	-0.282	-0.354
-710.675	316.071	0.069	-0.133
-709.660	-11.972	-0.417	-0.279
-708.645	47.850	-0.101	0.096
-707.631	800.000	0.090	0.308
-706.616	47.451	-0.260	0.247
-705.602	-200.000	-0.071	-0.319
-704.587	32.636	-0.310	-0.273
-703.572	800.000	-0.070	-0.299
-702.558	14.055	-0.164	0.130
-701.543	660.537	-0.182	0.477
-700.529	713.273	0.047	-0.128
-699.514	-72.063	-0.082	0.031
-698.499	5.094	-0.104	0.078
-697.485	-91.390	-0.218	-0.064
-696.470	-200.000	0.005	0.111
-695.456	-200.000	0.008	-0.045
-694.441	-200.000	0.007	0.108
-693.426	-200.000	0.001	-0.187
-692.412	411.213	-0.156	-0.336
-691.397	146.823	-0.141	0.193
-690.383	19.137	0.210	-0.171
-689.368	800.000	0.077	-0.319
-688.354	-200.000	0.097	0.437
-687.339	-51.454	-0.282	0.134
-686.324	-200.000	-0.034	-0.155
-685.310	-49.749	0.209	-0.101
-684.295	800.000	-0.065	0.213
-683.281	-161.034	0.067	-0.004
-682.266	-21.731	-0.149	-0.092
-681.251	-53.739	-0.301	0.140
-680.237	-58.269	-0.286	-0.127
-679.222	-200.000	-0.007	-0.105
-678.208	-136.734	-0.358	0.042
-677.193	-200.000	-0.031	-0.166
-676.178	-14.666	0.267	0.175
-675.164	-94.910	-0.271	0.075
-674.149	-120.854	-0.326	-0.056
-673.135	56.679	0.116	0.115
-672.120	-91.486	0.075	-0.022
-671.105	-200.000	-0.009	-0.286
-670.091	-200.000	-0.022	-0.188
-669.076	9.392	0.243	-0.187
-668.062	286.439	0.191	-0.350
-667.047	47.827	0.278	0.264
-666.032	-106.662	0.204	0.046
-665.018	759.278	-0.027	-0.076
-664.003	-108.068	-0.058	-0.013
-662.989	289.472	0.021	-0.038
-661.974	110.847	-0.126	-0.154
-660.959	40.504	-0.107	-0.098
-659.945	-159.152	-0.451	-0.026
-658.930	800.000	0.051	-0.147
-657.916	-91.901	-0.376	0.108
-656.901	-200.000	0.003	0.277
-655.886	-74.882	0.228	-0.083
-654.872	-87.006	-0.142	-0.044
-653.857	-53.986	-0.024	0.011
-652.843	-200.000	0.009	0.098
-651.828	-43.096	0.271	0.140
-650.814	-77.767	0.192	0.068
-649.799	-136.654	0.106	-0.012
-648.784	800.000	-0.064	0.227
-647.770	-63.616	-0.122	-0.051
-646.755	-30.583	-0.127	-0.073
-645.741	-87.015	-0.080	0.025
-644.726	116.766	-0.166	0.207
-643.711	148.132	-0.130	-0.178
-642.697	27.879	-0.126	-0.108
-641.682	-200.000	0.026	0.321
-640.668	53.234	0.222	0.217
-639.653	-30.980	-0.340	-0.195
-638.638	208.559	-0.146	-0.232
-637.624	-200.000	0.027	0.203
-636.609	72.241	0.062	0.066
-635.595	1.939	0.216	0.159
-634.580	-31.109	0.181	-0.103
-633.565	27.640	0.111	0.095
-632.551	-200.000	0.025	-0.420
-631.536	800.000	0.089	0.287
-630.522	-200.000	-0.021	-0.162
-629.507	800.000	-0.058	0.206
-628.492	16.260	0.089	0.072
-627.478	56.973	-0.042	0.041
-626.463	366.574	0.097	0.199
-625.449	59.008	0.222	-0.222
-624.434	-200.000	-0.020	-0.114
-623.419	137.370	-0.238	-0.316
-622.405	-124.888	0.064	-0.010
-621.390	-142.463	0.066	-0.007
-620.376	800.000	-0.067	0.229
-619.361	-54.065	-0.049	0.023
-618.346	800.000	0.033	-0.106
-617.332	145.625	-0.155	-0.211
-616.317	-151.226	0.250	0.019
-615.303	-158.691	0.324	-0.019
-614.288	31.475	-0.204	0.178
-613.273	-148.705	0.293	0.024
-612.259	-130.347	-0.329	-0.045
-611.244	109.878	-0.122	-0.149
-610.230	800.000	-0.057	-0.173
-609.215	-86.029	0.156	-0.049
-608.201	-105.476	0.308	0.071
-607.186	-50.829	0.300	0.143
-606.171	800.000	-0.123	-0.418
-605.157	340.829	-0.058	-0.115
-604.142	338.144	-0.108	-0.213
-603.128	-134.441	-0.264	-0.033
-602.113	-200.000	0.007	0.163
-601.098	95.219	-0.099	0.115
-600.084	27.372	0.113	0.097
-599.069	-45.940	0.384	0.192
-598.055	517.768	-0.089	-0.212
-597.040	486.938	-0.161	-0.373
-596.025	-200.000	-0.057	0.355
-595.011	-166.308	-0.199	-0.008
-593.996	-64.812	-0.172	-0.071
-592.982	135.751	-0.190	-0.251
-591.967	16.645	0.101	-0.081
-590.952	-200.000	0.027	0.550
-589.938	273.854	0.233	-0.417
-588.923	-15.857	-0.121	-0.078
-587.909	-200.000	-0.028	-0.171
-586.894	800.000	-0.036	-0.148
-585.879	-70.937	0.107	0.041
-584.865	-129.238	0.241	-0.034
-583.850	-97.419	0.247	0.065
-582.836	-135.066	0.502	-0.061
-581.821	-200.000	-0.052	-0.358
-580.806	57.114	0.258	-0.255
-579.792	45.441	-0.261	0.244
-578.777	89.111	-0.054	-0.060
-577.763	-147.889	0.147	0.012
-576.748	800.000	0.077	-0.255
-575.733	119.773	-0.092	-0.116
-574.719	-18.593	-0.024	0.015
-573.704	-83.279	-0.505	0.164
-572.690	240.860	0.110	0.186
-571.675	106.911	-0.369	0.444
-570.661	-200.000	-0.005	0.063
-569.646	3.807	0.032	0.023
-568.631	-200.000	-0.053	0.239
-567.617	-113.069	0.078	0.016
-566.602	-200.000	0.026	0.172
-565.588	-32.124	-0.213	-0.121
-564.573	-34.803	-0.213	-0.118
-563.558	-141.808	0.461	-0.047
-562.544	-6.902	-0.125	0.086
-561.529	-200.000	0.007	0.370
-560.515	800.000	-0.078	-0.330
-559.500	195.722	0.234	-0.361
-558.485	13.404	0.374	0.294
-557.471	-200.000	0.004	-0.039
-556.456	-105.131	0.386	0.089
-555.442	-200.000	0.034	-0.164
-554.427	154.253	0.210	0.292
-553.412	557.379	0.043	-0.105
-552.398	140.370	-0.017	-0.022
-551.383	-129.847	-0.108	-0.015
-550.369	800.000	-0.036	-0.105
-549.354	-142.182	-0.275	-0.028
-548.339	-200.000	0.018	-0.325
-547.325	368.731	0.084	0.172
-546.310	-17.949	-0.177	-0.112
-545.296	-55.299	0.298	-0.135
-544.281	800.000	0.043	-0.151
-543.266	-118.399	0.111	-0.020
-542.252	17.622	-0.250	-0.201
-541.237	800.000	-0.007	-0.030
-540.223	-86.024	0.215	0.067
-539.208	-91.847	0.106	-0.031
-538.193	230.837	0.123	0.203
-537.179	-84.723	-0.035	-0.011
-536.164	-200.000	0.009	0.211
-535.150	-74.744	-0.342	-0.124
-534.135	77.771	0.239	0.258
-533.121	450.698	0.037	-0.083
-532.106	153.745	-0.114	-0.158
-531.091	313.735	0.103	0.196
-530.077	-101.866	-0.458	0.112
-529.062	-10.422	0.159	0.107
-528.048	-200.000	0.055	-0.358
-527.033	71.928	-0.255	0.268
-526.018	-88.876	-0.210	0.063
-525.004	23.150	0.038	-0.031
-523.989	214.274	-0.006	0.010
-522.975	-125.731	0.387	0.059
-521.960	-9.491	0.116	0.078
-520.945	-127.249	0.311	-0.046
-519.931	493.135	-0.049	-0.114
-518.916	306.760	-0.012	-0.022
-517.902	181.026	0.113	-0.169
-516.887	800.000	0.041	-0.137
-515.872	158.221	0.169	-0.237
-514.858	664.776	0.090	-0.235
-513.843	49.940	0.127	-0.121
-512.829	-200.000	0.016	-0.273
-511.814	18.316	-0.134	0.108
-510.799	-122.621	-0.540	-0.088
-509.785	800.000	-0.066	-0.215
-508.770	10.052	-0.231	0.178
-507.756	800.000	-0.015	-0.053
-506.741	146.857	0.128	0.174
-505.726	30.059	0.315	-0.272
-504.712	19.270	0.023	-0.019
-503.697	-200.000	-0.044	-0.333
-502.683	800.000	0.112	-0.369
-501.668	405.706	0.138	0.294
-500.653	-124.330	0.246	0.039
-499.639	158.779	-0.251	0.353
-498.624	-101.182	-0.148	0.037
-497.610	51.279	-0.217	-0.209
-496.595	273.237	0.068	0.121
-495.581	-158.442	-0.144	0.008
-494.566	-200.000	-0.052	0.240
-493.551	-70.567	-0.078	-0.030
-492.537	-108.364	-0.241	0.053
-491.522	-72.780	-0.223	0.083
-490.508	259.945	0.151	0.263
-489.493	131.664	0.062	0.080
-488.478	5.423	-0.310	-0.231
-487.464	-23.567	-0.268	0.163
-486.449	-96.445	0.372	0.099
-485.435	91.815	-0.050	0.057
-484.420	216.368	-0.129	-0.207
-483.405	333.195	0.187	-0.365
-482.391	236.262	-0.050	0.084
-481.376	-112.904	-0.263	0.053
-480.362	407.788	-0.097	0.207
-479.347	800.000	0.123	-0.356
-478.332	-96.162	-0.305	-0.082
-477.318	-68.313	-0.293	0.115
-476.303	-47.280	0.014	0.007
-475.289	672.838	0.020	0.053
-474.274	-193.482	0.104	-0.001
-473.259	-12.761	-0.158	0.104
-472.245	-86.929	0.365	0.112
-471.230	-88.997	0.243	-0.073
-470.216	800.000	-0.236	-0.690
-469.201	-137.580	-0.066	0.008
-468.186	422.700	0.058	0.125
-467.172	73.663	-0.179	-0.189
-466.157	-26.008	0.223	-0.133
-465.143	-112.148	-0.255	0.052
-464.128	365.730	0.092	0.188
-463.113	269.303	-0.066	-0.116
-462.099	482.221	-0.026	0.059
-461.084	-79.345	-0.229	-0.078
-460.070	-200.000	0.015	-0.190
-459.055	-200.000	-0.002	-0.316
-458.040	118.941	0.100	-0.125
-457.026	800.000	-0.026	0.086
-456.011	72.681	0.161	0.170
-454.997	-51.048	0.393	0.186
-453.982	-30.344	-0.126	-0.072
-452.968	76.907	-0.080	-0.086
-451.953	41.727	-0.153	-0.140
-450.938	7.865	-0.266	-0.201
-449.924	-200.000	0.012	0.484
-448.909	-155.540	0.119	-0.008
-447.895	218.259	-0.111	0.179
-446.880	-93.760	-0.227	0.063
-445.865	-108.740	0.220	-0.048
-444.851	-19.836	0.286	-0.178
-443.836	168.123	-0.095	0.136
-442.822	337.270	0.086	0.168
-441.807	6.262	0.288	-0.216
-440.792	53.518	0.185	0.179
-439.778	-11.182	-0.118	0.079
-438.763	-144.735	-0.169	0.016
-437.749	561.227	-0.119	-0.291
-436.734	64.541	0.040	0.041
-435.719	69.879	-0.251	-0.261
-434.705	-200.000	0.028	0.251
-433.690	-200.000	0.011	0.145
-432.676	5.682	0.209	0.156
-431.661	-18.243	0.042	0.027
-430.646	300.692	0.046	-0.086
-429.632	-22.521	0.253	-0.154
-428.617	800.000	0.095	0.286
-427.603	-200.000	-0.022	0.247
-426.588	-92.286	0.297	0.084
-425.573	493.269	0.019	0.044
-424.559	-96.982	0.256	-0.068
-423.544	225.365	-0.032	-0.052
-422.530	364.034	-0.134	-0.271
-421.515	-51.999	0.190	-0.089
-420.500	800.000	0.059	-0.173
-419.486	-75.157	-0.263	-0.095
-418.471	-123.365	-0.157	-0.025
-417.457	800.000	0.030	-0.102
-416.442	-6.067	0.141	0.097
-415.428	294.671	0.189	-0.348
-414.413	800.000	-0.148	0.426
-413.398	123.740	0.373	0.472
-412.384	249.416	0.113	-0.192
-411.369	-200.000	0.045	0.359
-410.355	-110.845	0.363	0.075
-409.340	-123.498	0.153	-0.025
-408.325	92.660	-0.256	-0.291
-407.311	-200.000	-0.019	0.236
-406.296	-200.000	-0.005	0.083
-405.282	-200.000	-0.011	0.120
-404.267	175.539	-0.077	0.112
-403.252	93.638	-0.249	-0.284
-402.238	22.961	0.187	-0.154
-401.223	-116.093	-0.269	0.050
-400.209	-194.046	-0.068	0.001
-399.194	-43.639	0.063	0.032
-398.179	-24.684	-0.039	0.023
-397.165	-105.567	-0.317	0.072
-396.150	-52.319	0.223	-0.104
-395.136	0.455	-0.261	-0.188
-394.121	-200.000	0.000	0.233
-393.106	-200.000	0.025	-0.202
-392.092	236.120	-0.036	0.060
-391.077	61.601	0.354	-0.354
-390.063	-149.945	0.227	-0.018
-389.048	115.806	0.204	0.252
-388.033	-200.000	-0.020	-0.204
-387.019	429.777	0.135	0.295
-386.004	-200.000	0.007	-0.112
-384.990	-44.863	0.226	-0.113
-383.975	-200.000	-0.050	0.237
-382.960	539.524	0.083	-0.199
-381.946	-41.256	-0.094	-0.049
-380.931	-119.717	-0.074	-0.013
-379.917	-57.866	-0.230	-0.101
-378.902	-104.473	0.068	0.016
-377.888	416.431	0.193	0.413
-376.873	120.324	0.142	-0.178
-375.858	41.398	-0.071	0.064
-374.844	7.590	-0.124	0.093
-373.829	273.269	0.158	0.281
-372.815	-81.403	-0.293	0.097
-371.800	-200.000	0.026	0.177
-370.785	800.000	-0.081	0.266
-369.771	-95.301	-0.358	-0.097
-368.756	-161.106	-0.601	0.032
-367.742	264.559	0.206	0.361
-366.727	-60.642	-0.336	-0.143
-365.712	-91.189	0.034	0.010
-364.698	-200.000	-0.012	-0.054
-363.683	1.012	-0.284	-0.205
-362.669	193.950	-0.207	-0.315
-361.654	-200.000	0.013	0.253
-360.639	132.645	0.186	0.242
-359.625	-161.913	0.076	-0.004
-358.610	-200.000	0.006	0.164
-357.596	14.187	0.145	-0.113
-356.581	800.000	-0.105	0.307
-355.566	98.140	0.134	-0.155
-354.552	-30.750	-0.522	-0.297
-353.537	359.640	0.029	0.058
-352.523	-44.410	0.044	-0.022
-351.508	337.795	-0.160	-0.313
-350.493	-72.992	-0.404	-0.149
-349.479	14.984	-0.178	-0.140
-348.464	-125.424	0.038	-0.006
-347.450	-143.223	0.086	-0.008
-346.435	57.939	0.147	-0.144
-345.420	157.963	0.163	-0.227
-344.406	-55.189	0.219	-0.099
-343.391	400.181	-0.110	-0.232
-342.377	-84.794	0.047	0.015
-341.362	65.730	-0.235	0.239
-340.348	51.937	0.052	-0.050
-339.333	-200.000	-0.004	-0.327
-338.318	-70.505	-0.090	-0.034
-337.304	14.581	-0.092	0.072
-336.289	-200.000	0.002	0.669
-335.275	207.550	0.121	0.190
-334.260	800.000	-0.023	0.076
-333.245	88.037	-0.106	0.118
-332.231	800.000	0.049	0.173
-331.216	7.158	0.126	-0.094
-330.202	78.408	-0.201	0.216
-329.187	-100.184	-0.179	0.045
-328.172	786.675	-0.073	-0.200
-327.158	499.601	-0.089	0.207
-326.143	520.376	-0.100	-0.236
-325.129	-200.000	0.017	0.104
-324.114	-9.477	-0.198	-0.133
-323.099	28.028	-0.300	0.254
-322.085	-79.002	0.404	-0.138
-321.070	158.964	-0.041	0.057
-320.056	33.480	0.115	-0.100
-319.041	616.948	-0.092	0.230
-318.026	-57.279	-0.014	0.006
-317.012	-200.000	0.013	0.194
-315.997	-62.454	-0.104	0.043
-314.983	480.727	-0.218	0.497
-313.968	205.702	-0.103	-0.161
-312.953	81.290	0.109	-0.118
-311.939	-200.000	-0.042	0.214
-310.924	253.474	-0.088	0.151
-309.910	-200.000	-0.019	0.289
-308.895	800.000	-0.072	-0.243
-307.880	800.000	0.131	-0.430
-306.866	-200.000	0.006	-0.038
-305.851	66.004	-0.104	-0.106
-304.837	-62.900	-0.115	-0.048
-303.822	-200.000	-0.029	0.339
-302.807	184.799	0.237	-0.353
-301.793	800.000	-0.031	-0.102
-300.778	-103.113	0.239	0.057
-299.764	-10.708	0.209	0.138
-298.749	226.235	-0.076	-0.124
-297.735	-13.479	0.266	-0.173
-296.720	228.263	-0.091	-0.149
-295.705	-200.000	0.081	0.425
-294.691	-59.903	-0.347	-0.149
-293.676	-200.000	0.023	0.117
-292.662	800.000	-0.023	-0.075
-291.647	-165.422	-0.466	0.020
-290.632	668.705	-0.051	0.133
-289.618	41.518	0.160	0.145
-288.603	-0.522	0.105	0.075
-287.589	-62.630	0.095	0.039
-286.574	56.122	0.186	0.181
-285.559	294.836	-0.073	-0.134
-284.545	-200.000	-0.008	-0.038
-283.530	800.000	0.125	0.374
-282.516	50.676	-0.268	0.255
-281.501	-84.721	-0.161	-0.051
-280.486	-24.432	-0.102	0.061
-279.472	21.887	0.429	-0.350
-278.457	219.073	0.048	-0.077
-277.443	-200.000	-0.034	-0.248
-276.428	369.559	-0.102	0.206
-275.413	345.109	-0.048	0.094
-274.399	-200.000	0.042	0.189
-273.384	-90.806	0.314	0.091
-272.370	167.629	0.161	0.229
-271.355	-55.474	0.297	0.133
-270.340	46.630	0.126	-0.117
-269.326	-147.882	0.457	-0.038
-268.311	-137.255	-0.017	0.002
-267.297	-200.000	-0.009	-0.276
-266.282	4.997	-0.088	0.065
-265.267	-200.000	-0.050	0.235
-264.253	179.557	0.015	-0.022
-263.238	328.230	-0.043	0.083
-262.224	57.292	0.094	-0.092
-261.209	605.537	-0.085	-0.212
-260.195	-200.000	-0.028	0.204
-259.180	-69.389	-0.066	-0.025
-258.165	106.631	-0.207	-0.246
-257.151	-200.000	-0.004	-0.237
-256.136	-200.000	-0.027	-0.301
-255.122	522.353	-0.215	-0.505
-254.107	-28.084	-0.258	0.149
-253.092	68.787	0.170	-0.175
-252.078	-121.644	0.189	-0.031
-251.063	-17.134	-0.084	0.053
-250.049	85.849	-0.205	-0.226
-249.034	-64.867	0.131	-0.053
-248.019	-80.144	-0.372	-0.125
-247.005	591.248	0.155	0.384
-245.990	108.693	-0.168	0.201
-244.976	-200.000	0.037	-0.276
-243.961	-200.000	0.023	-0.138
-242.946	-200.000	-0.009	-0.324
-241.932	-200.000	0.007	0.202
-240.917	13.547	-0.219	-0.170
-239.903	262.492	-0.058	0.101
-238.888	-37.264	0.158	0.085
-237.873	-55.800	0.304	0.136
-236.859	-117.050	0.358	-0.065
-235.844	-200.000	-0.019	-0.331
-234.830	-200.000	0.021	0.118
-233.815	-42.612	0.312	0.159
-232.800	800.000	-0.046	0.170
-231.786	-174.325	-0.302	0.009
-230.771	95.646	0.150	0.171
-229.757	-15.757	0.150	0.095
-228.742	13.956	-0.177	0.138
-227.727	-200.000	-0.019	0.115
-226.713	375.608	0.092	-0.188
-225.698	800.000	0.059	0.198
-224.684	-83.071	-0.271	0.087
-223.669	-31.330	-0.089	0.050
-222.655	-101.433	0.196	-0.048
-221.640	83.374	0.264	0.287
-220.625	-11.792	0.200	-0.131
-219.611	-123.836	-0.198	0.031
-218.596	-28.145	-0.150	0.087
-217.582	10.252	0.288	-0.219
-216.567	-36.597	-0.227	0.122
-215.552	-200.000	-0.027	-0.189
-214.538	-74.526	-0.164	0.059
-213.523	189.109	0.124	-0.185
-212.509	147.442	-0.186	-0.250
-211.494	-33.943	0.405	-0.223
-210.479	-119.293	0.074	0.013
-209.465	141.382	-0.267	-0.354
-208.450	800.000	-0.023	-0.080
-207.436	277.320	-0.123	-0.218
-206.421	-5.236	0.159	0.109
-205.406	-200.000	-0.020	0.183
-204.392	294.034	-0.067	0.123
-203.377	512.944	0.079	-0.184
-202.363	-186.740	-0.253	0.004
-201.348	-195.781	-0.162	0.001
-200.333	138.951	-0.163	0.214
-199.319	-62.701	0.099	-0.041
-198.304	-80.403	-0.432	-0.144
-197.290	-122.210	0.081	0.013
-196.275	174.007	0.170	0.246
-195.260	800.000	-0.065	0.192
-194.246	43.997	0.257	-0.235
-193.231	255.636	0.052	0.088
-192.217	-200.000	-0.036	0.194
-191.202	-200.000	0.012	0.167
-190.187	55.965	0.106	-0.103
-189.173	49.900	0.253	-0.238
-188.158	-200.000	0.003	0.030
-187.144	-200.000	0.001	0.302
-186.129	-200.000	0.062	0.288
-185.114	-200.000	-0.012	0.102
-184.100	-200.000	0.073	0.319
-183.085	-185.573	0.413	-0.006
-182.071	269.801	-0.105	0.184
-181.056	-2.698	-0.137	-0.095
-180.042	-73.081	-0.139	0.051
-179.027	189.143	0.167	-0.250
-178.012	72.863	-0.225	0.235
-176.998	-200.000	0.007	0.188
-175.983	-33.235	-0.110	-0.061
-174.969	800.000	-0.073	-0.264
-173.954	-24.402	0.118	0.070
-172.939	-54.055	-0.144	0.065
-171.925	800.000	0.099	0.284
-170.910	-200.000	0.017	-0.107
-169.896	-200.000	-0.005	0.048
-168.881	-133.006	0.212	-0.027
-167.866	-113.844	0.114	-0.022
-166.852	8.190	-0.131	0.098
-165.837	199.679	0.046	0.070
-164.823	19.632	0.181	0.145
-163.808	-200.000	0.004	0.157
-162.793	20.455	0.139	-0.112
-161.779	58.171	-0.010	-0.010
-160.764	-200.000	-0.328	-0.001
-159.750	-123.395	-0.133	0.021
-158.735	-35.324	0.137	0.074
-157.720	-200.000	-0.016	0.238
-156.706	-57.126	-0.114	-0.050
-155.691	-200.000	0.005	-0.153
-154.677	637.865	-0.052	-0.133
-153.662	129.675	0.205	-0.261
-152.647	274.006	-0.097	0.171
-151.633	-104.085	0.230	-0.053
-150.618	-145.861	-0.282	-0.025
-149.604	398.889	0.066	0.139
-148.589	-165.774	-0.414	0.018
-147.574	-103.672	0.112	-0.026
-146.560	800.000	0.050	-0.192
-145.545	-126.381	0.294	-0.044
-144.531	584.900	0.061	0.150
-143.516	-3.636	-0.187	-0.129
-142.502	231.457	0.196	0.320
-141.487	-167.772	-0.287	-0.011
-140.472	-23.135	-0.090	0.054
-139.458	446.974	-0.090	-0.197
-138.443	40.554	-0.117	0.105
-137.429	302.981	0.123	0.226
-136.414	170.883	-0.228	-0.326
-135.399	-125.343	0.166	-0.025
-134.385	-99.684	0.239	-0.060
-133.370	-200.000	0.002	0.092
-132.356	-88.158	0.264	-0.079
-131.341	800.000	0.120	0.341
-130.326	-200.000	0.237	0.000
-129.312	-200.000	-0.033	-0.163
-128.297	168.235	0.142	0.202
-127.283	22.453	0.120	-0.098
-126.268	-108.396	-0.295	-0.063
-125.253	209.410	0.260	-0.406
-124.239	44.751	-0.045	-0.041
-123.224	21.567	0.321	-0.260
-122.210	-161.006	-0.062	0.003
-121.195	-70.920	-0.245	0.092
-120.180	61.970	-0.217	0.215
-119.166	76.062	-0.122	0.129
-118.151	800.000	0.034	-0.110
-117.137	-200.000	0.067	-0.403
-116.122	42.076	-0.068	0.061
-115.107	-61.941	0.129	-0.054
-114.093	-137.877	0.231	-0.026
-113.078	800.000	0.025	0.106
-112.064	67.365	0.125	0.127
-111.049	-94.397	0.500	0.136
-110.034	-89.635	-0.225	0.066
-109.020	-69.562	-0.074	-0.028
-108.005	-59.774	-0.174	0.074
-106.991	289.687	0.066	0.120
-105.976	800.000	-0.017	0.064
-104.962	-13.319	-0.233	0.151
-103.947	98.538	-0.153	0.176
-102.932	-79.738	-0.277	-0.093
-101.918	-200.000	0.013	0.253
-100.903	-78.519	0.203	-0.069
-99.889	800.000	0.121	-0.334
-98.874	-200.000	0.413	-0.001
-97.859	-200.000	-0.014	-0.179
-96.845	800.000	0.099	0.356
-95.830	800.000	0.064	0.239
-94.816	-63.738	-0.174	-0.071
-93.801	800.000	-0.077	0.309
-92.786	-183.026	0.135	-0.002
-91.772	-200.000	-0.030	0.174
-90.757	2.317	-0.119	-0.086
-89.743	261.381	-0.118	-0.204
-88.728	-200.000	-0.165	-0.001
-87.713	-140.059	-0.145	-0.015
-86.699	32.327	-0.162	-0.139
-85.684	-200.000	-0.010	-0.042
-84.670	-163.163	0.106	-0.005
-83.655	800.000	-0.046	-0.195
-82.640	95.113	-0.036	-0.041
-81.626	-200.000	-0.053	0.376
-80.611	234.554	-0.188	-0.308
-79.597	641.659	-0.140	0.354
-78.582	264.068	-0.186	-0.322
-77.567	-163.293	0.208	0.010
-76.553	-200.000	-0.009	-0.151
-75.538	-114.494	0.268	0.051
-74.524	-179.248	0.323	-0.007
-73.509	-122.494	-0.275	0.045
-72.494	125.318	-0.171	0.214
-71.480	800.000	0.050	0.196
-70.465	98.242	0.317	0.363
-69.451	-200.000	0.037	0.226
-68.436	-12.684	-0.136	-0.088
-67.422	16.741	0.099	-0.078
-66.407	-56.066	-0.176	0.078
-65.392	-121.531	0.158	0.026
-64.378	-200.000	-0.002	0.302
-63.363	-136.982	0.164	0.019
-62.349	186.586	0.166	-0.245
-61.334	-18.632	-1.306	-0.809
-60.319	612.187	0.061	0.151
-59.305	323.768	-0.529	-1.002
-58.290	7.139	0.744	0.551
-57.276	631.528	0.579	1.455
-56.261	-200.000	89.294	502.175
-55.246	531.929	1394.083	3276.121
-54.232	185.211	2598.485	3830.816
-53.217	120.612	2202.199	2718.176
-52.203	48.382	1651.541	1535.839
-51.188	40.725	1384.115	1239.542
-50.173	37.380	1340.643	1180.288
-49.159	56.266	1386.282	1337.513
-48.144	60.994	1404.310	1384.039
-47.130	41.173	1360.666	1221.093
-46.115	37.444	1343.364	1182.884
-45.100	37.197	1338.640	1177.184
-44.086	37.212	1336.213	1175.090
-43.071	37.118	1333.720	1172.282
-42.057	37.040	1331.770	1170.054
-41.042	37.174	1330.000	1169.262
-40.027	37.239	1328.330	1168.139
-39.013	37.130	1326.737	1166.037
-37.998	37.226	1324.790	1164.851
-36.984	37.221	1323.033	1163.233
-35.969	37.336	1320.624	1161.756
-34.954	37.359	1318.773	1160.220
-33.940	37.367	1317.063	1158.718
-32.925	37.423	1315.860	1157.944
-31.911	37.433	1314.833	1157.055
-30.896	37.463	1313.384	1155.913
-29.881	37.443	1311.983	1154.511
-28.867	37.517	1310.240	1153.375
-27.852	37.339	1309.118	1151.285
-26.838	37.451	1307.479	1150.463
-25.823	37.349	1306.540	1148.985
-24.809	37.410	1304.629	1147.623
-23.794	37.446	1303.354	1146.663
-22.779	37.443	1302.048	1145.453
-21.765	37.424	1300.662	1144.079
-20.750	37.353	1299.530	1142.616
-19.736	37.337	1298.198	1141.309
-18.721	37.290	1296.866	1139.815
-17.706	37.238	1296.025	1138.725
-16.692	37.284	1294.005	1137.173
-15.677	37.291	1293.055	1136.337
-14.663	37.302	1291.807	1135.256
-13.648	37.281	1290.851	1134.252
-12.633	37.208	1290.404	1133.389
-11.619	37.327	1289.042	1132.842
-10.604	37.168	1288.688	1131.556
-9.590	37.173	1287.398	1130.408
-8.575	37.257	1286.254	1129.848
-7.560	37.122	1285.720	1128.547
-6.546	37.246	1284.230	1127.919
-5.531	37.196	1283.753	1127.164
-4.517	37.340	1282.312	1126.688
-3.502	37.321	1281.378	1125.713
-2.487	37.256	1280.421	1124.449
-1.473	37.223	1276.597	1120.856
-0.458	35.673	1261.719	1098.898
0.556	31.540	1242.140	1055.963
1.571	27.300	1245.826	1034.942
2.586	25.848	1260.211	1038.436
3.600	24.855	1248.358	1022.908
4.615	18.555	1174.667	928.443
5.629	9.295	1096.373	819.483
6.644	5.186	1074.009	782.142
7.659	4.832	1071.898	778.766
8.673	4.939	1070.643	778.321
9.688	4.904	1069.489	777.239
10.702	4.954	1068.032	776.361
11.717	10.136	1074.796	807.126
12.731	17.957	1086.657	855.280
13.746	20.301	1088.659	868.525
14.761	19.096	1086.123	860.404
15.775	17.939	1083.992	852.863
16.790	16.926	1081.696	845.930
17.804	16.304	1079.938	841.383
18.819	15.816	1079.215	838.313
19.834	15.492	1078.407	836.000
20.848	15.369	1077.399	834.532
21.863	15.252	1076.253	832.992
22.877	15.044	1075.880	831.596
23.892	15.051	1074.781	830.705
24.907	14.932	1074.890	830.128
25.921	15.193	1073.010	829.895
26.936	15.182	1071.546	828.635
27.950	15.166	1070.411	827.604
28.965	15.147	1069.255	826.541
29.980	15.357	1067.270	825.971
30.994	15.312	1066.583	825.146
32.009	15.437	1065.215	824.628
33.023	15.356	1064.582	823.664
34.038	15.392	1063.495	822.930
35.053	15.188	1062.662	821.210
36.067	15.163	1061.485	820.105
37.082	15.273	1060.737	819.992
38.096	15.259	1060.040	819.313
39.111	15.384	1059.454	819.400
40.126	15.053	1058.498	816.974
41.140	15.089	1057.103	815.998
42.155	14.990	1055.579	814.270
43.169	14.919	1054.577	813.078
44.184	15.120	1052.878	812.671
45.199	14.886	1052.325	811.038
46.213	15.038	1051.277	810.898
47.228	15.180	1050.509	810.918
48.242	15.112	1049.448	809.698
49.257	15.114	1048.627	809.006
50.271	15.110	1048.012	808.440
51.286	15.155	1046.868	807.701
52.301	15.135	1045.911	806.795
53.315	15.096	1044.361	805.340
54.330	14.983	1043.664	804.191
55.344	15.054	1042.209	803.336
56.359	14.993	1041.794	802.653
57.374	14.976	1040.932	801.839
58.388	14.869	1039.842	800.413
59.403	14.874	1039.174	799.852
60.417	15.008	1038.080	799.580
61.432	14.917	1037.469	798.604
62.447	14.780	1036.831	797.388
63.461	15.058	1035.351	797.505
64.476	14.897	1034.690	796.158
65.490	14.806	1034.341	795.385
66.505	14.890	1033.613	795.156
67.520	14.893	1032.393	794.162
68.534	14.832	1031.932	793.446
69.549	14.880	1031.479	793.258
70.563	14.896	1030.349	792.394
71.578	14.763	1029.808	791.276
72.593	14.671	1029.067	790.203
73.607	14.671	1028.555	789.739
74.622	14.742	1027.777	789.410
75.636	14.765	1027.283	789.067
76.651	14.760	1026.437	788.325
77.666	14.812	1025.601	787.857
78.680	14.694	1025.197	786.919
79.695	14.699	1024.651	786.456
80.709	14.918	1024.059	786.961
81.724	14.985	1023.191	786.540
82.739	15.133	1022.355	786.523
83.753	15.127	1022.213	786.315
84.768	15.200	1021.143	785.764
85.782	15.373	1019.983	785.615
86.797	15.375	1019.035	784.825
87.812	15.250	1018.438	783.711
88.826	15.250	1017.204	782.694
89.841	15.127	1016.424	781.448
90.855	15.397	1015.115	781.630
91.870	15.293	1014.597	780.679
92.884	15.493	1013.219	780.481
93.899	15.357	1012.619	779.317
94.914	15.407	1012.215	779.167
95.928	15.394	1011.045	778.138
96.943	15.268	1010.051	776.719
97.957	15.332	1009.189	776.286
98.972	15.353	1008.148	775.514
99.987	15.414	1007.101	774.921
101.001	15.153	1007.189	773.712
102.016	15.182	1005.827	772.734
103.030	15.471	1004.844	773.239
104.045	15.204	1004.820	771.926
105.060	15.228	1003.230	770.744
106.074	14.874	1002.583	768.552
107.089	14.982	1000.994	767.764
108.103	14.963	1000.326	767.095
109.118	14.931	999.238	766.046
110.133	14.972	998.273	765.427
111.147	14.871	997.527	764.324
112.162	15.020	996.805	764.384
113.176	15.024	996.251	763.909
114.191	15.167	995.435	763.868
115.206	15.171	994.387	763.014
116.220	15.085	993.717	762.042
117.235	15.028	992.516	760.797
118.249	14.948	992.194	760.119
119.264	14.938	990.781	758.921
120.279	14.913	989.885	758.057
121.293	14.950	989.530	757.886
122.308	14.959	988.278	756.900
123.322	14.888	987.247	755.721
124.337	14.812	986.336	754.615
125.352	14.902	985.190	754.074
126.366	14.996	984.001	753.525
127.381	15.021	983.041	752.834
128.395	15.017	982.384	752.248
129.410	15.005	981.130	751.165
130.424	15.010	980.746	750.827
131.439	15.089	980.083	750.608
132.454	15.102	979.475	750.134
133.468	15.142	978.477	749.484
134.483	15.239	977.347	748.984
135.497	15.172	976.641	748.078
136.512	15.325	975.536	747.849
137.527	15.141	974.517	746.179
138.541	15.077	974.661	745.939
139.556	15.262	974.080	746.251
140.570	15.317	972.945	745.559
141.585	15.302	972.335	744.960
142.600	15.487	970.972	744.672
143.614	15.536	970.661	744.584
144.629	15.525	969.341	743.456
145.643	15.436	968.477	742.334
146.658	15.281	967.430	740.780
147.673	15.234	966.334	739.669
148.687	15.310	965.491	739.294
149.702	15.162	964.933	738.148
150.716	15.121	963.927	737.134
151.731	15.253	962.869	736.841
152.746	15.225	962.483	736.359
153.760	15.251	961.923	735.978
154.775	15.263	961.496	735.637
155.789	15.374	960.506	735.303
156.804	15.410	959.445	734.581
157.819	15.432	959.087	734.340
158.833	15.547	958.825	734.576
159.848	15.571	957.799	733.833
160.862	15.382	957.057	732.373
161.877	15.360	955.500	731.018
162.892	15.309	954.388	729.884
163.906	15.245	953.687	729.003
164.921	15.250	952.943	728.394
165.935	15.300	952.035	727.849
166.950	15.515	951.137	728.031
167.964	15.228	950.613	726.325
168.979	15.236	949.313	725.299
169.994	15.330	948.750	725.211
171.008	15.466	947.878	725.068
172.023	15.434	947.234	724.374
173.037	15.430	946.882	724.025
174.052	15.274	946.238	722.795
175.067	15.329	944.861	721.914
176.081	15.388	944.224	721.619
177.096	15.239	944.488	721.115
178.110	15.294	943.540	720.564
179.125	15.427	942.679	720.412
180.140	15.406	942.451	720.088
181.154	15.426	942.124	719.857
182.169	15.565	941.549	719.950
183.183	15.504	941.157	719.327
184.198	15.606	939.817	718.674
185.213	15.604	939.233	718.158
186.227	15.646	938.920	718.032
187.242	15.755	938.085	717.795
188.256	15.778	937.822	717.631
189.271	15.707	936.768	716.458
190.286	15.599	935.317	714.825
191.300	15.336	934.844	713.282
192.315	15.262	934.124	712.354
193.329	15.282	933.941	712.238
194.344	15.371	932.974	711.813
195.359	15.446	932.553	711.745
196.373	15.597	931.683	711.660
197.388	15.740	931.517	712.075
198.402	15.880	930.980	712.195
199.417	15.759	930.635	711.358
200.432	16.018	929.740	711.702
201.446	15.935	929.595	711.179
202.461	16.062	928.655	710.934
203.475	16.028	928.195	710.375
204.490	15.851	927.446	708.993
205.504	15.703	926.441	707.537
206.519	15.816	925.397	707.153
207.534	15.935	924.906	707.216
208.548	15.802	924.381	706.194
209.563	15.732	923.711	705.324
210.577	15.793	923.446	705.316
211.592	15.920	922.667	705.190
212.607	15.952	921.710	704.532
213.621	15.996	920.706	703.885
214.636	15.949	920.797	703.697
215.650	16.042	919.794	703.257
216.665	16.084	919.215	702.926
217.680	16.142	918.367	702.455
218.694	16.092	917.766	701.727
219.709	16.196	916.922	701.451
220.723	16.139	916.267	700.654
221.738	16.166	915.355	700.004
222.753	15.995	914.928	698.908
223.767	16.139	914.810	699.351
224.782	16.272	913.708	698.998
225.796	16.302	913.369	698.800
226.811	16.338	912.589	698.293
227.826	16.206	911.983	697.219
228.840	16.128	911.246	696.273
229.855	16.246	909.899	695.669
230.869	16.146	909.568	694.944
231.884	15.959	909.238	693.859
232.899	16.022	908.199	693.262
233.913	15.938	907.540	692.354
234.928	16.053	907.137	692.457
235.942	16.135	906.154	691.983
236.957	16.144	905.599	691.533
237.972	16.031	905.321	690.798
238.986	16.139	904.606	690.635
240.001	16.126	903.871	689.957
241.015	16.100	903.300	689.354
242.030	16.187	902.806	689.271
243.045	16.330	901.902	689.104
244.059	16.305	901.396	688.553
245.074	16.329	900.753	688.099
246.088	16.398	900.187	687.889
247.103	16.385	899.463	687.223
248.117	16.480	899.512	687.585
249.132	16.751	898.779	688.062
250.147	16.652	898.194	687.153
251.161	16.746	897.885	687.238
252.176	16.746	896.781	686.331
253.190	16.755	896.050	685.747
254.205	16.825	895.521	685.567
255.220	16.829	894.512	684.750
256.234	16.763	894.125	684.125
257.249	16.932	893.301	684.117
258.263	16.763	892.952	683.108
259.278	16.763	891.956	682.285
260.293	16.948	891.432	682.570
261.307	17.011	891.131	682.530
262.322	16.968	890.556	681.857
263.336	16.922	889.980	681.169
264.351	16.939	889.066	680.481
265.366	17.021	888.330	680.186
266.380	17.070	887.673	679.817
267.395	16.920	886.906	678.568
268.409	16.947	886.195	678.074
269.424	16.988	885.521	677.661
270.439	16.966	884.696	676.882
271.453	17.002	884.122	676.528
272.468	16.900	883.509	675.590
273.482	16.979	882.733	675.254
274.497	17.015	882.561	675.206
275.512	16.946	881.964	674.414
276.526	16.801	881.672	673.554
277.541	17.049	881.065	674.018
278.555	17.011	880.610	673.460
279.570	17.081	879.535	672.852
280.585	17.199	878.856	672.740
281.599	17.033	878.290	671.592
282.614	17.014	877.315	670.714
283.628	17.074	876.731	670.442
284.643	17.075	875.947	669.789
285.657	17.005	875.681	669.250
286.672	16.978	875.269	668.768
287.687	17.062	874.539	668.484
288.701	17.005	874.066	667.837
289.716	17.260	873.147	668.079
290.730	17.242	872.792	667.679
291.745	17.172	872.048	666.777
292.760	17.307	871.196	666.596
293.774	17.382	870.821	666.541
294.789	17.236	870.393	665.582
295.803	17.268	869.428	664.913
296.818	17.183	868.525	663.831
297.833	17.230	867.904	663.480
298.847	17.312	867.816	663.673
299.862	17.326	866.887	662.962
300.876	17.454	866.401	663.029
301.891	17.424	865.874	662.451
302.906	17.539	865.488	662.544
303.920	17.505	864.989	661.972
304.935	17.426	864.374	661.132
305.949	17.576	863.635	661.094
306.964	17.287	863.248	659.615
307.979	17.510	862.317	659.713
308.993	17.568	861.809	659.490
310.008	17.583	861.290	659.093
311.022	17.643	860.306	658.513
312.037	17.525	860.041	657.795
313.052	17.381	859.796	656.994
314.066	17.322	859.089	656.169
315.081	17.363	858.316	655.676
316.095	17.419	857.680	655.348
317.110	17.429	857.353	655.080
318.125	17.397	856.565	654.295
319.139	17.422	856.422	654.226
320.154	17.494	856.068	654.174
321.168	17.392	855.302	653.140
322.183	17.553	854.244	652.889
323.197	17.477	854.357	652.628
324.212	17.548	853.570	652.239
325.227	17.598	852.789	651.778
326.241	17.657	851.708	651.119
327.256	17.465	851.527	650.189
328.270	17.415	851.435	649.869
329.285	17.498	850.897	649.718
330.300	17.594	850.076	649.399
331.314	17.710	849.143	649.073
332.329	17.619	848.769	648.382
333.343	17.577	848.921	648.282
334.358	17.587	848.066	647.609
335.373	17.811	847.817	648.214
336.387	17.761	847.600	647.801
337.402	17.810	847.401	647.775
338.416	17.822	846.961	647.426
339.431	18.007	846.533	647.747
340.446	18.024	846.129	647.443
341.460	17.964	845.820	646.924
342.475	18.065	845.138	646.725
343.489	17.962	844.889	646.088
344.504	18.160	844.257	646.295
345.519	18.182	843.895	646.047
346.533	18.122	843.348	645.344
347.548	18.112	842.486	644.590
348.562	17.869	842.334	643.497
349.577	17.817	841.863	642.884
350.592	18.001	840.474	642.458
351.606	17.949	840.083	641.908
352.621	17.949	839.446	641.366
353.635	18.027	838.561	640.926
354.650	18.144	837.953	640.841
355.665	18.078	837.842	640.455
356.679	17.978	837.446	639.718
357.694	17.972	836.546	638.955
358.708	18.141	835.572	638.785
359.723	18.169	835.471	638.755
360.738	18.043	834.585	637.551
361.752	18.245	833.895	637.722
362.767	18.339	833.602	637.790
363.781	18.224	833.457	637.194
364.796	18.365	833.170	637.443
365.810	18.390	832.368	636.868
366.825	18.496	832.276	637.134
367.840	18.497	831.465	636.460
368.854	18.328	831.018	635.437
369.869	18.338	830.692	635.166
370.883	18.392	830.101	634.858
371.898	18.423	829.734	634.636
372.913	18.602	829.100	634.759
373.927	18.493	828.935	634.170
374.942	18.454	828.310	633.494
375.956	18.452	827.809	633.045
376.971	18.749	827.007	633.474
377.986	18.706	827.183	633.392
379.000	18.666	826.486	632.656
380.015	18.703	826.082	632.429
381.029	18.679	825.421	631.778
382.044	18.697	824.770	631.289
383.059	18.896	824.150	631.488
384.073	18.638	823.832	630.243
385.088	18.585	823.166	629.484
386.102	18.583	822.399	628.833
387.117	18.630	821.902	628.570
388.132	18.547	821.409	627.832
389.146	18.646	820.639	627.551
390.161	18.683	820.418	627.464
391.175	18.814	819.655	627.302
392.190	18.857	819.123	626.994
393.205	18.791	818.604	626.302
394.219	18.638	818.420	625.548
395.234	18.537	818.141	624.913
396.248	18.390	817.676	623.965
397.263	18.629	816.896	624.186
398.278	18.622	816.432	623.749
399.292	18.423	816.486	623.012
400.307	18.446	815.870	622.569
401.321	18.703	815.027	622.805
402.336	18.812	814.421	622.681
403.350	18.766	813.891	622.054
404.365	18.859	814.061	622.467
405.380	18.766	813.855	621.918
406.394	18.894	813.010	621.680
407.409	19.023	812.685	621.842
408.423	18.908	812.492	621.223
409.438	19.160	811.968	621.677
410.453	19.169	811.579	621.357
411.467	19.011	811.240	620.475
412.482	19.017	810.983	620.242
413.496	19.250	810.426	620.602
414.511	19.316	809.826	620.323
415.526	19.203	809.456	619.579
416.540	19.110	809.192	618.989
417.555	19.136	808.689	618.645
418.569	19.192	808.080	618.323
419.584	19.148	807.636	617.770
420.599	19.254	807.229	617.783
421.613	152.744	1369.146	1783.437
422.628	132.565	1451.041	1783.534
