DTS Sentinel unit serial number:	SN413079Multiplexer serial number:	ORYXHardware model number:	OX4-SRSoftware version number:	ORYX F/W v4.00 Oryx Data Collector v3.7.2.0data status	okinstallation	princeton_trtdifferential loss correction	single-endedforward channel	channel 1reverse channel	N/Adate	2019/09/13time	21:22:35forward acquisition time	60.00reverse acquisition time	0.00gamma	496.2192k internal	0.2331k external	0.2331temperature offset calibration	1.0080default loss term (dB/km)	0.3790temperature slope calibration	1.0000multiplexer offset coefficient	1.0000multiplexer slope coefficient	1.0000fibre end	0.00T internal ref (°C)	28.37T ext. ref 1 (°C)	3.11T ext. ref 2 (°C)	22.91length (m)	temperature (°C)	Stokes	anti-Stokes-747.200	-98.747	0.163	0.042
-746.185	14.543	-0.325	0.255
-745.171	-134.134	0.068	0.008
-744.156	-200.000	0.017	0.435
-743.142	236.954	0.037	-0.062
-742.127	161.303	-0.017	-0.024
-741.112	-142.353	-0.254	0.025
-740.098	218.528	0.086	-0.138
-739.083	-94.706	0.124	0.034
-738.069	-135.806	-0.292	-0.035
-737.054	-148.553	-0.134	-0.011
-736.039	-80.215	-0.412	-0.139
-735.025	30.525	0.321	0.276
-734.010	131.653	-0.073	-0.095
-732.996	87.913	-0.100	0.111
-731.981	-200.000	0.003	-0.028
-730.966	-29.639	0.194	-0.111
-729.952	98.495	-0.203	-0.235
-728.937	-46.813	-0.157	-0.077
-727.923	265.095	-0.186	0.327
-726.908	197.371	0.143	0.220
-725.894	25.380	-0.190	-0.159
-724.879	54.958	0.172	0.167
-723.864	-108.655	-0.232	-0.050
-722.850	6.962	0.074	0.055
-721.835	163.061	-0.245	0.346
-720.821	-88.291	-0.172	0.052
-719.806	-32.764	0.128	-0.072
-718.791	-41.907	-0.186	-0.096
-717.777	-200.000	0.001	0.049
-716.762	-46.689	-0.240	0.118
-715.748	-168.595	-0.245	0.009
-714.733	-200.000	-0.006	-0.282
-713.718	800.000	0.028	0.110
-712.704	-69.026	-0.157	-0.061
-711.689	43.696	0.286	0.263
-710.675	155.129	-0.041	0.057
-709.660	-200.000	-0.042	-0.297
-708.645	162.577	0.103	-0.145
-707.631	-17.394	0.248	0.157
-706.616	173.144	0.090	0.130
-705.602	-55.298	0.156	0.070
-704.587	-32.768	-0.183	0.102
-703.572	-67.086	0.425	-0.168
-702.558	-41.597	-0.366	-0.189
-701.543	-200.000	0.027	0.253
-700.529	12.495	0.027	0.021
-699.514	10.882	-0.092	-0.071
-698.499	130.130	-0.042	0.054
-697.485	-200.000	0.048	-0.215
-696.470	-86.314	0.117	0.036
-695.456	40.491	0.145	0.131
-694.441	54.411	-0.168	-0.162
-693.426	151.117	-0.115	-0.158
-692.412	52.681	0.131	-0.126
-691.397	-63.486	0.145	-0.060
-690.383	86.500	0.086	0.096
-689.368	4.938	0.191	0.141
-688.354	-200.000	-0.019	-0.132
-687.339	-152.471	-0.246	0.018
-686.324	144.114	0.065	0.087
-685.310	-73.856	0.144	-0.053
-684.295	-200.000	-0.071	-0.421
-683.281	357.443	-0.223	-0.447
-682.266	-148.311	0.255	-0.021
-681.251	41.432	-0.212	0.192
-680.237	-89.996	-0.131	-0.038
-679.222	-97.585	0.277	-0.072
-678.208	-200.000	-0.047	-0.256
-677.193	44.005	0.153	-0.141
-676.178	800.000	0.082	-0.244
-675.164	-200.000	-0.020	-0.286
-674.149	23.525	-0.338	-0.279
-673.135	213.785	-0.017	-0.028
-672.120	-65.605	-0.086	-0.035
-671.105	296.713	-0.196	-0.360
-670.091	40.967	-0.303	-0.274
-669.076	218.285	0.051	0.082
-668.062	-200.000	0.039	-0.183
-667.047	388.588	-0.047	-0.098
-666.032	-64.072	0.326	-0.133
-665.018	-200.000	-0.049	-0.320
-664.003	-42.308	-0.269	0.138
-662.989	800.000	-0.061	-0.226
-661.974	-200.000	-0.009	-0.194
-660.959	800.000	-0.031	-0.114
-659.945	373.044	-0.217	-0.443
-658.930	390.912	-0.115	-0.239
-657.916	-96.247	-0.242	0.064
-656.901	-200.000	-0.004	-0.176
-655.886	-3.478	-0.143	0.100
-654.872	69.717	0.182	-0.189
-653.857	800.000	0.082	-0.311
-652.843	201.572	-0.085	0.131
-651.828	-150.707	-0.416	-0.032
-650.814	78.066	-0.132	-0.141
-649.799	-147.806	-0.036	0.003
-648.784	-200.000	-0.011	0.171
-647.770	-3.542	-0.083	-0.058
-646.755	-90.854	0.113	-0.033
-645.741	-200.000	0.025	0.221
-644.726	-200.000	-0.036	0.161
-643.711	-58.345	0.217	0.095
-642.697	-101.546	0.298	-0.073
-641.682	800.000	-0.080	0.302
-640.668	500.809	-0.192	-0.444
-639.653	800.000	-0.081	-0.321
-638.638	-146.057	0.468	-0.041
-637.624	-9.449	-0.207	-0.139
-636.609	-110.854	-0.098	-0.020
-635.595	800.000	0.060	-0.214
-634.580	-3.106	-0.290	-0.202
-633.565	250.902	0.024	0.041
-632.551	307.283	-0.187	-0.349
-631.536	358.812	-0.056	-0.112
-630.522	544.095	-0.112	0.267
-629.507	46.457	0.163	-0.152
-628.492	-200.000	-0.046	0.396
-627.478	-23.171	-0.192	-0.116
-626.463	22.508	-0.048	0.039
-625.449	179.322	-0.146	-0.214
-624.434	54.395	0.311	-0.300
-623.419	-67.052	-0.194	0.076
-622.405	-200.000	0.009	-0.208
-621.390	-200.000	0.001	0.181
-620.376	-200.000	-0.012	0.066
-619.361	-50.584	-0.218	-0.103
-618.346	-169.642	-0.134	-0.005
-617.332	800.000	0.080	-0.239
-616.317	-108.014	-0.094	-0.020
-615.303	-52.147	-0.109	-0.050
-614.288	94.497	0.116	-0.132
-613.273	-107.346	0.242	0.053
-612.259	-5.682	-0.312	0.214
-611.244	-146.011	-0.300	0.027
-610.230	-124.229	-0.455	-0.071
-609.215	363.107	-0.091	-0.183
-608.201	-104.830	0.125	0.029
-607.186	300.647	0.089	-0.164
-606.171	-68.765	0.438	-0.170
-605.157	5.854	0.192	-0.142
-604.142	389.243	0.075	-0.155
-603.128	529.801	0.100	-0.237
-602.113	800.000	-0.095	-0.283
-601.098	-200.000	0.075	-0.490
-600.084	-72.288	-0.233	0.086
-599.069	-200.000	0.009	-0.270
-598.055	800.000	-0.080	-0.288
-597.040	312.326	0.155	0.292
-596.025	-161.186	-0.049	0.003
-595.011	307.310	0.077	-0.144
-593.996	-173.128	0.216	-0.007
-592.982	-200.000	-0.057	0.313
-591.967	429.161	-0.065	0.140
-590.952	256.437	0.152	0.262
-589.938	-76.789	0.353	0.124
-588.923	85.103	-0.157	0.172
-587.909	-32.201	0.151	0.085
-586.894	41.713	0.158	0.143
-585.879	189.063	0.095	-0.142
-584.865	-200.000	0.014	-0.358
-583.850	-184.327	-0.133	-0.002
-582.836	-200.000	0.021	0.098
-581.821	-200.000	0.037	0.352
-580.806	-92.663	-0.262	-0.073
-579.792	-147.149	0.070	0.006
-578.777	-93.051	-0.274	0.076
-577.763	-41.903	0.262	-0.134
-576.748	680.300	0.019	-0.049
-575.733	-108.384	0.264	-0.057
-574.719	-128.051	-0.039	-0.006
-573.704	-200.000	-0.000	0.036
-572.690	690.942	-0.128	-0.336
-571.675	382.328	-0.161	-0.331
-570.661	33.342	0.124	0.107
-569.646	-193.923	-0.236	0.002
-568.631	-79.672	0.119	0.040
-567.617	-200.000	0.000	0.051
-566.602	28.655	-0.165	-0.140
-565.588	-200.000	-0.015	0.189
-564.573	48.348	-0.137	-0.129
-563.558	-200.000	0.000	0.382
-562.544	800.000	0.108	-0.417
-561.529	-96.261	-0.350	-0.093
-560.515	120.181	-0.224	-0.277
-559.500	106.790	-0.134	0.159
-558.485	501.187	0.119	0.275
-557.471	800.000	-0.035	-0.103
-556.456	-200.000	0.019	-0.093
-555.442	175.619	0.129	0.186
-554.427	687.808	-0.094	-0.244
-553.412	-72.902	0.097	0.036
-552.398	-200.000	-0.008	-0.098
-551.383	1.522	-0.149	0.107
-550.369	-151.687	0.325	0.024
-549.354	670.410	-0.097	0.251
-548.339	800.000	0.097	0.313
-547.325	34.519	0.270	-0.236
-546.310	800.000	-0.052	-0.156
-545.296	-68.059	-0.196	-0.076
-544.281	800.000	0.041	-0.167
-543.266	-67.531	-0.138	-0.054
-542.252	165.702	0.149	0.210
-541.237	49.627	-0.232	-0.218
-540.223	128.182	-0.111	0.141
-539.208	108.518	0.111	-0.132
-538.193	-11.675	0.028	-0.019
-537.179	-106.807	-0.419	0.093
-536.164	-53.676	0.168	-0.077
-535.150	43.173	-0.185	0.168
-534.135	682.908	-0.057	-0.149
-533.121	800.000	-0.020	-0.066
-532.106	-200.000	0.039	0.348
-531.091	-112.586	-0.187	-0.037
-530.077	800.000	-0.050	-0.187
-529.062	-28.062	0.085	-0.049
-528.048	86.253	0.132	-0.145
-527.033	-17.014	-0.393	0.248
-526.018	-200.000	0.045	0.446
-525.004	800.000	0.046	0.189
-523.989	-45.256	-0.061	-0.030
-522.975	-179.082	0.476	-0.011
-521.960	137.400	0.062	0.080
-520.945	151.043	0.133	-0.180
-519.931	159.440	0.164	0.228
-518.916	649.240	-0.081	-0.206
-517.902	724.883	0.063	-0.168
-516.887	-200.000	-0.076	-0.339
-515.872	800.000	0.014	0.042
-514.858	-200.000	-0.008	0.085
-513.843	-200.000	0.046	-0.223
-512.829	-18.805	-0.436	0.271
-511.814	-79.004	-0.334	0.113
-510.799	125.620	-0.223	0.280
-509.785	605.601	-0.117	0.290
-508.770	400.929	0.083	-0.174
-507.756	-39.882	0.277	-0.144
-506.741	-22.870	-0.068	-0.041
-505.726	-200.000	0.023	-0.381
-504.712	164.123	0.167	0.234
-503.697	-144.975	-0.064	0.006
-502.683	119.581	0.105	0.129
-501.668	-105.810	-0.368	0.083
-500.653	-0.067	0.145	-0.103
-499.639	800.000	0.043	0.138
-498.624	800.000	-0.023	-0.064
-497.610	-200.000	0.005	-0.250
-496.595	-145.498	0.194	0.017
-495.581	174.458	-0.080	0.116
-494.566	-200.000	-0.070	-0.318
-493.551	-117.527	0.022	-0.004
-492.537	501.059	-0.182	0.419
-491.522	8.873	-0.107	0.080
-490.508	-200.000	0.014	-0.343
-489.493	241.240	-0.256	0.426
-488.478	800.000	0.101	0.403
-487.464	732.537	0.129	0.345
-486.449	33.716	-0.087	0.076
-485.435	9.673	-0.091	0.068
-484.420	-120.103	0.240	0.041
-483.405	-200.000	0.025	0.208
-482.391	107.999	-0.155	0.184
-481.376	800.000	-0.019	-0.076
-480.362	394.863	-0.080	-0.167
-479.347	-19.603	0.268	0.166
-478.332	278.992	-0.136	0.242
-477.318	415.824	-0.059	-0.124
-476.303	160.551	0.061	-0.085
-475.289	-151.214	0.161	0.012
-474.274	-133.999	-0.108	-0.013
-473.259	-200.000	0.012	-0.206
-472.245	-46.206	-0.284	-0.139
-471.230	91.784	0.219	-0.246
-470.216	-200.000	0.017	0.432
-469.201	-90.539	-0.229	0.066
-468.186	583.079	0.125	0.305
-467.172	-200.000	-0.025	-0.145
-466.157	571.684	-0.123	-0.298
-465.143	-21.066	0.080	-0.049
-464.128	-63.787	-0.129	-0.053
-463.113	800.000	-0.095	-0.357
-462.099	-94.241	-0.115	0.031
-461.084	-200.000	0.013	0.172
-460.070	-166.413	0.469	-0.020
-459.055	459.596	-0.028	-0.062
-458.040	-34.698	0.077	-0.042
-457.026	280.234	-0.082	0.146
-456.011	800.000	0.097	-0.314
-454.997	269.943	-0.069	0.121
-453.982	-72.820	0.165	-0.061
-452.968	-104.683	-0.392	0.090
-451.953	108.739	-0.192	-0.228
-450.938	800.000	0.014	-0.045
-449.924	33.703	-0.254	-0.220
-448.909	800.000	0.110	0.314
-447.895	-5.030	-0.233	-0.159
-446.880	83.381	-0.160	-0.174
-445.865	-79.456	0.065	-0.022
-444.851	800.000	0.063	0.209
-443.836	1.340	0.126	-0.090
-442.822	-27.046	-0.208	-0.121
-441.807	-10.469	0.155	0.102
-440.792	-42.945	-0.240	0.121
-439.778	-200.000	0.020	-0.093
-438.763	214.883	0.177	-0.279
-437.749	-200.000	0.020	-0.170
-436.734	-160.089	-0.186	-0.010
-435.719	-146.462	0.144	0.013
-434.705	-133.872	0.294	0.036
-433.690	14.346	-0.105	0.081
-432.676	-90.447	0.274	-0.079
-431.661	-33.638	0.191	0.105
-430.646	-122.098	0.152	0.025
-429.632	-6.169	0.012	0.008
-428.617	-53.362	0.227	-0.103
-427.603	-200.000	0.027	0.163
-426.588	-200.000	0.033	-0.420
-425.573	-145.862	0.377	0.033
-424.559	-78.105	-0.078	0.027
-423.544	143.043	-0.257	-0.340
-422.530	16.283	-0.258	0.203
-421.515	64.224	0.288	0.288
-420.500	800.000	-0.092	0.269
-419.486	-103.805	-0.338	0.079
-418.471	-107.509	-0.109	-0.024
-417.457	-78.843	0.197	0.067
-416.442	800.000	0.080	-0.280
-415.428	92.826	0.090	0.101
-414.413	-45.500	0.227	-0.112
-413.398	702.470	-0.077	-0.202
-412.384	-94.965	0.277	-0.075
-411.369	223.622	0.152	0.244
-410.355	459.920	-0.097	0.215
-409.340	-6.866	-0.207	-0.140
-408.325	245.723	0.106	0.177
-407.311	-108.054	-0.282	-0.061
-406.296	386.672	-0.069	0.142
-405.282	36.558	0.070	0.061
-404.267	133.797	-0.067	-0.086
-403.252	91.914	-0.061	0.068
-402.238	-195.997	-0.274	-0.002
-401.223	-34.256	0.178	-0.097
-400.209	-30.041	0.187	-0.106
-399.194	-200.000	0.006	0.128
-398.179	64.662	0.248	-0.249
-397.165	-13.758	-0.201	-0.129
-396.150	-200.000	0.030	0.195
-395.136	-13.446	0.126	-0.081
-394.121	-148.124	0.222	-0.018
-393.106	-200.000	-0.029	0.333
-392.092	571.758	0.117	0.282
-391.077	-73.906	0.131	-0.047
-390.063	-132.047	0.170	0.022
-389.048	800.000	0.068	0.187
-388.033	-56.260	0.169	-0.075
-387.019	-89.439	-0.292	-0.085
-386.004	-20.112	0.134	0.082
-384.990	121.457	0.127	0.157
-383.975	-85.393	-0.371	0.115
-382.960	-133.900	0.088	0.011
-381.946	295.668	0.058	0.106
-380.931	-2.033	0.147	0.103
-379.917	-143.582	0.172	0.016
-378.902	-5.464	0.119	-0.081
-377.888	800.000	0.051	-0.161
-376.873	18.392	0.237	-0.188
-375.858	-200.000	0.001	-0.185
-374.844	-51.219	-0.074	0.034
-373.829	229.432	0.186	0.301
-372.815	-3.661	0.153	0.105
-371.800	-41.130	-0.199	-0.102
-370.785	48.888	-0.089	0.083
-369.771	21.246	0.160	-0.129
-368.756	-107.859	0.421	-0.091
-367.742	3.538	0.186	0.135
-366.727	-200.000	-0.014	0.504
-365.712	800.000	0.111	-0.343
-364.698	536.629	0.116	0.273
-363.683	29.822	0.118	-0.100
-362.669	800.000	-0.007	0.023
-361.654	-200.000	-0.017	-0.104
-360.639	31.652	-0.122	0.104
-359.625	-81.187	0.083	-0.027
-358.610	15.850	-0.364	0.284
-357.596	800.000	0.060	0.238
-356.581	-200.000	0.021	0.103
-355.566	-101.066	-0.152	-0.037
-354.552	-200.000	0.003	-0.143
-353.537	27.224	0.166	0.138
-352.523	760.974	0.077	0.207
-351.508	-200.000	-0.006	0.051
-350.493	730.160	-0.038	-0.100
-349.479	650.299	-0.021	0.053
-348.464	183.542	-0.109	-0.160
-347.450	-6.660	-0.111	-0.075
-346.435	-93.499	0.301	0.083
-345.420	-200.000	-0.010	-0.130
-344.406	178.234	0.125	-0.181
-343.391	280.947	0.078	-0.138
-342.377	-26.398	0.230	-0.134
-341.362	32.890	-0.176	-0.151
-340.348	681.198	-0.064	0.166
-339.333	-200.000	0.014	-0.212
-338.318	-18.108	0.148	0.092
-337.304	-200.000	0.018	-0.178
-336.289	113.382	0.036	-0.044
-335.275	800.000	0.082	-0.315
-334.260	-25.399	-0.178	-0.104
-333.245	-51.341	0.027	0.012
-332.231	101.442	-0.168	-0.194
-331.216	222.199	-0.072	-0.115
-330.202	-200.000	0.022	-0.128
-329.187	408.316	-0.155	0.325
-328.172	-26.501	0.235	0.136
-327.158	465.704	0.209	0.463
-326.143	68.770	0.094	-0.096
-325.129	-63.865	-0.244	0.099
-324.114	6.177	0.268	0.196
-323.099	85.169	-0.172	0.186
-322.085	412.486	0.025	0.053
-321.070	-200.000	0.235	0.000
-320.056	163.960	0.156	0.218
-319.041	74.710	0.159	0.166
-318.026	129.929	-0.283	-0.358
-317.012	-4.701	-0.151	-0.103
-315.997	-200.000	-0.022	-0.153
-314.983	113.384	0.205	0.246
-313.968	-161.536	0.242	-0.012
-312.953	-6.637	-0.029	0.020
-311.939	54.600	-0.192	0.183
-310.924	-200.000	0.017	-0.175
-309.910	-94.383	-0.297	0.080
-308.895	7.897	-0.211	-0.157
-307.880	101.447	0.204	-0.236
-306.866	11.236	-0.096	0.073
-305.851	-128.883	0.093	0.013
-304.837	-56.186	-0.479	0.211
-303.822	283.016	0.097	0.173
-302.807	800.000	0.137	0.386
-301.793	131.448	0.058	-0.073
-300.778	-124.191	0.116	0.018
-299.764	37.495	0.338	-0.297
-298.749	-39.959	-0.140	-0.072
-297.735	182.625	-0.050	0.072
-296.720	648.008	-0.151	0.383
-295.705	-55.256	0.422	-0.187
-294.691	-200.000	0.036	0.186
-293.676	40.494	0.164	0.146
-292.662	-20.484	0.015	0.009
-291.647	692.227	0.094	0.244
-290.632	-170.964	-0.286	-0.010
-289.618	-200.000	0.003	0.103
-288.603	66.079	0.199	-0.200
-287.589	44.298	-0.101	-0.092
-286.574	-79.925	-0.290	-0.096
-285.559	-200.000	0.011	-0.168
-284.545	800.000	0.089	0.294
-283.530	-200.000	0.070	-0.446
-282.516	34.272	-0.237	0.205
-281.501	-16.154	-0.028	0.017
-280.486	25.730	0.069	-0.056
-279.472	167.861	-0.105	-0.148
-278.457	93.475	0.106	0.118
-277.443	-150.218	-0.239	0.018
-276.428	-200.000	-0.061	-0.450
-275.413	-90.357	-0.383	-0.110
-274.399	-54.649	0.149	0.066
-273.384	490.593	0.064	-0.145
-272.370	639.737	-0.044	-0.110
-271.355	98.043	-0.113	-0.128
-270.340	1.161	-0.252	-0.179
-269.326	-42.346	0.107	-0.054
-268.311	276.494	-0.130	0.229
-267.297	-129.778	-0.186	0.025
-266.282	-117.754	-0.068	-0.012
-265.267	-200.000	-0.010	0.249
-264.253	-200.000	-0.009	0.222
-263.238	-85.098	-0.181	0.056
-262.224	334.350	0.052	0.100
-261.209	-96.756	0.235	-0.061
-260.195	316.399	0.208	0.387
-259.180	-200.000	0.001	0.177
-258.165	-129.957	0.349	0.047
-257.151	-13.082	-0.142	0.091
-256.136	22.121	0.192	0.155
-255.122	-200.000	-0.061	0.275
-254.107	-70.077	0.252	0.095
-253.092	-103.481	0.047	0.011
-252.078	-200.000	0.058	0.274
-251.063	127.554	0.212	0.266
-250.049	-2.085	-0.181	0.126
-249.034	583.275	0.037	0.090
-248.019	-85.579	-0.193	-0.059
-247.005	-200.000	0.019	0.398
-245.990	800.000	-0.032	0.111
-244.976	128.033	0.302	0.379
-243.961	-59.219	-0.158	-0.067
-242.946	-200.000	-0.006	-0.293
-241.932	341.502	0.075	0.144
-240.917	103.051	-0.143	0.165
-239.903	153.355	-0.015	0.020
-238.888	-103.665	0.126	-0.029
-237.873	-82.348	0.190	-0.061
-236.859	58.155	-0.297	0.288
-235.844	-18.457	-0.165	0.102
-234.830	-31.048	-0.095	0.053
-233.815	-90.628	-0.550	-0.157
-232.800	-200.000	-0.001	-0.221
-231.786	57.068	0.189	0.181
-230.771	-75.273	0.235	-0.083
-229.757	55.282	-0.063	0.060
-228.742	77.611	0.108	-0.113
-227.727	-200.000	-0.013	0.167
-226.713	-200.000	-0.008	0.121
-225.698	-106.971	-0.216	-0.047
-224.684	166.661	0.049	-0.068
-223.669	-38.102	0.183	-0.096
-222.655	-93.730	-0.160	0.043
-221.640	160.309	-0.118	0.162
-220.625	-200.000	0.045	0.249
-219.611	300.029	-0.101	0.184
-218.596	12.904	-0.057	0.044
-217.582	-200.000	0.018	-0.108
-216.567	-141.380	0.178	0.018
-215.552	154.410	0.275	-0.373
-214.538	-200.000	-0.010	-0.390
-213.523	-200.000	-0.009	-0.090
-212.509	458.847	-0.050	0.110
-211.494	195.372	0.085	-0.128
-210.479	-200.000	0.015	-0.134
-209.465	-93.927	0.080	-0.022
-208.450	800.000	-0.129	-0.418
-207.436	38.268	0.217	-0.190
-206.421	367.860	0.075	0.150
-205.406	322.673	-0.046	-0.087
-204.392	-96.631	-0.266	0.069
-203.377	-1.524	0.185	0.129
-202.363	-83.491	0.543	-0.171
-201.348	800.000	0.021	-0.059
-200.333	800.000	0.068	-0.219
-199.319	481.300	-0.045	0.100
-198.304	-23.783	-0.483	-0.285
-197.290	-200.000	-0.012	-0.316
-196.275	296.570	0.089	0.162
-195.260	800.000	0.045	0.160
-194.246	-61.705	-0.134	-0.055
-193.231	-200.000	0.005	-0.051
-192.217	28.067	-0.181	-0.150
-191.202	800.000	0.066	0.184
-190.187	-118.764	0.286	-0.050
-189.173	800.000	-0.103	-0.295
-188.158	674.803	0.080	0.204
-187.144	9.815	-0.154	-0.115
-186.129	800.000	-0.065	0.232
-185.114	-48.337	0.027	0.013
-184.100	-200.000	-0.013	-0.132
-183.085	-24.452	0.345	-0.202
-182.071	119.550	-0.179	-0.219
-181.056	800.000	0.081	-0.330
-180.042	-140.310	-0.160	0.017
-179.027	-54.722	-0.122	-0.054
-178.012	-143.327	-0.125	0.012
-176.998	37.681	-0.276	-0.242
-175.983	2.394	-0.050	0.036
-174.969	-87.632	-0.063	0.019
-173.954	-7.188	-0.225	-0.150
-172.939	-200.000	0.017	0.190
-171.925	-37.474	0.104	0.054
-170.910	517.924	0.030	-0.070
-169.896	33.011	-0.189	-0.161
-168.881	-200.000	-0.007	-0.145
-167.866	-98.504	-0.265	-0.067
-166.852	86.480	-0.211	0.229
-165.837	29.580	-0.028	0.023
-164.823	442.687	0.146	0.315
-163.808	-200.000	0.015	-0.105
-162.793	139.056	0.098	-0.127
-161.779	64.152	0.136	0.134
-160.764	732.300	0.036	0.095
-159.750	-65.596	-0.173	0.068
-158.735	-200.000	-0.009	0.042
-157.720	521.007	0.051	0.118
-156.706	-20.598	-0.006	0.004
-155.691	137.394	0.265	-0.341
-154.677	800.000	-0.051	0.159
-153.662	136.180	-0.150	0.192
-152.647	-200.000	0.020	0.209
-151.633	221.484	0.111	-0.175
-150.618	723.966	-0.063	0.165
-149.604	800.000	-0.092	-0.277
-148.589	800.000	-0.073	0.231
-147.574	67.175	0.172	0.173
-146.560	41.344	0.132	-0.118
-145.545	311.943	0.079	0.146
-144.531	800.000	-0.059	-0.167
-143.516	-50.223	-0.283	0.132
-142.502	52.566	-0.082	-0.077
-141.487	-135.054	0.169	-0.020
-140.472	800.000	0.096	0.279
-139.458	-172.257	-0.289	0.009
-138.443	67.682	0.221	-0.222
-137.429	-80.316	-0.447	-0.147
-136.414	-167.519	0.284	0.011
-135.399	-79.687	-0.357	0.118
-134.385	-46.190	0.092	0.045
-133.370	147.125	-0.124	0.164
-132.356	168.643	-0.193	0.270
-131.341	-101.598	0.231	0.055
-130.326	-5.128	0.239	0.162
-129.312	-200.000	-0.028	-0.160
-128.297	-24.898	0.162	0.094
-127.283	-200.000	0.031	0.209
-126.268	-200.000	0.039	0.429
-125.253	272.468	-0.265	0.459
-124.239	53.261	-0.213	0.201
-123.224	-200.000	-0.006	-0.030
-122.210	22.900	0.183	-0.148
-121.195	7.764	-0.262	-0.193
-120.180	-69.582	0.132	0.050
-119.166	-200.000	0.021	-0.142
-118.151	367.857	0.133	-0.264
-117.137	-85.204	-0.179	0.055
-116.122	77.313	0.116	0.121
-115.107	800.000	-0.044	0.136
-114.093	-46.906	-0.020	0.010
-113.078	-66.004	0.270	-0.106
-112.064	-5.136	-0.186	0.126
-111.049	-200.000	0.060	-0.324
-110.034	767.387	-0.095	0.254
-109.020	800.000	-0.064	-0.190
-108.005	-78.971	0.328	0.110
-106.991	39.508	-0.080	-0.070
-105.976	-104.146	-0.190	0.043
-104.962	357.074	0.109	0.214
-103.947	-71.340	-0.222	-0.082
-102.932	52.743	-0.111	0.105
-101.918	-200.000	0.055	0.290
-100.903	800.000	-0.018	0.064
-99.889	-104.825	-0.145	-0.033
-98.874	18.574	-0.088	-0.069
-97.859	-200.000	0.012	0.107
-96.845	63.143	-0.321	0.316
-95.830	-200.000	0.107	0.540
-94.816	699.025	0.081	0.208
-93.801	-113.837	0.100	-0.019
-92.786	800.000	-0.041	0.157
-91.772	-200.000	-0.000	0.018
-90.757	-2.877	0.223	-0.153
-89.743	-174.298	0.157	0.004
-88.728	161.102	0.196	0.269
-87.713	-108.878	0.201	-0.042
-86.699	440.520	0.047	0.100
-85.684	-200.000	0.005	0.209
-84.670	800.000	-0.017	0.071
-83.655	-4.704	0.205	-0.138
-82.640	-64.201	0.216	0.086
-81.626	93.820	-0.126	0.140
-80.611	198.734	0.081	-0.121
-79.597	-200.000	0.032	0.318
-78.582	800.000	0.083	0.304
-77.567	3.138	0.048	0.034
-76.553	-101.179	0.089	0.021
-75.538	-96.350	0.272	0.071
-74.524	130.526	0.119	-0.149
-73.509	383.191	-0.149	0.300
-72.494	412.339	-0.089	0.186
-71.480	67.124	-0.302	0.302
-70.465	-38.626	-0.192	0.099
-69.451	-200.000	-0.020	0.180
-68.436	-200.000	0.063	-0.377
-67.422	800.000	-0.067	0.235
-66.407	-158.114	0.159	-0.009
-65.392	69.345	0.149	0.151
-64.378	-138.467	0.386	-0.042
-63.363	-46.510	0.216	-0.104
-62.349	141.324	-0.117	0.151
-61.334	-31.156	-1.227	-0.678
-60.319	30.545	0.769	0.644
-59.305	-200.000	-0.270	-1.550
-58.290	790.474	0.432	1.163
-57.276	800.000	0.510	1.720
-56.261	-200.000	113.119	659.787
-55.246	544.134	1514.764	3543.292
-54.232	178.624	2684.334	3841.905
-53.217	112.993	2148.654	2551.418
-52.203	40.140	1596.925	1406.374
-51.188	31.850	1342.007	1132.030
-50.173	28.862	1303.878	1082.261
-49.159	56.553	1360.928	1296.716
-48.144	55.497	1374.642	1303.411
-47.130	32.030	1329.888	1122.704
-46.115	28.588	1311.783	1087.028
-45.100	28.282	1307.625	1081.730
-44.086	28.280	1304.974	1079.486
-43.071	28.305	1302.549	1077.581
-42.057	28.175	1300.715	1075.261
-41.042	28.352	1298.873	1074.730
-40.027	28.226	1297.684	1072.964
-39.013	28.288	1295.635	1071.590
-37.998	28.256	1293.785	1069.830
-36.984	28.312	1291.825	1068.496
-35.969	28.377	1290.057	1067.369
-34.954	28.299	1288.677	1065.735
-33.940	28.480	1286.761	1065.157
-32.925	28.405	1285.595	1063.715
-31.911	28.514	1284.225	1063.169
-30.896	28.504	1283.131	1062.167
-29.881	28.449	1281.798	1060.700
-28.867	28.495	1280.305	1059.691
-27.852	28.442	1278.903	1058.181
-26.838	28.492	1277.362	1057.152
-25.823	28.561	1275.826	1056.233
-24.809	28.434	1275.074	1054.842
-23.794	28.427	1273.638	1053.573
-22.779	28.451	1271.786	1052.135
-21.765	28.497	1270.672	1051.435
-20.750	28.477	1269.335	1050.174
-19.736	28.365	1268.270	1048.609
-18.721	28.338	1266.966	1047.335
-17.706	28.390	1265.967	1046.767
-16.692	28.323	1265.041	1045.576
-15.677	28.317	1263.866	1044.527
-14.663	28.374	1262.540	1043.716
-13.648	28.324	1261.968	1042.916
-12.633	28.423	1260.487	1042.215
-11.619	28.370	1260.060	1041.517
-10.604	28.344	1259.109	1040.544
-9.590	28.187	1258.623	1039.211
-8.575	28.194	1257.254	1038.074
-7.560	28.345	1256.209	1038.026
-6.546	28.227	1255.612	1036.823
-5.531	28.303	1254.501	1036.295
-4.517	28.341	1253.689	1035.800
-3.502	28.213	1253.013	1034.477
-2.487	28.413	1251.907	1034.654
-1.473	28.322	1247.689	1030.614
-0.458	26.641	1232.740	1008.870
0.556	23.370	1215.333	970.361
1.571	19.633	1220.458	953.773
2.586	18.694	1234.524	959.437
3.600	18.180	1223.240	947.733
4.615	13.528	1152.356	868.401
5.629	6.402	1080.124	778.764
6.644	3.258	1061.873	750.236
7.659	3.005	1059.351	747.156
8.673	3.085	1058.303	746.743
9.688	3.073	1057.108	745.771
10.702	3.363	1054.648	745.377
11.717	7.361	1060.386	768.776
12.731	14.863	1071.414	813.333
13.746	19.408	1076.486	839.275
14.761	19.843	1076.919	841.652
15.775	19.036	1074.909	836.091
16.790	17.987	1072.992	829.431
17.804	17.456	1071.004	825.248
18.819	17.012	1070.439	822.589
19.834	16.884	1069.695	821.323
20.848	16.807	1069.051	820.382
21.863	16.518	1068.086	818.171
22.877	16.446	1067.536	817.330
23.892	16.389	1066.662	816.315
24.907	16.461	1065.888	815.999
25.921	16.468	1064.807	815.132
26.936	16.400	1063.507	813.738
27.950	16.490	1062.120	813.036
28.965	16.576	1060.251	811.946
29.980	16.762	1059.332	812.064
30.994	16.703	1058.017	810.699
32.009	16.728	1057.323	810.214
33.023	16.690	1056.322	809.195
34.038	16.610	1054.949	807.689
35.053	16.612	1054.049	806.939
36.067	16.469	1053.766	805.969
37.082	16.599	1052.386	805.461
38.096	16.643	1052.126	805.399
39.111	16.670	1051.456	804.945
40.126	16.529	1050.033	803.115
41.140	16.251	1048.969	800.912
42.155	16.120	1047.730	799.274
43.169	16.085	1046.497	798.097
44.184	16.205	1045.139	797.558
45.199	16.036	1044.427	796.145
46.213	16.261	1043.448	796.390
47.228	16.518	1042.512	796.818
48.242	16.530	1041.293	795.872
49.257	16.435	1040.812	794.984
50.271	16.577	1039.577	794.640
51.286	16.548	1038.643	793.719
52.301	16.579	1037.636	793.026
53.315	16.384	1036.882	791.463
54.330	16.288	1035.321	789.756
55.344	16.311	1034.815	789.405
56.359	16.311	1034.020	788.729
57.374	16.371	1032.751	787.972
58.388	16.177	1032.388	786.722
59.403	16.251	1031.051	785.976
60.417	16.247	1030.172	785.218
61.432	16.146	1029.470	784.144
62.447	16.147	1028.759	783.536
63.461	15.892	1028.015	781.719
64.476	16.101	1027.151	781.962
65.490	16.083	1026.114	781.018
66.505	16.056	1026.088	780.808
67.520	16.191	1024.990	780.525
68.534	16.097	1024.276	779.477
69.549	16.115	1023.413	778.838
70.563	15.939	1022.712	777.419
71.578	15.850	1021.972	776.379
72.593	15.840	1021.150	775.640
73.607	15.833	1020.452	775.010
74.622	15.989	1019.566	774.984
75.636	16.042	1018.600	774.428
76.651	15.920	1018.217	773.505
77.666	16.050	1017.761	773.687
78.680	15.838	1017.341	772.327
79.695	16.031	1016.707	772.661
80.709	16.198	1016.020	772.839
81.724	16.131	1015.534	772.094
82.739	16.213	1014.856	771.886
83.753	16.545	1013.887	772.594
84.768	16.593	1013.606	772.533
85.782	16.781	1012.677	772.612
86.797	16.680	1011.902	771.493
87.812	16.602	1010.585	770.068
88.826	16.487	1009.804	768.878
89.841	16.604	1008.948	768.692
90.855	16.690	1008.121	768.382
91.870	16.796	1007.072	767.996
92.884	16.666	1006.137	766.626
93.899	16.558	1005.204	765.358
94.914	16.861	1004.677	766.262
95.928	16.779	1004.008	765.313
96.943	16.646	1002.908	763.806
97.957	16.566	1002.276	762.894
98.972	16.690	1001.142	762.522
99.987	16.629	1000.221	761.481
101.001	16.552	999.448	760.479
102.016	16.605	998.551	759.965
103.030	16.615	997.961	759.494
104.045	16.744	996.715	759.057
105.060	16.643	995.478	757.596
106.074	16.364	994.748	755.725
107.089	16.271	993.297	754.141
108.103	16.245	992.378	753.263
109.118	16.164	991.490	752.158
110.133	16.142	990.618	751.334
111.147	16.080	990.043	750.555
112.162	16.006	989.450	749.708
113.176	16.253	988.739	750.201
114.191	16.312	987.754	749.651
115.206	16.239	987.066	748.740
116.220	16.284	986.211	748.225
117.235	16.310	985.090	747.422
118.249	16.240	984.302	746.447
119.264	16.155	983.532	745.424
120.279	16.073	983.038	744.618
121.293	16.177	981.648	743.960
122.308	15.982	981.088	742.612
123.322	15.950	979.825	741.446
124.337	16.051	978.768	741.024
125.352	16.061	977.828	740.292
126.366	15.996	976.584	738.999
127.381	16.070	975.441	738.396
128.395	15.998	974.974	737.661
129.410	16.150	973.888	737.439
130.424	16.151	973.056	736.745
131.439	16.272	972.610	736.870
132.454	16.249	971.816	736.105
133.468	16.264	970.942	735.442
134.483	16.303	970.184	734.972
135.497	16.275	969.046	733.925
136.512	16.310	968.749	733.788
137.527	16.266	967.665	732.710
138.541	16.289	967.194	732.388
139.556	16.280	966.535	731.786
140.570	16.437	965.955	731.961
141.585	16.653	965.077	732.166
142.600	16.669	964.023	731.373
143.614	16.786	963.528	731.437
144.629	16.712	962.788	730.492
145.643	16.738	961.658	729.683
146.658	16.688	960.349	728.408
147.673	16.467	959.240	726.551
148.687	16.362	958.480	725.462
149.702	16.426	957.756	725.125
150.716	16.294	957.094	723.990
151.731	16.318	956.055	723.247
152.746	16.306	955.935	723.039
153.760	16.522	954.920	723.133
154.775	16.598	954.420	723.013
155.789	16.598	954.084	722.694
156.804	16.460	953.458	721.569
157.819	16.683	952.704	721.887
158.833	16.708	951.984	721.383
159.848	16.831	951.524	721.492
160.862	16.761	949.798	719.822
161.877	16.545	949.271	718.441
162.892	16.412	947.855	716.744
163.906	16.384	946.981	715.902
164.921	16.352	946.455	715.305
165.935	16.489	945.575	715.154
166.950	16.646	944.335	714.816
167.964	16.598	943.590	713.988
168.979	16.476	943.007	712.969
169.994	16.437	942.473	712.338
171.008	16.551	941.655	712.134
172.023	16.882	940.699	712.744
173.037	16.736	940.359	711.808
174.052	16.787	939.572	711.363
175.067	16.548	938.759	709.682
176.081	16.435	937.866	708.470
177.096	16.381	938.164	708.405
178.110	16.499	936.831	707.833
179.125	16.678	936.364	708.165
180.140	16.583	936.141	707.537
181.154	16.619	935.395	707.060
182.169	16.809	935.142	707.601
183.183	17.055	933.968	707.674
184.198	16.919	933.465	706.665
185.213	16.844	932.924	705.879
186.227	16.952	932.307	705.801
187.242	16.864	931.987	705.128
188.256	17.033	931.338	705.277
189.271	17.174	930.244	704.974
190.286	16.721	929.508	702.475
191.300	16.339	928.558	700.108
192.315	16.232	927.823	699.049
193.329	16.349	927.276	699.059
194.344	16.612	926.576	699.561
195.359	16.702	925.939	699.389
196.373	16.763	925.449	699.208
197.388	16.930	925.211	699.655
198.402	16.985	924.805	699.515
199.417	17.174	924.030	699.642
200.432	17.214	923.865	699.621
201.446	17.304	923.375	699.556
202.461	17.365	922.860	699.358
203.475	17.244	922.221	698.313
204.490	17.104	921.460	697.102
205.504	16.925	920.416	695.517
206.519	16.895	919.890	694.934
207.534	16.991	919.129	694.692
208.548	17.015	918.346	694.135
209.563	17.103	917.277	693.624
210.577	17.044	917.232	693.290
211.592	17.329	916.461	693.809
212.607	17.329	915.887	693.312
213.621	17.247	915.178	692.378
214.636	17.291	914.369	691.887
215.650	17.177	913.682	690.842
216.665	17.284	913.261	690.898
217.680	17.311	912.742	690.552
218.694	17.497	911.820	690.547
219.709	17.415	911.018	689.548
220.723	17.398	910.455	688.991
221.738	17.350	909.588	688.081
222.753	17.247	909.582	687.596
223.767	17.473	908.593	687.704
224.782	17.536	908.263	687.646
225.796	17.544	907.841	687.297
226.811	17.473	906.934	686.265
227.826	17.396	906.033	685.212
228.840	17.359	905.465	684.573
229.855	17.280	904.641	683.572
230.869	17.350	903.652	683.044
231.884	17.171	903.393	682.069
232.899	17.113	902.658	681.222
233.913	17.087	901.950	680.525
234.928	17.121	901.068	679.934
235.942	16.986	900.777	679.114
236.957	17.203	899.816	679.198
237.972	17.133	899.397	678.540
238.986	17.120	898.966	678.105
240.001	17.173	898.117	677.613
241.015	17.455	896.968	677.813
242.030	17.284	897.017	677.106
243.045	17.356	896.492	676.939
244.059	17.490	895.485	676.648
245.074	17.416	895.244	676.115
246.088	17.522	894.990	676.284
247.103	17.625	894.175	676.016
248.117	17.714	893.495	675.795
249.132	17.810	893.533	676.144
250.147	18.066	892.568	676.368
251.161	18.104	892.045	676.063
252.176	18.170	891.210	675.630
253.190	18.171	890.886	675.329
254.205	18.178	890.037	674.653
255.220	18.124	889.592	674.041
256.234	18.077	888.726	673.141
257.249	18.168	887.835	672.767
258.263	18.144	887.123	672.072
259.278	18.021	886.625	671.152
260.293	18.206	886.186	671.489
261.307	18.257	885.853	671.377
262.322	18.294	885.377	671.101
263.336	18.283	884.102	670.033
264.351	18.379	883.303	669.743
265.366	18.330	882.934	669.212
266.380	18.274	882.206	668.383
267.395	18.250	881.526	667.713
268.409	18.182	881.124	667.083
269.424	18.216	879.942	666.265
270.439	18.160	879.429	665.598
271.453	18.068	878.732	664.653
272.468	18.232	878.073	664.734
273.482	18.086	877.337	663.551
274.497	17.977	877.262	663.014
275.512	18.188	876.349	663.081
276.526	18.027	875.995	662.133
277.541	18.301	875.486	662.748
278.555	18.465	874.679	662.714
279.570	18.553	874.372	662.763
280.585	18.387	873.526	661.422
281.599	18.309	872.592	660.354
282.614	18.204	871.910	659.377
283.628	18.225	871.347	658.973
284.643	18.172	870.764	658.269
285.657	18.367	870.108	658.464
286.672	18.399	869.573	658.124
287.687	18.405	868.618	657.369
288.701	18.412	868.066	656.917
289.716	18.533	867.666	657.020
290.730	18.358	867.269	655.990
291.745	18.477	866.425	655.752
292.760	18.556	866.182	655.812
293.774	18.604	865.389	655.337
294.789	18.355	865.012	654.040
295.803	18.357	864.235	653.404
296.818	18.310	863.455	652.578
297.833	18.444	862.652	652.423
298.847	18.238	862.491	651.459
299.862	18.604	861.263	651.866
300.876	18.583	860.995	651.525
301.891	18.702	860.687	651.686
302.906	18.606	860.411	651.057
303.920	18.778	860.031	651.364
304.935	18.824	859.350	650.961
305.949	18.870	858.122	650.149
306.964	18.726	857.608	649.159
307.979	18.640	857.195	648.462
308.993	18.788	856.937	648.771
310.008	18.939	856.097	648.648
311.022	18.718	855.688	647.445
312.037	18.651	854.987	646.607
313.052	18.533	854.420	645.673
314.066	18.446	853.403	644.522
315.081	18.604	852.940	644.710
316.095	18.652	851.993	644.115
317.110	18.567	851.941	643.701
318.125	18.548	851.278	643.072
319.139	18.550	851.119	642.902
320.154	18.642	850.475	642.703
321.168	18.601	849.857	642.028
322.183	18.658	849.273	641.742
323.197	18.750	848.753	641.637
324.212	18.611	848.376	640.773
325.227	18.639	847.622	640.252
326.241	18.637	847.404	640.024
327.256	18.651	846.417	639.275
328.270	18.729	845.650	638.929
329.285	18.579	845.571	638.254
330.300	18.607	844.876	637.778
331.314	18.738	844.313	637.784
332.329	18.780	843.785	637.483
333.343	19.010	843.556	638.105
334.358	18.847	843.109	637.108
335.373	18.939	842.675	637.066
336.387	18.972	842.481	636.983
337.402	18.891	842.427	636.587
338.416	19.098	842.158	637.092
339.431	19.254	841.310	636.973
340.446	19.283	841.222	636.954
341.460	19.312	840.657	636.580
342.475	19.252	840.423	636.123
343.489	19.483	839.649	636.333
344.504	19.373	839.403	635.685
345.519	19.415	839.308	635.713
346.533	19.415	838.606	635.124
347.548	19.188	837.929	633.722
348.562	19.143	837.146	632.908
349.577	19.076	836.515	632.126
350.592	18.986	835.923	631.295
351.606	18.922	835.026	630.327
352.621	18.995	834.444	630.098
353.635	19.119	834.093	630.230
354.650	19.045	833.628	629.553
355.665	19.113	832.705	629.048
356.679	19.188	832.169	628.861
357.694	19.212	831.762	628.587
358.708	19.342	830.720	628.217
359.723	19.169	830.433	627.314
360.738	19.245	829.783	627.044
361.752	19.210	829.143	626.379
362.767	19.484	828.894	627.131
363.781	19.550	828.030	626.663
364.796	19.703	828.020	627.154
365.810	19.654	827.646	626.636
366.825	19.671	827.063	626.201
367.840	19.513	826.650	625.262
368.854	19.538	825.852	624.693
369.869	19.577	825.455	624.480
370.883	19.498	825.346	624.054
371.898	19.614	825.184	624.296
372.913	19.813	824.068	624.114
373.927	19.562	824.230	623.277
374.942	19.762	823.204	623.166
375.956	19.715	823.253	622.978
376.971	19.788	822.711	622.777
377.986	20.016	822.057	623.045
379.000	20.092	821.497	622.841
380.015	19.887	821.011	621.681
381.029	19.989	820.509	621.611
382.044	19.902	819.866	620.757
383.059	20.033	819.159	620.635
384.073	19.971	818.377	619.766
385.088	19.669	818.040	618.375
386.102	19.548	817.853	617.746
387.117	19.632	817.033	617.374
388.132	19.553	816.555	616.675
389.146	19.831	815.572	616.871
390.161	19.807	815.560	616.720
391.175	19.884	814.782	616.354
392.190	19.802	814.205	615.570
393.205	19.733	813.987	615.106
394.219	19.823	813.543	615.035
395.234	19.473	813.171	613.456
396.248	19.599	812.883	613.632
397.263	19.491	812.033	612.553
398.278	19.624	811.539	612.598
399.292	19.598	811.393	612.341
400.307	19.576	810.706	611.688
401.321	19.512	810.181	611.012
402.336	19.620	809.750	611.016
403.350	19.882	809.716	611.863
404.365	19.926	809.235	611.600
405.380	20.039	808.515	611.402
406.394	20.165	808.379	611.689
407.409	20.075	807.957	610.999
408.423	20.242	807.578	611.245
409.438	20.280	807.181	611.027
410.453	20.229	806.683	610.415
411.467	20.474	806.216	610.868
412.482	20.473	805.864	610.544
413.496	20.390	805.941	610.258
414.511	20.418	805.259	609.785
415.526	20.429	804.543	609.227
416.540	20.389	804.375	608.905
417.555	20.389	803.746	608.377
418.569	20.452	803.164	608.104
419.584	20.398	802.731	607.531
420.599	20.419	802.490	607.369
421.613	160.888	1372.617	1795.142
422.628	139.720	1455.667	1795.213
