DTS Sentinel unit serial number:	SN413079Multiplexer serial number:	ORYXHardware model number:	OX4-SRSoftware version number:	ORYX F/W v4.00 Oryx Data Collector v3.7.2.0data status	okinstallation	princeton_trtdifferential loss correction	single-endedforward channel	channel 1reverse channel	N/Adate	2019/09/14time	13:38:35forward acquisition time	60.00reverse acquisition time	0.00gamma	496.2192k internal	0.2295k external	0.2295temperature offset calibration	1.0085default loss term (dB/km)	0.3790temperature slope calibration	1.0000multiplexer offset coefficient	1.0000multiplexer slope coefficient	1.0000fibre end	0.00T internal ref (°C)	37.91T ext. ref 1 (°C)	4.91T ext. ref 2 (°C)	32.65length (m)	temperature (°C)	Stokes	anti-Stokes-747.200	504.764	-0.113	-0.267
-746.185	68.738	0.190	-0.199
-745.171	77.473	-0.105	-0.115
-744.156	-94.106	-0.084	-0.024
-743.142	-87.531	-0.163	0.051
-742.127	-124.821	0.068	0.011
-741.112	63.564	0.072	-0.074
-740.098	707.490	-0.142	0.383
-739.083	-26.586	0.175	-0.105
-738.069	-134.593	-0.409	0.051
-737.054	-200.000	-0.028	-0.228
-736.039	239.772	0.104	0.178
-735.025	-129.948	0.136	-0.019
-734.010	10.846	-0.155	0.121
-732.996	8.955	0.068	0.053
-731.981	-90.586	-0.322	0.095
-730.966	-27.378	0.061	-0.036
-729.952	306.234	0.102	0.193
-728.937	268.429	-0.223	0.399
-727.923	-200.000	0.043	-0.235
-726.908	-139.552	-0.209	-0.023
-725.894	184.618	-0.111	0.169
-724.879	139.335	-0.073	-0.099
-723.864	126.481	0.023	-0.030
-722.850	11.855	-0.064	-0.050
-721.835	-95.315	0.172	-0.047
-720.821	-77.526	0.134	0.047
-719.806	800.000	0.050	0.189
-718.791	489.903	0.128	-0.298
-717.777	115.724	0.130	0.163
-716.762	-26.284	-0.065	0.039
-715.748	-200.000	0.001	0.127
-714.733	-200.000	0.024	0.139
-713.718	117.516	-0.067	-0.085
-712.704	196.629	0.113	-0.176
-711.689	646.561	0.160	-0.418
-710.675	-200.000	0.021	-0.406
-709.660	207.857	-0.105	-0.167
-708.645	-142.944	0.227	-0.022
-707.631	-175.166	-0.390	-0.011
-706.616	-118.746	-0.180	-0.032
-705.602	28.506	0.133	-0.115
-704.587	-123.730	-0.237	-0.038
-703.572	208.044	0.183	-0.291
-702.558	601.752	0.112	-0.285
-701.543	-200.000	-0.024	-0.405
-700.529	-200.000	-0.058	-0.387
-699.514	-142.272	0.158	-0.016
-698.499	267.241	-0.088	0.156
-697.485	800.000	-0.018	-0.059
-696.470	800.000	0.119	-0.344
-695.456	44.154	0.026	0.025
-694.441	-153.240	-0.353	0.025
-693.426	-110.751	0.297	-0.063
-692.412	272.185	0.129	0.231
-691.397	800.000	0.115	-0.349
-690.383	425.789	0.081	-0.179
-689.368	-9.125	-0.110	-0.075
-688.354	645.531	-0.117	0.304
-687.339	30.949	0.184	-0.161
-686.324	103.782	-0.176	0.211
-685.310	800.000	0.040	0.123
-684.295	-116.975	0.191	0.036
-683.281	800.000	0.018	0.051
-682.266	800.000	0.086	0.367
-681.251	285.303	0.109	-0.200
-680.237	43.835	0.032	0.030
-679.222	471.880	-0.246	0.564
-678.208	47.339	0.138	-0.131
-677.193	-120.828	0.385	0.066
-676.178	-84.128	-0.222	0.072
-675.164	-69.538	-0.240	-0.094
-674.149	-149.799	0.086	0.007
-673.135	96.842	-0.088	-0.103
-672.120	-14.677	0.202	-0.132
-671.105	67.937	-0.421	0.440
-670.091	3.664	0.070	-0.052
-669.076	-41.090	-0.151	-0.079
-668.062	-34.739	0.198	0.110
-667.047	-200.000	0.016	-0.095
-666.032	-200.000	0.007	-0.080
-665.018	-129.102	-0.095	0.014
-664.003	193.367	0.279	-0.430
-662.989	77.943	0.106	0.115
-661.974	800.000	-0.085	-0.376
-660.959	-39.222	0.071	-0.038
-659.945	-200.000	-0.036	0.190
-658.930	-200.000	0.020	-0.100
-657.916	-99.018	-0.061	0.016
-656.901	42.207	-0.127	-0.117
-655.886	-87.078	-0.271	0.084
-654.872	562.202	-0.045	-0.110
-653.857	282.018	0.101	-0.185
-652.843	-200.000	-0.013	-0.134
-651.828	41.039	-0.176	0.162
-650.814	-24.691	0.077	0.047
-649.799	-126.538	-0.032	-0.005
-648.784	18.201	-0.300	0.244
-647.770	378.056	-0.124	0.258
-646.755	-159.254	0.251	0.014
-645.741	0.008	0.088	0.064
-644.726	-129.695	-0.297	0.042
-643.711	-200.000	0.026	-0.181
-642.697	-200.000	0.040	-0.201
-641.682	-109.061	-0.223	-0.048
-640.668	-181.495	0.204	-0.004
-639.653	800.000	-0.035	0.146
-638.638	26.161	-0.194	0.165
-637.624	158.508	0.095	-0.134
-636.609	-140.699	0.251	-0.026
-635.595	-94.867	-0.233	-0.064
-634.580	30.164	0.117	-0.102
-633.565	341.955	-0.140	-0.279
-632.551	-200.000	-0.009	0.121
-631.536	-200.000	-0.028	-0.241
-630.522	-0.649	-0.157	0.113
-629.507	-200.000	-0.012	0.173
-628.492	135.306	0.085	-0.113
-627.478	-18.804	-0.134	-0.085
-626.463	800.000	-0.090	-0.314
-625.449	-112.002	-0.178	-0.037
-624.434	22.218	0.173	-0.144
-623.419	45.240	0.333	0.313
-622.405	-75.648	0.162	0.058
-621.390	-111.793	-0.377	-0.078
-620.376	-200.000	-0.009	-0.056
-619.361	-77.669	-0.267	-0.094
-618.346	271.575	-0.098	-0.175
-617.332	6.610	-0.228	-0.173
-616.317	447.012	-0.072	-0.161
-615.303	196.458	-0.214	0.332
-614.288	128.539	-0.156	-0.202
-613.273	-30.241	-0.267	0.155
-612.259	-85.191	-0.372	-0.118
-611.244	-135.760	-0.171	-0.021
-610.230	-78.249	-0.053	-0.018
-609.215	82.820	-0.136	0.150
-608.201	791.772	0.175	0.490
-607.186	348.931	0.229	0.459
-606.171	-64.182	-0.136	-0.056
-605.157	2.049	-0.113	-0.083
-604.142	-55.808	0.348	-0.158
-603.128	-122.369	0.165	-0.027
-602.113	-200.000	0.002	-0.017
-601.098	-200.000	-0.011	-0.075
-600.084	-200.000	0.012	0.456
-599.069	-116.309	0.153	0.029
-598.055	-200.000	-0.035	-0.216
-597.040	64.847	0.356	0.365
-596.025	28.988	0.265	-0.229
-595.011	1.730	-0.188	-0.138
-593.996	73.494	0.122	0.129
-592.982	175.379	-0.117	0.172
-591.967	41.986	0.069	0.064
-590.952	39.206	-0.053	-0.048
-589.938	-42.899	0.325	0.168
-588.923	258.561	0.302	-0.529
-587.909	-34.848	0.141	-0.078
-586.894	-116.146	-0.137	0.026
-585.879	-126.138	0.149	-0.023
-584.865	433.356	0.097	-0.214
-583.850	-48.653	0.156	0.076
-582.836	49.823	-0.048	-0.046
-581.821	800.000	0.021	0.091
-580.806	304.765	0.111	-0.210
-579.792	2.444	-0.240	0.176
-578.777	67.398	-0.123	-0.128
-577.763	-55.274	-0.361	-0.165
-576.748	-200.000	-0.020	0.162
-575.733	-91.315	0.160	-0.046
-574.719	-102.758	-0.343	-0.083
-573.704	-49.552	0.186	0.090
-572.690	240.274	-0.087	0.147
-571.675	-23.931	0.254	0.154
-570.661	-41.232	-0.128	-0.067
-569.646	-100.084	0.317	0.080
-568.631	-126.021	-0.167	-0.025
-567.617	379.365	0.122	-0.253
-566.602	68.852	-0.071	0.074
-565.588	-200.000	-0.042	-0.247
-564.573	419.730	0.095	0.205
-563.558	800.000	0.097	0.284
-562.544	237.205	0.204	0.343
-561.529	111.250	-0.119	0.145
-560.515	-41.839	0.221	-0.115
-559.500	200.357	-0.180	0.280
-558.485	-154.049	-0.149	0.010
-557.471	235.211	-0.106	-0.178
-556.456	-121.036	-0.273	0.047
-555.442	-177.086	-0.249	0.006
-554.427	-110.010	-0.147	0.031
-553.412	-108.076	-0.055	0.012
-552.398	-0.588	-0.353	0.254
-551.383	83.866	-0.174	-0.193
-550.369	-200.000	0.005	-0.059
-549.354	800.000	0.070	-0.223
-548.339	800.000	-0.034	-0.132
-547.325	-121.254	0.133	-0.022
-546.310	-35.427	0.235	-0.129
-545.296	588.323	-0.102	0.255
-544.281	140.456	-0.237	0.318
-543.266	-97.014	0.425	0.113
-542.252	800.000	-0.031	-0.124
-541.237	213.714	0.065	-0.104
-540.223	-115.831	0.076	0.014
-539.208	94.912	-0.071	-0.082
-538.193	684.174	0.134	-0.355
-537.179	-105.903	0.250	0.057
-536.164	-200.000	0.012	-0.079
-535.150	70.675	-0.302	0.317
-534.135	-200.000	-0.046	0.368
-533.121	610.049	-0.101	0.256
-532.106	-200.000	0.036	0.215
-531.091	-82.485	0.282	-0.093
-530.077	3.306	-0.079	0.058
-529.062	-86.273	0.365	0.114
-528.048	800.000	-0.051	-0.200
-527.033	-126.048	-0.351	0.053
-526.018	71.450	-0.055	-0.058
-525.004	-71.395	0.175	0.066
-523.989	-200.000	0.022	-0.106
-522.975	-74.818	0.302	-0.110
-521.960	800.000	-0.077	0.263
-520.945	-172.093	0.239	0.008
-519.931	217.084	0.100	0.162
-518.916	190.812	0.162	0.247
-517.902	433.480	-0.139	-0.306
-516.887	52.693	0.266	-0.257
-515.872	-92.716	0.034	-0.010
-514.858	-200.000	0.020	-0.251
-513.843	-10.487	-0.131	0.088
-512.829	189.972	-0.059	0.090
-511.814	-121.485	0.187	-0.032
-510.799	419.302	-0.026	-0.056
-509.785	-200.000	0.109	-0.506
-508.770	90.547	-0.150	-0.170
-507.756	170.831	-0.086	-0.125
-506.741	-86.909	-0.406	0.126
-505.726	17.832	0.214	-0.173
-504.712	271.386	-0.095	0.170
-503.697	47.853	0.092	-0.087
-502.683	34.787	-0.097	0.086
-501.668	267.385	-0.041	-0.073
-500.653	88.209	0.099	-0.111
-499.639	163.749	0.077	-0.110
-498.624	-181.661	0.202	0.004
-497.610	-200.000	0.025	0.366
-496.595	493.323	-0.004	0.009
-495.581	22.201	0.268	0.221
-494.566	-15.722	-0.150	0.097
-493.551	-73.303	-0.141	-0.052
-492.537	-71.670	-0.275	0.104
-491.522	129.007	-0.176	0.228
-490.508	-152.906	0.233	-0.017
-489.493	-63.096	-0.202	-0.085
-488.478	800.000	-0.030	-0.088
-487.464	-200.000	0.029	0.144
-486.449	682.899	-0.101	0.266
-485.435	-200.000	-0.008	-0.186
-484.420	-57.040	0.229	-0.102
-483.405	-105.753	-0.123	0.028
-482.391	2.645	0.053	-0.039
-481.376	169.311	0.289	-0.417
-480.362	-102.343	-0.140	0.034
-479.347	800.000	0.065	0.217
-478.332	-112.564	-0.186	-0.038
-477.318	152.382	0.107	0.148
-476.303	-200.000	0.014	-0.415
-475.289	417.048	0.055	-0.120
-474.274	27.935	-0.072	-0.062
-473.259	-97.108	-0.193	0.051
-472.245	335.104	-0.047	-0.093
-471.230	-200.000	0.033	-0.184
-470.216	393.302	-0.066	-0.138
-469.201	800.000	0.030	0.093
-468.186	-62.237	0.233	0.098
-467.172	-200.000	0.024	-0.223
-466.157	-90.384	-0.160	-0.047
-465.143	222.349	0.199	-0.323
-464.128	89.720	0.077	0.087
-463.113	-72.779	0.221	-0.082
-462.099	-200.000	-0.008	-0.147
-461.084	-200.000	0.003	0.148
-460.070	-200.000	0.041	0.252
-459.055	-200.000	-0.041	-0.328
-458.040	11.360	-0.345	0.267
-457.026	-94.837	0.219	0.060
-456.011	-23.678	0.064	0.039
-454.997	-200.000	-0.036	0.298
-453.982	287.976	0.077	0.141
-452.968	-60.965	-0.160	0.068
-451.953	-105.129	0.169	0.039
-450.938	-109.701	0.205	-0.044
-449.924	-76.472	-0.282	0.100
-448.909	3.036	-0.177	-0.130
-447.895	20.311	0.232	0.190
-446.880	61.245	0.132	-0.133
-445.865	1.072	-0.170	0.123
-444.851	28.993	0.388	0.333
-443.836	9.545	-0.190	-0.145
-442.822	-83.972	0.097	0.031
-441.807	136.147	0.195	0.257
-440.792	-200.000	-0.020	0.199
-439.778	-66.549	0.038	0.015
-438.763	38.379	0.192	-0.173
-437.749	-119.987	-0.181	-0.031
-436.734	800.000	-0.042	0.149
-435.719	106.412	0.214	-0.257
-434.705	518.989	0.110	-0.261
-433.690	-42.637	0.122	0.063
-432.676	128.378	-0.142	0.183
-431.661	28.575	0.344	-0.294
-430.646	502.882	0.142	-0.332
-429.632	167.344	0.119	-0.171
-428.617	-3.963	-0.224	-0.157
-427.603	-11.224	-0.323	-0.215
-426.588	-12.911	0.213	-0.140
-425.573	800.000	-0.080	0.284
-424.559	-14.380	-0.125	0.082
-423.544	-200.000	-0.035	0.263
-422.530	43.102	-0.156	0.143
-421.515	-200.000	-0.022	-0.135
-420.500	158.916	-0.082	0.115
-419.486	-41.312	0.279	0.145
-418.471	-110.953	0.080	0.017
-417.457	-103.494	-0.087	0.021
-416.442	-200.000	-0.035	0.180
-415.428	325.974	-0.173	0.334
-414.413	55.234	0.120	0.117
-413.398	-157.174	-0.241	-0.015
-412.384	247.199	-0.060	0.101
-411.369	-94.982	-0.331	-0.090
-410.355	-116.960	0.249	0.046
-409.340	-200.000	-0.091	-0.478
-408.325	39.537	0.335	0.303
-407.311	398.966	-0.116	-0.245
-406.296	54.484	0.039	-0.038
-405.282	75.088	-0.018	0.019
-404.267	800.000	0.041	-0.125
-403.252	-77.626	0.259	-0.091
-402.238	-200.000	0.038	0.407
-401.223	681.783	-0.098	-0.257
-400.209	-200.000	-0.011	-0.194
-399.194	-13.180	0.066	0.043
-398.179	800.000	0.069	0.232
-397.165	196.436	0.058	0.089
-396.150	-37.995	-0.089	-0.048
-395.136	420.775	0.006	-0.013
-394.121	-8.561	0.136	0.092
-393.106	-112.830	0.156	0.031
-392.092	-200.000	-0.056	-0.288
-391.077	-89.787	0.014	0.004
-390.063	-6.587	0.391	-0.269
-389.048	54.134	0.162	-0.157
-388.033	-200.000	-0.009	-0.132
-387.019	-51.003	-0.220	-0.104
-386.004	116.927	-0.030	0.037
-384.990	-82.378	0.107	0.035
-383.975	-66.686	0.378	-0.151
-382.960	8.051	-0.310	0.234
-381.946	44.261	-0.080	0.074
-380.931	147.012	-0.113	-0.153
-379.917	-200.000	0.139	-0.000
-378.902	-44.242	0.299	-0.151
-377.888	800.000	-0.034	-0.120
-376.873	-156.655	0.184	-0.011
-375.858	-200.000	-0.010	0.189
-374.844	800.000	-0.038	-0.127
-373.829	-130.362	-0.020	0.003
-372.815	-91.580	-0.263	0.076
-371.800	-106.904	-0.399	0.089
-370.785	41.355	0.150	-0.137
-369.771	-67.871	0.264	0.104
-368.756	102.429	0.190	-0.223
-367.742	84.723	0.177	0.196
-366.727	-200.000	-0.020	-0.201
-365.712	68.043	0.228	0.235
-364.698	-200.000	0.027	-0.192
-363.683	158.816	-0.125	-0.176
-362.669	-81.155	-0.247	0.082
-361.654	-8.655	0.192	0.130
-360.639	-21.780	0.219	-0.134
-359.625	-10.622	-0.348	-0.232
-358.610	381.540	0.108	-0.223
-357.596	-200.000	0.035	0.249
-356.581	-19.104	-0.255	0.160
-355.566	-120.141	0.299	0.052
-354.552	169.880	0.024	-0.034
-353.537	-131.807	0.115	-0.015
-352.523	-200.000	0.023	-0.336
-351.508	56.031	-0.159	-0.155
-350.493	-176.617	-0.136	0.004
-349.479	3.497	0.251	-0.184
-348.464	44.012	-0.191	-0.177
-347.450	-200.000	0.070	0.341
-346.435	-194.655	-0.237	0.002
-345.420	186.126	-0.109	-0.164
-344.406	-58.112	-0.168	0.074
-343.391	-91.617	0.345	-0.099
-342.377	293.809	-0.125	-0.230
-341.362	-200.000	0.043	0.211
-340.348	671.651	-0.019	-0.050
-339.333	-200.000	-0.004	0.228
-338.318	800.000	-0.125	0.383
-337.304	-200.000	0.018	0.198
-336.289	-137.371	-0.080	-0.009
-335.275	116.217	0.115	0.142
-334.260	310.630	0.134	-0.253
-333.245	345.830	0.134	-0.266
-332.231	-174.473	-0.362	-0.010
-331.216	800.000	-0.056	0.227
-330.202	14.972	-0.233	0.183
-329.187	299.073	0.104	0.192
-328.172	-86.980	-0.328	-0.101
-327.158	-200.000	-0.009	-0.413
-326.143	-200.000	-0.021	-0.171
-325.129	-172.080	-0.162	0.005
-324.114	-104.405	-0.241	0.056
-323.099	-124.358	-0.091	-0.014
-322.085	225.576	-0.088	-0.144
-321.070	-120.285	0.154	-0.026
-320.056	-200.000	-0.007	-0.116
-319.041	800.000	-0.036	0.143
-318.026	-127.734	-0.220	-0.032
-317.012	-29.999	0.066	-0.038
-315.997	32.482	-0.085	-0.074
-314.983	-200.000	-0.004	-0.063
-313.968	-200.000	-0.000	-0.055
-312.953	47.570	-0.149	0.140
-311.939	33.228	0.107	0.093
-310.924	62.739	0.293	0.294
-309.910	-3.724	0.142	-0.099
-308.895	-123.160	0.103	0.017
-307.880	-147.877	-0.387	0.032
-306.866	33.060	-0.127	0.111
-305.851	50.981	-0.152	0.144
-304.837	-128.828	0.108	-0.015
-303.822	-59.780	-0.165	0.071
-302.807	-115.938	0.157	-0.029
-301.793	536.794	-0.095	0.226
-300.778	252.617	0.159	0.272
-299.764	-200.000	-0.016	-0.139
-298.749	800.000	-0.077	0.263
-297.735	58.816	0.111	0.110
-296.720	-120.131	-0.267	0.046
-295.705	147.754	-0.207	0.281
-294.691	107.716	0.116	-0.139
-293.676	98.044	0.257	0.297
-292.662	22.275	-0.069	0.057
-291.647	-200.000	0.002	0.138
-290.632	-40.776	0.203	-0.105
-289.618	-186.631	-0.017	0.000
-288.603	78.176	0.356	0.382
-287.589	77.274	0.272	0.291
-286.574	137.131	-0.087	-0.114
-285.559	-92.083	0.251	-0.071
-284.545	800.000	-0.034	-0.101
-283.530	-155.493	0.230	-0.015
-282.516	-200.000	-0.006	0.306
-281.501	26.855	-0.145	0.122
-280.486	-158.277	0.083	-0.005
-279.472	-200.000	-0.070	0.313
-278.457	1.640	0.076	-0.055
-277.443	-145.007	0.108	-0.010
-276.428	9.055	-0.189	-0.143
-275.413	-188.863	-0.211	-0.003
-274.399	800.000	0.059	0.173
-273.384	-21.998	-0.232	-0.142
-272.370	-200.000	0.003	0.024
-271.355	-200.000	0.018	0.123
-270.340	222.496	-0.188	-0.304
-269.326	-166.701	0.049	0.002
-268.311	800.000	-0.073	0.212
-267.297	-200.000	-0.016	0.307
-266.282	-64.654	-0.481	-0.196
-265.267	800.000	-0.039	-0.166
-264.253	-24.776	0.200	-0.120
-263.238	-200.000	0.009	-0.360
-262.224	-200.000	-0.008	-0.258
-261.209	-131.953	-0.253	-0.033
-260.195	-200.000	0.003	-0.205
-259.180	74.599	-0.165	-0.174
-258.165	-34.408	0.312	0.171
-257.151	-200.000	-0.011	-0.058
-256.136	-91.382	-0.325	-0.093
-255.122	-22.817	0.504	-0.305
-254.107	-157.395	-0.343	0.021
-253.092	-172.180	-0.343	0.011
-252.078	-91.754	0.171	0.049
-251.063	-19.130	-0.066	-0.041
-250.049	81.531	0.141	0.153
-249.034	-200.000	0.041	-0.525
-248.019	-122.370	0.135	0.022
-247.005	56.830	0.093	-0.091
-245.990	-57.129	0.176	0.078
-244.976	246.147	0.204	0.345
-243.961	306.778	-0.199	-0.372
-242.946	-72.549	0.151	0.056
-241.932	-52.198	-0.180	-0.084
-240.917	126.212	-0.171	-0.217
-239.903	800.000	-0.028	0.109
-238.888	551.454	-0.097	0.234
-237.873	105.221	0.203	-0.240
-236.859	800.000	0.116	0.455
-235.844	-2.921	-0.152	-0.106
-234.830	-117.940	-0.118	-0.021
-233.815	-72.604	0.214	-0.079
-232.800	-200.000	-0.023	-0.174
-231.786	-153.654	-0.425	-0.029
-230.771	481.951	0.086	0.197
-229.757	-118.435	-0.137	-0.024
-228.742	-118.020	-0.169	0.030
-227.727	-34.134	0.217	-0.120
-226.713	-27.367	-0.128	-0.074
-225.698	199.354	-0.084	-0.129
-224.684	-142.180	0.273	0.027
-223.669	-137.753	0.063	-0.007
-222.655	9.739	0.309	-0.235
-221.640	-75.459	-0.253	0.090
-220.625	800.000	0.014	-0.040
-219.611	716.504	-0.043	0.114
-218.596	-29.228	-0.167	0.096
-217.582	-95.388	-0.118	-0.032
-216.567	-173.629	0.225	-0.007
-215.552	688.684	-0.074	-0.193
-214.538	-98.340	0.251	-0.064
-213.523	25.479	0.145	-0.121
-212.509	-53.224	0.040	0.018
-211.494	216.780	0.114	0.182
-210.479	306.964	-0.176	0.329
-209.465	-150.154	-0.175	-0.014
-208.450	23.005	0.403	0.331
-207.436	-148.875	-0.151	0.012
-206.421	-144.298	0.289	-0.027
-205.406	800.000	0.080	-0.269
-204.392	263.171	-0.108	-0.188
-203.377	-200.000	0.011	-0.083
-202.363	-26.477	0.114	-0.067
-201.348	-200.000	0.015	-0.220
-200.333	-200.000	0.006	-0.354
-199.319	-56.803	-0.292	-0.129
-198.304	31.493	0.315	0.271
-197.290	800.000	-0.036	0.129
-196.275	169.650	0.142	-0.203
-195.260	-30.403	0.037	0.021
-194.246	-200.000	-0.035	0.257
-193.231	-65.263	0.205	0.083
-192.217	800.000	0.026	0.101
-191.202	129.388	0.109	0.140
-190.187	-200.000	-0.008	0.157
-189.173	-200.000	0.001	0.132
-188.158	-42.714	-0.290	-0.148
-187.144	63.371	0.119	-0.119
-186.129	-67.527	-0.391	-0.154
-185.114	352.090	-0.145	-0.288
-184.100	-200.000	0.021	-0.212
-183.085	182.363	0.061	0.089
-182.071	21.858	-0.069	0.056
-181.056	-78.441	-0.044	0.015
-180.042	-62.380	0.108	-0.045
-179.027	800.000	-0.058	-0.247
-178.012	55.877	0.252	0.245
-176.998	385.396	-0.146	-0.301
-175.983	-150.550	-0.354	-0.027
-174.969	-100.960	0.204	-0.050
-173.954	-14.675	-0.141	-0.090
-172.939	-200.000	-0.016	-0.131
-171.925	181.029	0.080	-0.118
-170.910	166.450	-0.218	-0.308
-169.896	800.000	0.028	0.086
-168.881	679.726	0.060	0.156
-167.866	-200.000	0.064	0.283
-166.852	-18.745	-0.450	0.280
-165.837	90.619	0.237	0.265
-164.823	800.000	0.088	0.250
-163.808	-103.232	0.178	0.042
-162.793	-50.288	-0.179	0.084
-161.779	-100.977	-0.391	-0.096
-160.764	-53.756	0.090	0.041
-159.750	-77.865	0.394	0.136
-158.735	800.000	-0.074	-0.235
-157.720	-122.969	0.232	-0.037
-156.706	4.526	-0.044	-0.032
-155.691	-84.582	-0.130	0.041
-154.677	-200.000	-0.046	0.291
-153.662	470.834	-0.085	0.191
-152.647	-51.298	0.139	0.065
-151.633	8.349	0.128	0.096
-150.618	-79.116	0.039	-0.013
-149.604	110.398	-0.277	-0.332
-148.589	240.014	-0.135	-0.225
-147.574	268.842	0.121	0.212
-146.560	-200.000	-0.017	-0.206
-145.545	652.260	0.052	-0.132
-144.531	39.164	0.308	0.276
-143.516	258.976	0.057	-0.098
-142.502	6.639	0.054	-0.040
-141.487	-7.002	-0.087	-0.059
-140.472	-200.000	-0.056	0.460
-139.458	104.860	-0.179	0.211
-138.443	102.280	0.274	0.319
-137.429	-200.000	0.007	0.150
-136.414	48.391	0.135	0.127
-135.399	118.566	-0.147	0.181
-134.385	-41.874	-0.201	-0.103
-133.370	-200.000	0.047	0.342
-132.356	800.000	-0.026	-0.083
-131.341	-93.540	-0.275	-0.076
-130.326	28.874	0.085	0.072
-129.312	-200.000	0.053	0.288
-128.297	-200.000	-0.050	0.425
-127.283	-90.637	0.098	-0.028
-126.268	-24.986	-0.051	-0.030
-125.253	-94.624	-0.275	-0.075
-124.239	-78.629	0.132	-0.045
-123.224	-92.335	0.095	0.027
-122.210	-101.748	-0.078	0.019
-121.195	521.370	0.117	0.273
-120.180	245.165	-0.022	-0.037
-119.166	149.406	-0.034	0.046
-118.151	-200.000	0.034	-0.473
-117.137	428.286	0.047	0.100
-116.122	-42.396	0.150	-0.077
-115.107	697.375	-0.089	0.235
-114.093	61.011	0.274	-0.271
-113.078	-200.000	0.030	-0.495
-112.064	-72.842	0.146	0.054
-111.049	800.000	-0.126	-0.399
-110.034	10.995	0.309	-0.235
-109.020	-160.109	0.039	-0.002
-108.005	-108.567	0.232	-0.050
-106.991	800.000	-0.008	0.033
-105.976	-200.000	0.037	0.213
-104.962	355.671	-0.042	0.083
-103.947	-103.813	-0.102	-0.024
-102.932	21.133	-0.268	0.217
-101.918	-160.792	-0.125	-0.007
-100.903	-43.239	0.155	-0.078
-99.889	66.794	-0.085	-0.086
-98.874	120.690	0.170	-0.210
-97.859	-109.094	0.116	-0.025
-96.845	255.828	0.159	-0.272
-95.830	-108.017	0.110	-0.024
-94.816	-200.000	0.019	-0.157
-93.801	109.566	0.111	0.133
-92.786	28.480	0.333	0.280
-91.772	-177.510	0.186	0.005
-90.757	94.080	0.199	0.226
-89.743	108.867	-0.119	-0.142
-88.728	21.021	0.100	-0.080
-87.713	190.126	-0.025	0.037
-86.699	555.495	0.035	0.084
-85.684	800.000	0.091	-0.253
-84.670	232.375	0.176	0.288
-83.655	194.221	0.137	-0.207
-82.640	-124.855	0.213	0.033
-81.626	-21.984	0.131	0.079
-80.611	183.627	-0.152	-0.223
-79.597	71.776	-0.064	-0.067
-78.582	349.608	0.157	0.309
-77.567	134.959	-0.195	-0.253
-76.553	-84.312	-0.140	-0.044
-75.538	800.000	-0.061	0.170
-74.524	-71.342	-0.086	-0.032
-73.509	-200.000	0.002	-0.399
-72.494	-200.000	-0.050	-0.217
-71.480	-0.485	0.237	0.167
-70.465	-200.000	-0.015	-0.178
-69.451	-86.453	-0.125	0.038
-68.436	7.795	0.116	-0.087
-67.422	11.781	-0.327	0.250
-66.407	175.339	0.115	0.167
-65.392	357.596	0.124	0.247
-64.378	-78.441	-0.179	-0.061
-63.363	176.191	-0.260	0.377
-62.349	71.030	0.293	0.303
-61.334	30.565	-0.998	-0.850
-60.319	413.278	0.262	0.555
-59.305	800.000	-0.138	-0.548
-58.290	48.337	0.644	0.600
-57.276	147.333	0.957	1.283
-56.261	-200.000	86.799	498.400
-55.246	511.848	1401.325	3247.701
-54.232	180.581	2618.943	3825.723
-53.217	117.957	2233.499	2738.448
-52.203	48.619	1678.212	1565.348
-51.188	41.120	1408.561	1266.312
-50.173	37.930	1364.098	1206.598
-49.159	56.457	1407.158	1361.385
-48.144	61.127	1425.782	1408.668
-47.130	41.770	1383.738	1247.859
-46.115	38.020	1365.981	1208.629
-45.100	37.773	1361.287	1202.899
-44.086	37.742	1358.880	1200.532
-43.071	37.669	1356.649	1198.065
-42.057	37.844	1354.094	1196.837
-41.042	37.724	1352.483	1194.629
-40.027	37.753	1350.845	1193.313
-39.013	37.800	1349.002	1191.926
-37.998	37.783	1347.402	1190.359
-36.984	37.880	1345.067	1188.843
-35.969	37.917	1342.941	1187.143
-34.954	37.861	1341.714	1185.672
-33.940	38.007	1340.013	1185.003
-32.925	37.845	1339.179	1183.235
-31.911	38.037	1337.479	1182.850
-30.896	38.059	1335.976	1181.609
-29.881	38.038	1334.105	1179.778
-28.867	37.984	1332.843	1178.290
-27.852	38.029	1331.415	1177.257
-26.838	38.088	1330.091	1176.391
-25.823	38.051	1328.725	1174.916
-24.809	37.915	1327.916	1173.334
-23.794	37.975	1325.871	1171.840
-22.779	37.950	1324.584	1170.508
-21.765	37.977	1323.710	1169.853
-20.750	38.027	1321.670	1168.303
-19.736	37.838	1320.602	1166.182
-18.721	37.863	1319.459	1165.275
-17.706	37.849	1318.048	1163.897
-16.692	38.007	1316.504	1163.431
-15.677	37.919	1315.599	1162.058
-14.663	37.822	1314.433	1160.407
-13.648	37.813	1313.553	1159.531
-12.633	37.960	1311.754	1158.771
-11.619	37.734	1311.851	1157.469
-10.604	37.941	1310.700	1157.635
-9.590	37.784	1309.901	1155.950
-8.575	37.854	1308.847	1155.391
-7.560	37.834	1307.969	1154.451
-6.546	37.743	1307.184	1153.174
-5.531	37.870	1305.816	1152.674
-4.517	37.852	1304.875	1151.691
-3.502	37.813	1304.118	1150.748
-2.487	37.925	1302.924	1150.308
-1.473	37.741	1299.483	1146.137
-0.458	36.308	1283.681	1123.821
0.556	32.941	1262.216	1078.125
1.571	28.401	1265.194	1054.521
2.586	26.912	1279.010	1057.276
3.600	25.247	1267.221	1037.812
4.615	18.833	1192.323	941.365
5.629	9.488	1112.532	830.298
6.644	5.032	1090.270	791.052
7.659	4.859	1087.234	787.901
8.673	4.937	1086.435	787.650
9.688	4.792	1085.342	786.053
10.702	5.059	1083.544	786.027
11.717	10.211	1091.077	817.507
12.731	18.587	1102.855	868.866
13.746	21.206	1105.111	883.843
14.761	19.887	1103.223	875.583
15.775	18.828	1101.023	868.408
16.790	17.726	1099.282	861.398
17.804	17.138	1097.049	856.604
18.819	16.745	1095.998	853.728
19.834	16.407	1095.368	851.459
20.848	16.373	1094.134	850.252
21.863	16.122	1093.083	848.098
22.877	15.897	1092.826	846.693
23.892	15.924	1091.913	846.046
24.907	15.951	1091.015	845.414
25.921	15.975	1090.076	844.730
26.936	16.065	1088.413	843.815
27.950	16.031	1087.124	842.574
28.965	16.185	1085.343	841.884
29.980	16.198	1084.379	841.126
30.994	16.304	1083.356	840.790
32.009	16.233	1082.226	839.483
33.023	16.241	1080.859	838.390
34.038	16.102	1080.295	837.187
35.053	16.078	1079.254	836.188
36.067	16.087	1078.520	835.588
37.082	16.102	1077.335	834.673
38.096	16.206	1076.593	834.537
39.111	16.118	1076.170	833.702
40.126	16.064	1074.405	831.991
41.140	15.936	1073.117	830.293
42.155	15.931	1071.861	829.223
43.169	15.801	1070.967	827.819
44.184	15.794	1069.996	826.960
45.199	15.756	1068.862	825.821
46.213	15.778	1068.016	825.202
47.228	15.940	1067.310	825.380
48.242	15.999	1065.729	824.374
49.257	16.172	1064.670	824.324
50.271	16.139	1063.525	823.202
51.286	16.135	1063.053	822.745
52.301	16.055	1062.197	821.624
53.315	15.935	1061.169	820.169
54.330	15.986	1059.659	819.178
55.344	15.877	1058.982	818.053
56.359	15.972	1057.939	817.634
57.374	15.900	1057.471	816.850
58.388	15.784	1056.431	815.414
59.403	15.795	1055.810	814.918
60.417	15.684	1054.934	813.629
61.432	15.795	1054.038	813.406
62.447	15.636	1053.461	812.117
63.461	15.682	1052.338	811.405
64.476	15.643	1051.681	810.639
65.490	15.696	1050.575	809.970
66.505	15.814	1049.816	809.880
67.520	15.750	1049.086	808.936
68.534	15.730	1048.182	808.073
69.549	15.699	1047.921	807.648
70.563	15.667	1046.861	806.610
71.578	15.591	1046.280	805.725
72.593	15.586	1045.162	804.771
73.607	15.584	1044.523	804.195
74.622	15.552	1044.016	803.581
75.636	15.664	1042.957	803.232
76.651	15.639	1042.630	802.788
77.666	15.622	1041.949	802.112
78.680	15.628	1041.354	801.610
79.695	15.620	1040.451	800.807
80.709	15.759	1040.244	801.241
81.724	15.741	1039.651	800.627
82.739	15.965	1038.305	800.582
83.753	15.936	1038.074	800.198
84.768	16.168	1037.184	800.541
85.782	16.247	1036.075	799.987
86.797	16.121	1035.492	798.870
87.812	15.991	1034.413	797.352
88.826	16.025	1033.281	796.572
89.841	16.042	1032.751	796.170
90.855	16.193	1031.107	795.547
91.870	16.203	1030.836	795.313
92.884	16.268	1029.659	794.641
93.899	16.155	1029.287	793.752
94.914	16.400	1027.657	793.573
95.928	16.332	1027.211	792.840
96.943	16.183	1026.745	791.713
97.957	16.168	1025.737	790.795
98.972	16.107	1024.791	789.711
99.987	16.246	1023.570	789.347
101.001	16.208	1022.525	788.297
102.016	16.210	1021.726	787.622
103.030	16.179	1021.373	787.132
104.045	16.000	1020.840	785.816
105.060	16.148	1018.995	785.016
106.074	15.920	1018.688	783.649
107.089	15.893	1017.089	782.227
108.103	15.924	1015.748	781.269
109.118	15.846	1015.354	780.537
110.133	15.849	1014.400	779.745
111.147	15.780	1013.391	778.583
112.162	15.930	1012.614	778.609
113.176	16.032	1011.737	778.337
114.191	16.038	1011.208	777.889
115.206	15.910	1010.670	776.819
116.220	15.914	1009.894	776.169
117.235	16.055	1008.433	775.626
118.249	15.897	1007.860	774.390
119.264	15.825	1007.295	773.558
120.279	15.860	1006.045	772.691
121.293	15.656	1005.914	771.585
122.308	15.751	1004.569	770.919
123.322	15.877	1002.903	770.149
124.337	15.744	1002.250	768.974
125.352	15.741	1001.323	768.181
126.366	15.684	1000.054	766.876
127.381	15.783	998.959	766.422
128.395	15.754	998.039	765.518
129.410	15.724	997.609	764.984
130.424	15.839	996.726	764.759
131.439	15.987	995.858	764.700
132.454	16.023	995.231	764.311
133.468	16.000	994.456	763.547
134.483	16.087	993.471	763.116
135.497	16.106	992.535	762.416
136.512	16.169	991.489	761.827
137.527	16.125	990.711	760.965
138.541	16.003	990.135	759.904
139.556	16.087	989.315	759.588
140.570	16.195	988.983	759.751
141.585	16.364	987.790	759.525
142.600	16.302	986.940	758.529
143.614	16.390	986.005	758.138
144.629	16.428	985.363	757.746
145.643	16.217	984.760	756.271
146.658	16.139	983.699	755.041
147.673	16.147	982.319	753.947
148.687	16.032	981.642	752.848
149.702	15.942	980.891	751.806
150.716	15.885	980.400	751.107
151.731	16.063	979.241	750.944
152.746	15.974	978.964	750.270
153.760	15.964	978.236	749.601
154.775	16.127	977.666	749.825
155.789	16.253	976.699	749.577
156.804	16.288	975.950	749.091
157.819	16.180	975.589	748.265
158.833	16.323	974.939	748.337
159.848	16.441	973.983	748.058
160.862	16.419	972.616	746.845
161.877	16.190	971.912	745.226
162.892	16.150	970.807	744.138
163.906	15.999	969.768	742.611
164.921	16.092	969.034	742.391
165.935	16.174	968.283	742.110
166.950	16.262	966.941	741.404
167.964	16.307	965.922	740.756
168.979	16.186	965.322	739.699
169.994	16.158	964.623	738.975
171.008	16.200	963.874	738.519
172.023	16.379	963.031	738.589
173.037	16.420	962.413	738.229
174.052	16.376	961.625	737.367
175.067	16.267	960.498	735.963
176.081	16.178	960.156	735.250
177.096	16.245	959.519	734.989
178.110	16.117	959.003	733.971
179.125	16.187	958.271	733.650
180.140	16.280	958.068	733.833
181.154	16.404	957.613	733.960
182.169	16.520	957.041	733.958
183.183	16.392	956.344	732.804
184.198	16.483	955.383	732.399
185.213	16.453	954.842	731.788
186.227	16.554	953.973	731.494
187.242	16.602	953.358	731.165
188.256	16.729	952.532	731.015
189.271	16.594	952.309	730.195
190.286	16.277	951.200	727.917
191.300	16.126	950.348	726.547
192.315	16.117	949.554	725.836
193.329	16.183	948.989	725.626
194.344	16.275	948.536	725.609
195.359	16.305	947.642	724.993
196.373	16.412	947.385	725.192
197.388	16.543	946.903	725.320
198.402	16.725	946.442	725.681
199.417	16.666	945.816	724.885
200.432	16.750	945.318	724.800
201.446	16.863	944.882	724.883
202.461	16.866	943.991	724.149
203.475	16.812	943.350	723.361
204.490	16.679	942.535	722.105
205.504	16.652	941.820	721.381
206.519	16.690	941.380	721.141
207.534	16.716	940.168	720.260
208.548	16.677	939.463	719.487
209.563	16.659	939.008	719.002
210.577	16.814	938.462	719.175
211.592	16.823	937.732	718.592
212.607	16.876	937.177	718.328
213.621	17.069	935.828	718.047
214.636	16.871	935.516	716.907
215.650	16.856	934.397	715.920
216.665	16.977	933.826	715.930
217.680	17.018	933.188	715.551
218.694	17.107	932.648	715.450
219.709	16.954	932.221	714.414
220.723	16.993	931.375	713.867
221.738	16.976	930.611	713.146
222.753	16.929	929.933	712.368
223.767	17.024	929.351	712.258
224.782	17.173	928.740	712.353
225.796	17.278	927.993	712.153
226.811	17.088	927.322	710.783
227.826	17.026	926.586	709.893
228.840	16.888	926.055	708.847
229.855	17.022	924.912	708.469
230.869	17.052	923.917	707.771
231.884	16.888	923.973	707.065
232.899	17.034	922.608	706.568
233.913	16.848	922.136	705.370
234.928	16.939	921.711	705.360
235.942	16.869	921.110	704.548
236.957	16.878	920.476	704.038
237.972	16.939	919.712	703.643
238.986	16.891	919.202	702.993
240.001	16.959	918.557	702.719
241.015	16.942	917.993	702.155
242.030	17.054	917.366	702.077
243.045	17.023	917.234	701.786
244.059	17.067	916.286	701.179
245.074	17.119	915.721	700.899
246.088	17.248	914.854	700.703
247.103	17.297	914.296	700.418
248.117	17.277	914.220	700.215
249.132	17.473	913.735	700.587
250.147	17.524	912.938	700.124
251.161	17.513	912.402	699.606
252.176	17.654	911.643	699.541
253.190	17.694	910.827	699.018
254.205	17.732	910.432	698.808
255.220	17.727	909.439	697.965
256.234	17.772	908.618	697.456
257.249	17.803	908.153	697.164
258.263	17.792	907.129	696.274
259.278	17.817	906.624	695.924
260.293	17.822	905.937	695.357
261.307	17.797	905.877	695.148
262.322	17.796	905.293	694.632
263.336	17.897	904.129	694.091
264.351	17.941	903.319	693.582
265.366	17.929	902.880	693.139
266.380	17.976	902.155	692.710
267.395	17.870	901.456	691.682
268.409	17.632	900.781	690.141
269.424	17.910	899.796	690.450
270.439	17.754	899.446	689.488
271.453	17.820	898.202	688.741
272.468	17.759	897.644	688.006
273.482	17.693	897.355	687.456
274.497	17.798	896.948	687.508
275.512	17.817	896.340	687.056
276.526	17.860	895.727	686.698
277.541	17.733	895.410	685.887
278.555	17.981	894.840	686.385
279.570	18.033	894.295	686.116
280.585	18.032	893.270	685.262
281.599	17.920	892.250	683.969
282.614	17.879	891.818	683.417
283.628	17.804	891.682	682.951
284.643	17.849	890.847	682.428
285.657	17.996	889.845	682.189
286.672	17.939	889.251	681.448
287.687	17.951	888.675	680.992
288.701	18.013	887.714	680.443
289.716	17.965	887.140	679.751
290.730	17.994	886.743	679.504
291.745	18.063	886.070	679.200
292.760	18.162	885.662	679.222
293.774	18.215	885.169	678.994
294.789	18.238	884.500	678.512
295.803	18.077	883.967	677.405
296.818	18.013	882.919	676.286
297.833	18.089	882.248	676.015
298.847	18.143	881.283	675.429
299.862	18.160	881.318	675.462
300.876	18.267	880.354	675.086
301.891	18.228	880.125	674.695
302.906	18.302	879.535	674.477
303.920	18.377	878.823	674.168
304.935	18.501	878.151	674.080
305.949	18.338	877.841	673.141
306.964	18.320	877.281	672.580
307.979	18.307	876.923	672.196
308.993	18.402	876.056	671.844
310.008	18.527	875.375	671.755
311.022	18.495	874.658	671.019
312.037	18.404	874.159	670.219
313.052	18.215	873.681	669.053
314.066	18.259	872.756	668.459
315.081	18.231	872.400	668.019
316.095	18.257	871.727	667.543
317.110	18.278	871.266	667.216
318.125	18.387	870.340	666.872
319.139	18.374	870.205	666.659
320.154	18.341	869.560	665.976
321.168	18.293	868.948	665.264
322.183	18.320	868.731	665.144
323.197	18.448	867.900	664.945
324.212	18.417	867.358	664.351
325.227	18.333	866.924	663.631
326.241	18.352	866.152	663.055
327.256	18.325	865.318	662.256
328.270	18.251	864.966	661.642
329.285	18.156	864.658	660.980
330.300	18.370	863.741	661.047
331.314	18.380	863.193	660.606
332.329	18.527	862.698	660.738
333.343	18.474	862.799	660.551
334.358	18.531	861.992	660.094
335.373	18.649	861.810	660.348
336.387	18.732	861.247	660.178
337.402	18.657	861.147	659.757
338.416	18.652	861.138	659.674
339.431	18.712	860.483	659.342
340.446	18.954	859.828	659.710
341.460	18.815	859.923	659.193
342.475	18.786	859.616	658.788
343.489	18.878	858.987	658.598
344.504	18.843	858.296	657.876
345.519	19.060	857.850	658.306
346.533	18.992	857.350	657.607
347.548	18.884	856.799	656.710
348.562	18.825	855.718	655.598
349.577	18.641	855.084	654.354
350.592	18.668	854.446	653.910
351.606	18.667	853.943	653.464
352.621	18.570	853.018	652.329
353.635	18.726	852.708	652.630
354.650	18.777	852.238	652.406
355.665	18.810	851.547	651.943
356.679	18.945	850.759	651.794
357.694	18.892	850.265	651.159
358.708	19.022	849.235	650.801
359.723	19.043	848.681	650.398
360.738	18.986	848.209	649.766
361.752	18.940	847.998	649.374
362.767	19.013	847.412	649.142
363.781	19.258	846.617	649.398
364.796	19.366	846.194	649.425
365.810	19.329	846.014	649.090
366.825	19.211	845.632	648.293
367.840	19.301	845.298	648.318
368.854	19.249	844.569	647.508
369.869	19.289	843.872	647.067
370.883	19.347	843.649	647.055
371.898	19.338	843.401	646.774
372.913	19.375	842.580	646.224
373.927	19.185	842.119	645.102
374.942	19.240	842.160	645.282
375.956	19.445	841.676	645.623
376.971	19.467	841.159	645.252
377.986	19.637	840.582	645.387
379.000	19.504	840.339	644.648
380.015	19.603	839.510	644.322
381.029	19.597	838.915	643.786
382.044	19.598	837.985	643.019
383.059	19.621	837.592	642.746
384.073	19.545	837.217	642.118
385.088	19.370	836.658	640.982
386.102	19.453	835.800	640.579
387.117	19.384	835.281	639.867
388.132	19.463	834.576	639.565
389.146	19.411	834.107	638.953
390.161	19.589	833.684	639.235
391.175	19.524	833.241	638.597
392.190	19.467	832.918	638.083
393.205	19.451	832.439	637.600
394.219	19.453	831.766	637.035
395.234	19.193	831.693	635.961
396.248	19.396	830.840	636.003
397.263	19.427	830.430	635.748
398.278	19.351	829.893	634.998
399.292	19.464	829.385	634.969
400.307	19.404	828.937	634.349
401.321	19.410	828.328	633.850
402.336	19.409	828.063	633.587
403.350	19.442	827.620	633.314
404.365	19.556	827.742	633.768
405.380	19.602	827.363	633.594
406.394	19.732	826.635	633.457
407.409	19.853	826.372	633.639
408.423	19.776	825.760	632.833
409.438	19.912	825.255	632.888
410.453	20.006	824.877	632.885
411.467	19.948	824.439	632.283
412.482	20.121	823.536	632.165
413.496	20.069	823.590	631.959
414.511	20.094	823.304	631.775
415.526	19.993	822.729	630.911
416.540	20.044	822.188	630.625
417.555	20.067	821.620	630.219
418.569	19.962	821.376	629.592
419.584	19.971	821.011	629.289
420.599	20.089	820.376	629.178
421.613	153.006	1368.105	1778.516
422.628	133.272	1447.917	1778.645
