DTS Sentinel unit serial number:	SN413079Multiplexer serial number:	ORYXHardware model number:	OX4-SRSoftware version number:	ORYX F/W v4.00 Oryx Data Collector v3.7.2.0data status	okinstallation	princeton_trtdifferential loss correction	single-endedforward channel	channel 1reverse channel	N/Adate	2019/09/18time	15:06:35forward acquisition time	60.00reverse acquisition time	0.00gamma	496.2192k internal	0.2306k external	0.2306temperature offset calibration	0.9991default loss term (dB/km)	0.3790temperature slope calibration	1.0000multiplexer offset coefficient	1.0000multiplexer slope coefficient	1.0000fibre end	0.00T internal ref (°C)	35.31T ext. ref 1 (°C)	0.73T ext. ref 2 (°C)	32.42length (m)	temperature (°C)	Stokes	anti-Stokes-747.200	-51.819	0.105	0.050
-746.185	-129.441	-0.380	0.054
-745.171	-200.000	0.015	0.116
-744.156	282.533	0.080	0.145
-743.142	-200.000	0.003	0.193
-742.127	306.293	-0.013	-0.025
-741.112	91.606	0.034	0.039
-740.098	96.231	0.140	0.163
-739.083	-112.074	0.382	-0.078
-738.069	435.188	-0.042	-0.092
-737.054	800.000	-0.082	-0.299
-736.039	-105.039	-0.373	-0.087
-735.025	25.583	-0.137	0.116
-734.010	91.261	-0.204	-0.233
-732.996	-133.449	0.205	-0.026
-731.981	-33.300	0.257	0.144
-730.966	-200.000	0.005	-0.030
-729.952	-34.061	-0.275	-0.154
-728.937	-130.818	-0.229	0.031
-727.923	800.000	0.085	-0.296
-726.908	57.444	-0.108	-0.108
-725.894	-200.000	-0.018	-0.169
-724.879	-54.094	-0.130	0.060
-723.864	-83.631	0.337	-0.110
-722.850	-44.063	-0.318	0.162
-721.835	-168.062	-0.131	-0.005
-720.821	-110.301	0.110	-0.023
-719.806	138.939	-0.089	0.119
-718.791	-16.219	-0.172	-0.111
-717.777	-18.484	0.328	0.208
-716.762	137.501	0.088	0.117
-715.748	800.000	0.036	-0.139
-714.733	38.170	0.164	-0.149
-713.718	-200.000	-0.007	0.037
-712.704	-200.000	0.026	-0.307
-711.689	-200.000	-0.015	-0.114
-710.675	-200.000	-0.020	0.224
-709.660	42.512	-0.205	-0.190
-708.645	27.466	0.118	-0.101
-707.631	-113.757	0.373	-0.074
-706.616	-153.940	0.439	-0.030
-705.602	800.000	0.032	0.108
-704.587	-60.752	0.201	0.086
-703.572	51.188	0.164	0.158
-702.558	124.004	0.121	0.154
-701.543	-200.000	0.004	-0.262
-700.529	9.052	-0.083	-0.064
-699.514	-200.000	-0.063	-0.464
-698.499	-200.000	0.300	0.000
-697.485	73.930	0.196	0.209
-696.470	18.300	0.080	-0.065
-695.456	-81.207	-0.221	0.074
-694.441	-174.636	-0.225	-0.007
-693.426	7.199	0.115	-0.088
-692.412	-108.813	0.468	-0.102
-691.397	-60.953	-0.161	-0.069
-690.383	125.140	0.096	0.123
-689.368	800.000	0.033	0.143
-688.354	131.558	0.242	0.316
-687.339	94.981	-0.182	0.211
-686.324	99.420	-0.215	0.253
-685.310	1.032	-0.214	-0.156
-684.295	-91.687	0.281	0.081
-683.281	9.482	-0.171	0.131
-682.266	-108.731	0.188	0.041
-681.251	101.920	0.137	-0.162
-680.237	115.697	0.085	-0.106
-679.222	-200.000	-0.020	0.280
-678.208	163.292	-0.071	0.101
-677.193	241.130	-0.081	-0.138
-676.178	800.000	0.085	-0.269
-675.164	-123.831	-0.274	0.044
-674.149	-200.000	-0.044	-0.290
-673.135	518.121	-0.070	0.166
-672.120	104.558	0.148	-0.177
-671.105	-13.931	0.255	-0.167
-670.091	-60.368	0.220	-0.095
-669.076	800.000	-0.031	0.103
-668.062	87.959	0.103	-0.116
-667.047	-20.411	0.111	0.069
-666.032	-57.767	0.265	0.118
-665.018	222.187	0.073	0.119
-664.003	-0.357	0.157	-0.113
-662.989	-57.201	-0.309	-0.138
-661.974	-45.582	0.294	-0.148
-660.959	167.750	0.073	0.106
-659.945	-32.735	0.239	-0.135
-658.930	142.306	-0.235	0.316
-657.916	108.293	-0.087	0.106
-656.901	4.516	0.182	-0.136
-655.886	325.001	-0.032	0.062
-654.872	-78.280	-0.115	0.040
-653.857	-94.355	0.127	-0.035
-652.843	-200.000	-0.052	-0.352
-651.828	-131.288	-0.405	0.054
-650.814	-18.841	-0.222	0.140
-649.799	-200.000	0.002	0.047
-648.784	174.048	-0.084	0.123
-647.770	95.098	-0.164	0.189
-646.755	516.663	0.065	0.154
-645.741	800.000	-0.024	0.095
-644.726	175.069	0.236	-0.347
-643.711	116.381	0.092	-0.114
-642.697	-50.059	-0.285	0.137
-641.682	-24.196	0.131	-0.079
-640.668	-33.091	0.465	-0.261
-639.653	75.114	-0.275	-0.294
-638.638	197.352	0.115	0.177
-637.624	-24.308	0.228	0.138
-636.609	229.315	0.141	0.233
-635.595	52.154	-0.207	0.200
-634.580	-102.600	0.128	-0.031
-633.565	-200.000	0.048	-0.358
-632.551	105.137	0.138	-0.165
-631.536	-200.000	-0.010	-0.083
-630.522	-163.709	0.222	0.011
-629.507	800.000	-0.095	-0.289
-628.492	110.239	-0.106	-0.129
-627.478	-200.000	-0.034	0.161
-626.463	-200.000	-0.023	0.135
-625.449	800.000	0.079	-0.265
-624.434	800.000	-0.115	0.433
-623.419	165.835	-0.102	-0.146
-622.405	-200.000	0.058	-0.276
-621.390	-12.124	-0.082	-0.054
-620.376	-35.004	0.116	-0.064
-619.361	139.727	0.226	-0.302
-618.346	-3.086	0.138	0.098
-617.332	-140.023	0.187	0.020
-616.317	800.000	0.055	-0.228
-615.303	800.000	-0.010	0.043
-614.288	145.890	-0.222	0.301
-613.273	800.000	0.103	0.395
-612.259	20.326	0.128	-0.105
-611.244	-72.496	-0.405	-0.151
-610.230	-96.500	0.205	-0.055
-609.215	-18.065	-0.150	0.095
-608.201	-35.314	-0.099	0.054
-607.186	800.000	0.021	-0.088
-606.171	-84.761	-0.178	-0.057
-605.157	214.603	0.055	0.088
-604.142	347.182	-0.022	0.045
-603.128	-68.145	-0.240	0.094
-602.113	93.348	-0.073	0.083
-601.098	-200.000	0.021	0.182
-600.084	13.587	-0.137	0.108
-599.069	6.841	-0.231	0.174
-598.055	63.389	-0.137	-0.140
-597.040	8.981	-0.242	0.185
-596.025	37.992	0.145	0.130
-595.011	27.919	0.062	-0.053
-593.996	800.000	0.022	0.077
-592.982	-200.000	-0.027	-0.190
-591.967	233.753	-0.146	0.243
-590.952	611.444	-0.089	-0.224
-589.938	0.041	-0.264	0.191
-588.923	800.000	0.092	0.364
-587.909	-72.639	0.182	-0.068
-586.894	-29.942	-0.172	0.099
-585.879	-55.822	0.315	0.142
-584.865	-143.566	-0.167	0.016
-583.850	-38.624	0.185	-0.099
-582.836	-61.193	-0.221	-0.094
-581.821	-200.000	-0.007	-0.168
-580.806	88.813	-0.163	-0.184
-579.792	602.325	-0.083	-0.208
-578.777	309.426	-0.046	-0.086
-577.763	800.000	0.012	0.048
-576.748	-17.920	0.128	0.081
-575.733	26.718	-0.150	0.127
-574.719	451.733	-0.075	-0.167
-573.704	161.086	-0.068	0.096
-572.690	583.935	0.074	0.185
-571.675	-173.563	-0.334	0.010
-570.661	464.453	-0.061	-0.139
-569.646	-151.503	0.215	0.016
-568.631	461.395	0.047	-0.106
-567.617	-76.590	-0.078	0.028
-566.602	-200.000	0.002	0.126
-565.588	149.218	0.146	-0.200
-564.573	-89.947	-0.109	0.032
-563.558	270.542	0.112	-0.199
-562.544	6.461	0.109	-0.082
-561.529	-200.000	-0.031	0.263
-560.515	-93.652	0.265	-0.074
-559.500	53.042	-0.145	-0.141
-558.485	12.381	0.165	-0.128
-557.471	-41.345	0.076	-0.039
-556.456	-94.634	-0.151	-0.042
-555.442	45.748	0.156	0.146
-554.427	-84.941	-0.215	-0.068
-553.412	-200.000	-0.005	-0.079
-552.398	75.887	-0.429	-0.458
-551.383	-75.542	-0.439	0.158
-550.369	-25.016	0.052	0.031
-549.354	457.104	0.069	-0.154
-548.339	203.262	-0.142	-0.222
-547.325	447.571	0.021	-0.046
-546.310	-158.390	0.334	-0.020
-545.296	387.013	0.084	0.174
-544.281	751.491	-0.118	0.321
-543.266	-55.266	-0.147	-0.067
-542.252	-88.453	0.193	-0.058
-541.237	49.759	-0.110	0.105
-540.223	416.466	-0.055	0.118
-539.208	-48.987	-0.093	0.045
-538.193	-162.615	0.326	-0.016
-537.179	-146.993	0.159	-0.014
-536.164	800.000	0.003	-0.012
-535.150	-200.000	-0.016	-0.177
-534.135	-68.708	0.137	-0.054
-533.121	-200.000	-0.018	-0.402
-532.106	13.992	0.093	-0.073
-531.091	21.448	-0.117	0.096
-530.077	181.762	-0.152	0.226
-529.062	12.726	0.095	0.074
-528.048	-52.659	-0.105	0.049
-527.033	-200.000	0.007	-0.067
-526.018	-52.399	0.174	-0.081
-525.004	134.987	0.128	0.168
-523.989	-93.754	-0.214	-0.059
-522.975	-86.198	0.262	-0.082
-521.960	-200.000	-0.045	-0.302
-520.945	800.000	0.031	0.128
-519.931	180.760	0.025	0.037
-518.916	-47.987	0.143	0.070
-517.902	800.000	-0.083	0.321
-516.887	63.850	0.153	-0.155
-515.872	-129.515	0.125	0.017
-514.858	162.448	0.219	0.310
-513.843	52.628	-0.397	-0.383
-512.829	-159.765	0.260	0.014
-511.814	800.000	0.025	0.098
-510.799	-28.339	0.221	-0.129
-509.785	-200.000	0.068	-0.670
-508.770	-24.454	0.105	-0.063
-507.756	4.685	-0.098	-0.073
-506.741	-98.456	-0.241	0.062
-505.726	-15.225	-0.131	0.084
-504.712	800.000	0.040	-0.130
-503.697	495.230	-0.114	0.264
-502.683	-95.161	0.206	0.056
-501.668	-200.000	-0.026	0.165
-500.653	656.111	0.200	-0.517
-499.639	302.057	-0.070	-0.130
-498.624	-72.182	0.064	0.024
-497.610	322.843	-0.192	-0.369
-496.595	-174.264	-0.128	0.004
-495.581	-113.815	0.305	-0.060
-494.566	800.000	0.107	-0.356
-493.551	6.606	-0.049	-0.037
-492.537	-69.095	0.150	0.058
-491.522	-101.270	0.119	0.029
-490.508	-55.846	-0.035	-0.016
-489.493	-95.733	0.245	-0.066
-488.478	-18.054	-0.076	0.048
-487.464	-71.879	-0.067	-0.025
-486.449	-29.797	-0.042	-0.024
-485.435	290.113	-0.241	-0.441
-484.420	58.578	0.094	-0.093
-483.405	-106.398	0.389	0.088
-482.391	664.345	-0.110	0.287
-481.376	800.000	-0.050	0.154
-480.362	560.467	0.223	0.542
-479.347	-200.000	-0.029	-0.335
-478.332	-113.498	0.512	-0.101
-477.318	175.038	0.195	0.284
-476.303	-45.067	0.276	0.138
-475.289	8.904	-0.074	-0.056
-474.274	-200.000	0.011	-0.125
-473.259	8.503	0.154	-0.117
-472.245	475.642	-0.148	0.337
-471.230	-117.808	-0.322	0.058
-470.216	68.135	-0.146	0.150
-469.201	-142.445	0.387	0.038
-468.186	800.000	-0.023	0.101
-467.172	5.821	-0.145	0.108
-466.157	-200.000	-0.006	-0.254
-465.143	-81.483	-0.238	0.079
-464.128	-174.320	-0.219	-0.006
-463.113	-65.411	-0.133	-0.054
-462.099	186.653	0.182	0.273
-461.084	-102.522	0.298	-0.072
-460.070	-117.223	-0.228	0.042
-459.055	800.000	0.045	-0.166
-458.040	-132.935	-0.228	0.029
-457.026	283.642	-0.146	0.264
-456.011	-200.000	-0.001	0.272
-454.997	350.026	-0.224	-0.446
-453.982	-49.676	-0.169	0.081
-452.968	-200.000	-0.048	-0.276
-451.953	-200.000	0.011	-0.162
-450.938	-109.945	0.370	0.078
-449.924	-200.000	-0.006	0.088
-448.909	229.568	-0.128	-0.210
-447.895	-61.619	-0.196	0.083
-446.880	794.600	-0.122	0.337
-445.865	800.000	0.005	0.014
-444.851	110.786	-0.072	-0.087
-443.836	-62.759	0.211	0.088
-442.822	-200.000	-0.031	0.141
-441.807	-34.168	-0.173	-0.096
-440.792	151.770	0.041	-0.056
-439.778	-32.576	0.246	-0.138
-438.763	239.098	-0.102	-0.171
-437.749	58.855	-0.208	-0.205
-436.734	800.000	0.025	0.098
-435.719	40.584	0.227	-0.206
-434.705	63.656	-0.195	0.196
-433.690	134.879	-0.052	-0.068
-432.676	-188.526	0.140	-0.002
-431.661	-22.557	-0.203	-0.123
-430.646	-0.238	0.151	0.108
-429.632	14.656	0.050	0.039
-428.617	64.675	-0.243	0.246
-427.603	-153.031	0.149	-0.011
-426.588	476.633	-0.023	0.053
-425.573	-200.000	-0.009	0.047
-424.559	-92.149	-0.114	-0.032
-423.544	224.006	0.073	0.119
-422.530	323.822	-0.105	0.202
-421.515	55.243	-0.059	-0.058
-420.500	519.144	0.163	0.383
-419.486	187.168	0.110	-0.164
-418.471	210.525	-0.125	0.197
-417.457	-200.000	-0.036	-0.479
-416.442	59.791	0.132	-0.130
-415.428	-112.506	-0.233	-0.047
-414.413	800.000	0.164	-0.587
-413.398	-67.455	0.362	0.143
-412.384	70.707	0.244	0.254
-411.369	-186.047	0.072	0.001
-410.355	28.613	-0.239	0.203
-409.340	464.961	-0.164	0.369
-408.325	173.015	-0.098	-0.141
-407.311	-185.404	0.124	-0.002
-406.296	52.095	-0.100	-0.096
-405.282	-200.000	-0.025	-0.354
-404.267	778.011	0.141	-0.387
-403.252	-99.178	-0.096	-0.024
-402.238	800.000	-0.037	-0.146
-401.223	-45.414	-0.190	-0.094
-400.209	-200.000	-0.015	0.555
-399.194	-105.682	-0.263	-0.060
-398.179	-55.647	0.392	0.176
-397.165	-152.407	0.160	-0.012
-396.150	800.000	0.102	-0.346
-395.136	237.549	-0.147	-0.244
-394.121	175.383	0.024	0.034
-393.106	170.665	0.129	-0.185
-392.092	-143.980	-0.360	-0.034
-391.077	-130.802	0.218	-0.029
-390.063	-0.970	0.105	0.074
-389.048	-120.391	0.352	0.060
-388.033	-69.329	-0.126	-0.049
-387.019	800.000	0.080	0.241
-386.004	613.340	0.150	0.378
-384.990	482.229	0.160	0.364
-383.975	-19.172	-0.170	-0.106
-382.960	640.043	0.076	-0.194
-381.946	303.982	0.202	0.375
-380.931	48.122	-0.266	0.250
-379.917	-59.670	-0.206	-0.089
-378.902	-139.423	-0.174	-0.019
-377.888	317.920	0.036	-0.068
-376.873	300.892	-0.204	-0.377
-375.858	-50.484	-0.274	0.129
-374.844	-200.000	-0.009	0.047
-373.829	-200.000	-0.021	0.131
-372.815	-200.000	-0.016	-0.497
-371.800	-39.162	0.276	-0.145
-370.785	14.419	-0.211	0.165
-369.771	-51.666	0.265	-0.124
-368.756	-14.763	-0.160	-0.103
-367.742	-110.928	0.094	0.019
-366.727	-200.000	-0.007	-0.129
-365.712	158.564	-0.064	0.089
-364.698	262.484	0.129	-0.225
-363.683	-76.538	-0.240	-0.084
-362.669	-49.391	-0.206	-0.099
-361.654	-200.000	-0.052	0.358
-360.639	597.596	-0.071	-0.177
-359.625	-65.548	0.195	0.079
-358.610	10.746	-0.196	0.150
-357.596	800.000	0.062	-0.224
-356.581	103.686	-0.024	0.029
-355.566	44.861	-0.177	0.164
-354.552	-105.284	0.049	-0.011
-353.537	-80.712	-0.106	-0.035
-352.523	334.246	-0.228	-0.443
-351.508	332.882	-0.122	0.236
-350.493	-97.987	0.329	0.085
-349.479	9.322	0.238	0.180
-348.464	-39.800	-0.071	-0.037
-347.450	-22.603	0.078	0.047
-346.435	176.436	-0.061	0.088
-345.420	-82.024	0.217	0.071
-344.406	-37.650	0.158	0.084
-343.391	35.877	-0.186	0.164
-342.377	800.000	-0.012	0.041
-341.362	163.200	0.147	-0.207
-340.348	65.579	0.230	-0.233
-339.333	-112.251	-0.282	-0.057
-338.318	-99.099	0.041	0.010
-337.304	-200.000	-0.057	0.272
-336.289	-200.000	-0.007	0.201
-335.275	-200.000	0.023	0.112
-334.260	38.401	-0.161	0.144
-333.245	-67.819	-0.092	-0.036
-332.231	-200.000	0.017	0.138
-331.216	-200.000	-0.015	0.224
-330.202	-23.319	-0.313	-0.188
-329.187	366.813	0.142	-0.287
-328.172	-59.282	0.333	-0.144
-327.158	274.241	-0.105	-0.187
-326.143	800.000	-0.045	-0.149
-325.129	800.000	-0.021	-0.088
-324.114	-131.957	-0.363	0.047
-323.099	-51.818	0.159	0.074
-322.085	800.000	-0.048	0.159
-321.070	-41.053	-0.190	0.098
-320.056	-147.777	0.070	0.006
-319.041	-176.462	-0.047	0.001
-318.026	301.385	-0.062	0.115
-317.012	28.747	0.088	0.074
-315.997	271.057	-0.085	0.150
-314.983	-72.453	0.151	-0.056
-313.968	-64.019	0.295	-0.121
-312.953	607.929	-0.122	-0.305
-311.939	227.808	-0.301	0.489
-310.924	-200.000	-0.039	0.269
-309.910	4.566	0.150	0.110
-308.895	-2.978	-0.254	-0.177
-307.880	256.047	-0.085	0.146
-306.866	26.313	0.175	-0.146
-305.851	-87.289	0.061	-0.018
-304.837	-77.555	-0.070	0.024
-303.822	-200.000	0.009	0.483
-302.807	450.980	-0.197	0.435
-301.793	-173.526	0.068	-0.002
-300.778	215.346	-0.099	0.158
-299.764	-63.526	-0.209	0.086
-298.749	-111.525	-0.169	0.034
-297.735	158.184	0.094	-0.130
-296.720	6.086	0.113	-0.084
-295.705	-117.351	-0.237	-0.043
-294.691	-28.300	-0.116	0.067
-293.676	-200.000	0.003	-0.287
-292.662	199.150	0.188	0.288
-291.647	77.504	-0.116	0.124
-290.632	62.182	0.133	-0.132
-289.618	271.658	0.137	0.241
-288.603	31.422	0.126	0.109
-287.589	637.316	0.063	-0.160
-286.574	-72.193	0.165	-0.061
-285.559	-200.000	-0.011	-0.302
-284.545	-70.517	0.206	-0.078
-283.530	-200.000	-0.024	0.283
-282.516	172.580	0.082	0.118
-281.501	11.518	0.202	-0.155
-280.486	-75.723	0.171	0.061
-279.472	40.225	0.109	-0.098
-278.457	9.468	0.296	0.224
-277.443	424.502	0.099	0.212
-276.428	-200.000	0.015	0.170
-275.413	-200.000	-0.029	0.152
-274.399	-200.000	0.133	-0.623
-273.384	-101.430	-0.186	0.045
-272.370	68.756	-0.123	-0.126
-271.355	91.893	0.107	0.120
-270.340	-200.000	0.009	0.063
-269.326	-200.000	0.044	0.221
-268.311	228.868	0.079	-0.129
-267.297	-30.060	0.249	-0.141
-266.282	-29.220	0.133	0.076
-265.267	800.000	0.006	0.025
-264.253	193.658	0.160	0.242
-263.238	407.944	0.007	-0.014
-262.224	-147.824	0.270	-0.023
-261.209	-72.772	-0.114	0.042
-260.195	-28.657	-0.107	0.061
-259.180	-200.000	0.008	-0.195
-258.165	463.184	0.207	0.461
-257.151	167.172	-0.084	-0.118
-256.136	211.507	-0.187	0.293
-255.122	-86.617	-0.160	0.049
-254.107	353.910	-0.079	0.157
-253.092	-28.671	0.122	-0.070
-252.078	204.376	-0.139	-0.215
-251.063	46.624	-0.190	0.176
-250.049	-181.322	-0.341	0.007
-249.034	-130.828	-0.129	0.017
-248.019	202.545	-0.145	-0.223
-247.005	-200.000	0.022	0.127
-245.990	3.355	0.317	0.230
-244.976	-200.000	0.037	0.168
-243.961	800.000	0.100	-0.286
-242.946	800.000	0.047	0.152
-241.932	-139.722	-0.314	0.033
-240.917	11.071	0.214	-0.163
-239.903	-155.984	0.184	0.012
-238.888	-175.756	-0.118	0.003
-237.873	269.547	0.055	-0.096
-236.859	-200.000	-0.001	0.044
-235.844	800.000	0.079	0.286
-234.830	35.277	0.119	0.104
-233.815	472.687	-0.092	-0.207
-232.800	34.505	-0.129	0.112
-231.786	-33.888	0.275	0.151
-230.771	-150.233	-0.187	-0.014
-229.757	92.125	0.241	0.271
-228.742	-114.713	-0.213	-0.041
-227.727	800.000	0.029	0.085
-226.713	-177.931	-0.467	-0.011
-225.698	800.000	-0.067	-0.248
-224.684	128.218	0.165	-0.209
-223.669	-154.290	0.272	-0.018
-222.655	-200.000	-0.023	0.170
-221.640	504.441	-0.056	0.129
-220.625	-98.911	-0.100	0.025
-219.611	24.584	0.081	0.067
-218.596	-200.000	-0.022	-0.101
-217.582	-125.395	-0.111	0.017
-216.567	-200.000	-0.013	-0.117
-215.552	-121.748	0.455	-0.075
-214.538	-200.000	0.046	-0.249
-213.523	-147.254	-0.281	0.024
-212.509	-200.000	0.005	-0.091
-211.494	48.763	0.171	0.160
-210.479	40.066	0.182	-0.163
-209.465	358.950	0.040	0.079
-208.450	-200.000	0.000	0.088
-207.436	-48.102	-0.092	-0.044
-206.421	569.192	0.101	0.245
-205.406	280.176	-0.081	-0.144
-204.392	-200.000	0.023	-0.484
-203.377	-127.033	-0.252	0.037
-202.363	-53.247	-0.258	0.118
-201.348	800.000	0.163	0.528
-200.333	558.569	-0.060	0.143
-199.319	130.065	-0.095	-0.121
-198.304	-200.000	-0.002	0.057
-197.290	-23.879	0.045	0.027
-196.275	-38.186	-0.401	-0.212
-195.260	800.000	-0.033	0.135
-194.246	768.376	-0.089	0.240
-193.231	-153.594	-0.136	-0.009
-192.217	-200.000	-0.006	-0.119
-191.202	74.824	-0.149	0.156
-190.187	-200.000	0.051	-0.297
-189.173	13.945	-0.144	-0.112
-188.158	62.962	0.184	-0.183
-187.144	-117.402	0.112	-0.020
-186.129	-152.409	0.228	-0.016
-185.114	-133.324	0.182	-0.023
-184.100	464.071	-0.147	-0.327
-183.085	800.000	0.082	-0.237
-182.071	-200.000	-0.024	-0.368
-181.056	-200.000	0.032	-0.450
-180.042	-57.985	0.138	0.060
-179.027	-200.000	0.008	-0.116
-178.012	-200.000	-0.023	0.323
-176.998	800.000	0.027	0.118
-175.983	-118.849	-0.239	-0.042
-174.969	87.502	-0.205	-0.226
-173.954	207.546	0.127	0.198
-172.939	-200.000	-0.024	0.267
-171.925	-136.690	0.173	-0.020
-170.910	323.343	0.111	-0.211
-169.896	-129.954	-0.216	0.029
-168.881	192.362	0.037	0.056
-167.866	120.723	-0.081	0.100
-166.852	-200.000	0.012	-0.203
-165.837	800.000	-0.045	0.146
-164.823	119.888	0.028	-0.035
-163.808	-57.395	0.365	-0.159
-162.793	800.000	-0.056	-0.184
-161.779	800.000	-0.040	0.128
-160.764	86.167	0.285	0.313
-159.750	-96.573	-0.222	0.058
-158.735	47.235	-0.106	0.098
-157.720	16.875	-0.223	-0.175
-156.706	-200.000	0.033	-0.287
-155.691	120.880	-0.140	0.173
-154.677	125.899	-0.037	-0.047
-153.662	-101.308	-0.211	0.051
-152.647	-121.118	0.416	-0.069
-151.633	45.722	0.141	0.129
-150.618	-42.174	0.246	-0.125
-149.604	-200.000	0.023	0.128
-148.589	489.422	-0.049	-0.111
-147.574	-21.582	0.082	0.050
-146.560	-50.620	-0.380	0.178
-145.545	318.682	0.074	0.140
-144.531	6.146	0.211	-0.155
-143.516	800.000	0.070	0.201
-142.502	52.818	0.192	-0.183
-141.487	-31.690	0.180	-0.100
-140.472	-145.676	-0.298	-0.026
-139.458	266.356	0.188	0.326
-138.443	-200.000	-0.001	-0.053
-137.429	-13.001	0.447	0.289
-136.414	-34.012	-0.267	-0.146
-135.399	-147.495	0.170	-0.014
-134.385	-200.000	-0.418	-0.001
-133.370	-85.434	-0.222	0.069
-132.356	-110.021	-0.316	-0.066
-131.341	-70.661	0.090	0.034
-130.326	-81.635	0.242	0.079
-129.312	-200.000	-0.028	0.193
-128.297	169.961	0.058	-0.082
-127.283	160.456	0.115	0.160
-126.268	800.000	0.084	0.335
-125.253	-65.551	-0.271	-0.108
-124.239	187.712	0.223	-0.331
-123.224	800.000	-0.044	-0.138
-122.210	-67.950	-0.283	0.110
-121.195	800.000	0.074	0.261
-120.180	-200.000	-0.045	0.368
-119.166	271.303	-0.061	-0.107
-118.151	25.530	-0.380	-0.314
-117.137	800.000	0.143	-0.414
-116.122	52.763	0.211	-0.200
-115.107	543.151	-0.128	-0.303
-114.093	93.840	0.220	-0.248
-113.078	-64.310	-0.212	-0.086
-112.064	78.829	-0.094	0.100
-111.049	512.616	-0.077	0.178
-110.034	-63.889	0.512	0.208
-109.020	-200.000	-0.007	0.379
-108.005	800.000	-0.075	0.263
-106.991	-99.609	0.216	-0.054
-105.976	443.907	0.079	-0.171
-104.962	95.570	0.268	0.304
-103.947	-18.014	-0.060	-0.037
-102.932	248.747	-0.007	0.011
-101.918	588.861	-0.095	-0.232
-100.903	-200.000	-0.033	0.313
-99.889	78.714	-0.205	0.218
-98.874	-115.104	0.121	-0.023
-97.859	-200.000	-0.003	-0.242
-96.845	-121.441	-0.312	0.051
-95.830	183.858	-0.055	0.081
-94.816	-43.813	-0.232	0.116
-93.801	763.159	0.157	-0.423
-92.786	-115.397	0.303	-0.057
-91.772	732.017	0.105	0.279
-90.757	473.133	0.069	-0.154
-89.743	-4.855	-0.096	0.066
-88.728	-200.000	-0.045	-0.220
-87.713	800.000	-0.061	-0.185
-86.699	-85.795	0.138	0.043
-85.684	10.487	-0.260	0.197
-84.670	800.000	0.084	-0.239
-83.655	-200.000	0.020	0.326
-82.640	22.907	-0.275	0.223
-81.626	60.003	-0.275	0.269
-80.611	-14.737	0.391	0.249
-79.597	248.663	0.086	0.144
-78.582	-97.066	-0.387	-0.100
-77.567	-4.217	0.338	-0.232
-76.553	-125.963	-0.039	-0.006
-75.538	-77.722	-0.259	-0.089
-74.524	-35.709	-0.142	0.076
-73.509	752.239	-0.103	-0.275
-72.494	81.553	0.394	-0.422
-71.480	79.631	0.060	0.064
-70.465	53.862	0.311	-0.296
-69.451	800.000	0.091	0.251
-68.436	800.000	0.052	0.215
-67.422	417.868	0.188	0.398
-66.407	-183.339	-0.196	-0.003
-65.392	-37.549	-0.233	-0.123
-64.378	-128.238	0.194	-0.027
-63.363	-200.000	0.033	0.246
-62.349	57.940	0.304	0.295
-61.334	137.497	-0.775	-1.004
-60.319	16.057	0.287	0.224
-59.305	-200.000	-0.199	-0.928
-58.290	800.000	0.334	1.100
-57.276	800.000	0.510	1.533
-56.261	-200.000	94.298	554.960
-55.246	509.685	1413.193	3253.915
-54.232	145.571	2629.318	3488.537
-53.217	113.132	2221.729	2668.417
-52.203	47.136	1664.551	1534.212
-51.188	38.732	1397.216	1235.107
-50.173	35.511	1354.279	1177.390
-49.159	55.696	1401.724	1344.972
-48.144	59.394	1420.111	1385.622
-47.130	39.073	1375.050	1217.436
-46.115	35.543	1357.138	1179.888
-45.100	35.294	1352.316	1174.123
-44.086	35.279	1349.490	1171.530
-43.071	35.114	1347.768	1168.980
-42.057	35.058	1345.806	1166.892
-41.042	35.242	1343.609	1166.060
-40.027	35.115	1342.630	1164.394
-39.013	35.291	1340.136	1163.250
-37.998	35.307	1338.007	1161.453
-36.984	35.207	1336.473	1159.475
-35.969	35.331	1334.655	1158.601
-34.954	35.320	1333.236	1157.252
-33.940	35.365	1331.981	1156.390
-32.925	35.470	1330.514	1155.705
-31.911	35.397	1328.708	1153.651
-30.896	35.403	1327.378	1152.487
-29.881	35.519	1325.654	1151.638
-28.867	35.556	1324.284	1150.623
-27.852	35.470	1322.992	1148.942
-26.838	35.420	1321.630	1147.415
-25.823	35.408	1320.120	1145.988
-24.809	35.328	1318.893	1144.398
-23.794	35.409	1317.170	1143.339
-22.779	35.365	1315.878	1141.910
-21.765	35.488	1314.351	1141.272
-20.750	35.363	1313.687	1139.909
-19.736	35.393	1311.955	1138.536
-18.721	35.204	1311.020	1136.559
-17.706	35.189	1310.149	1135.669
-16.692	35.268	1308.121	1134.336
-15.677	35.189	1307.519	1133.301
-14.663	35.340	1306.034	1132.861
-13.648	35.168	1305.411	1131.260
-12.633	35.146	1304.487	1130.282
-11.619	35.259	1303.397	1129.959
-10.604	35.212	1302.126	1128.540
-9.590	35.278	1301.340	1128.201
-8.575	35.140	1300.694	1126.782
-7.560	35.177	1300.087	1126.431
-6.546	35.329	1298.486	1125.891
-5.531	35.139	1297.803	1124.138
-4.517	35.183	1296.899	1123.568
-3.502	35.291	1295.835	1123.238
-2.487	35.274	1294.930	1122.308
-1.473	35.309	1291.473	1119.469
-0.458	34.394	1276.623	1101.273
0.556	29.978	1258.448	1062.967
1.571	25.812	1263.939	1043.435
2.586	24.247	1278.251	1045.981
3.600	22.694	1266.093	1026.905
4.615	16.399	1188.981	929.744
5.629	6.272	1107.328	813.680
6.644	1.165	1084.845	771.163
7.659	0.575	1082.995	766.786
8.673	0.595	1081.739	765.927
9.688	0.587	1080.638	765.042
10.702	0.898	1078.292	764.885
11.717	6.300	1086.777	798.295
12.731	14.996	1097.704	850.632
13.746	18.013	1100.449	868.039
14.761	17.451	1098.658	863.698
15.775	16.514	1097.203	857.726
16.790	15.576	1094.895	851.096
17.804	14.922	1093.371	846.527
18.819	14.436	1092.531	843.342
19.834	14.226	1091.311	841.266
20.848	13.960	1090.451	839.184
21.863	13.587	1089.614	836.584
22.877	13.424	1089.215	835.379
23.892	13.438	1088.252	834.637
24.907	13.339	1087.953	833.837
25.921	13.490	1086.524	833.426
26.936	13.480	1086.152	833.016
27.950	13.592	1084.620	832.330
28.965	13.650	1083.418	831.626
29.980	13.609	1081.946	830.220
30.994	13.689	1080.991	829.814
32.009	13.698	1079.959	828.991
33.023	13.692	1079.198	828.303
34.038	13.746	1077.959	827.549
35.053	13.675	1076.937	826.335
36.067	13.670	1076.473	825.885
37.082	13.662	1075.221	824.811
38.096	13.661	1074.562	824.227
39.111	13.564	1074.463	823.597
40.126	13.639	1072.996	822.770
41.140	13.506	1071.570	820.943
42.155	13.523	1070.434	820.085
43.169	13.441	1069.541	818.923
44.184	13.460	1068.375	818.053
45.199	13.440	1067.560	817.256
46.213	13.533	1066.730	817.007
47.228	13.523	1065.671	816.078
48.242	13.508	1064.582	815.098
49.257	13.543	1063.223	814.153
50.271	13.512	1062.625	813.475
51.286	13.673	1061.474	813.309
52.301	13.621	1060.360	812.128
53.315	13.499	1059.698	810.953
54.330	13.608	1058.445	810.454
55.344	13.444	1057.821	809.105
56.359	13.543	1056.559	808.553
57.374	13.529	1055.696	807.750
58.388	13.469	1055.061	806.899
59.403	13.499	1054.394	806.463
60.417	13.416	1053.102	805.001
61.432	13.467	1052.691	804.866
62.447	13.346	1052.144	803.787
63.461	13.271	1051.155	802.596
64.476	13.505	1049.798	802.626
65.490	13.413	1049.383	801.791
66.505	13.499	1048.241	801.263
67.520	13.505	1047.740	800.839
68.534	13.422	1047.191	799.944
69.549	13.396	1046.525	799.241
70.563	13.413	1045.607	798.552
71.578	13.393	1044.709	797.696
72.593	13.407	1043.893	797.070
73.607	13.367	1043.440	796.463
74.622	13.299	1042.710	795.506
75.636	13.334	1041.874	794.967
76.651	13.337	1041.127	794.344
77.666	13.268	1041.092	793.915
78.680	13.410	1039.911	793.624
79.695	13.297	1039.363	792.595
80.709	13.401	1038.304	792.214
81.724	13.502	1037.773	792.221
82.739	13.532	1037.322	791.953
83.753	13.503	1036.202	790.885
84.768	13.626	1035.137	790.591
85.782	13.704	1034.120	790.117
86.797	13.580	1033.732	789.162
87.812	13.619	1032.614	788.421
88.826	13.560	1031.474	787.201
89.841	13.680	1030.186	786.719
90.855	13.736	1028.921	785.949
91.870	13.723	1028.603	785.576
92.884	13.632	1028.483	784.981
93.899	13.607	1027.252	783.854
94.914	13.673	1026.571	783.577
95.928	13.616	1025.849	782.689
96.943	13.615	1025.042	781.999
97.957	13.690	1023.764	781.310
98.972	13.679	1022.611	780.306
99.987	13.747	1021.874	779.996
101.001	13.659	1021.206	779.001
102.016	13.715	1019.930	778.224
103.030	13.521	1019.696	777.068
104.045	13.829	1018.102	777.223
105.060	13.533	1018.246	775.877
106.074	13.472	1017.152	774.691
107.089	13.513	1016.148	774.048
108.103	13.456	1015.010	772.849
109.118	13.685	1013.915	773.016
110.133	13.594	1013.155	771.943
111.147	13.598	1012.395	771.314
112.162	13.516	1011.680	770.320
113.176	13.589	1010.801	769.920
114.191	13.685	1010.063	769.735
115.206	13.638	1009.008	768.649
116.220	13.644	1008.016	767.853
117.235	13.520	1007.600	766.892
118.249	13.591	1006.398	766.237
119.264	13.526	1005.929	765.512
120.279	13.551	1005.068	764.905
121.293	13.561	1003.881	763.978
122.308	13.538	1003.322	763.380
123.322	13.406	1002.573	762.134
124.337	13.641	1000.930	761.899
125.352	13.687	999.829	761.204
126.366	13.724	998.669	760.423
127.381	13.590	997.909	759.163
128.395	13.569	996.731	758.106
129.410	13.629	995.713	757.537
130.424	13.532	995.657	756.984
131.439	13.615	994.791	756.638
132.454	13.641	994.089	756.158
133.468	13.655	993.047	755.363
134.483	13.727	991.757	754.640
135.497	13.627	990.864	753.441
136.512	13.695	989.733	752.821
137.527	13.715	988.614	751.996
138.541	13.673	988.643	751.761
139.556	13.665	987.870	751.068
140.570	13.815	986.851	750.905
141.585	13.845	986.036	750.357
142.600	13.853	985.214	749.699
143.614	13.827	984.401	748.900
144.629	13.866	983.512	748.330
145.643	13.913	982.345	747.590
146.658	13.714	981.487	745.974
147.673	13.759	980.501	745.361
148.687	13.732	979.770	744.617
149.702	13.866	978.904	744.497
150.716	13.821	977.991	743.531
151.731	13.758	977.252	742.626
152.746	13.720	976.910	742.127
153.760	13.649	976.415	741.368
154.775	13.899	975.281	741.557
155.789	13.910	974.424	740.892
156.804	13.936	973.803	740.467
157.819	13.906	973.511	740.050
158.833	13.996	972.468	739.591
159.848	13.938	971.732	738.708
160.862	13.959	970.701	737.952
161.877	13.852	969.495	736.495
162.892	13.892	968.636	735.955
163.906	13.937	967.763	735.424
164.921	13.890	967.106	734.652
165.935	13.928	966.171	734.045
166.950	13.942	965.353	733.422
167.964	13.805	964.372	732.006
168.979	13.906	963.157	731.466
169.994	13.835	962.687	730.730
171.008	13.857	961.890	730.157
172.023	14.002	961.100	730.132
173.037	14.057	960.423	729.791
174.052	13.941	959.745	728.702
175.067	13.801	959.382	727.751
176.081	13.872	958.690	727.473
177.096	13.948	958.293	727.437
178.110	13.932	957.398	726.627
179.125	14.045	956.833	726.625
180.140	13.991	956.205	725.847
181.154	14.008	956.176	725.839
182.169	14.054	955.115	725.166
183.183	14.200	953.753	724.707
184.198	14.331	952.897	724.561
185.213	14.213	952.845	723.943
186.227	14.169	951.746	722.853
187.242	14.134	951.362	722.346
188.256	14.155	951.146	722.211
189.271	14.259	949.838	721.604
190.286	14.064	949.356	720.329
191.300	14.184	948.058	719.799
192.315	14.099	948.280	719.537
193.329	14.022	947.726	718.719
194.344	14.111	946.833	718.362
195.359	13.988	946.437	717.468
196.373	14.190	945.611	717.649
197.388	14.136	945.316	717.128
198.402	14.459	944.477	717.821
199.417	14.361	943.589	716.659
200.432	14.488	943.096	716.767
201.446	14.512	942.502	716.358
202.461	14.492	942.072	715.883
203.475	14.358	941.776	715.015
204.490	14.495	940.541	714.603
205.504	14.488	939.849	713.986
206.519	14.434	939.073	713.101
207.534	14.418	938.482	712.520
208.548	14.459	937.853	712.153
209.563	14.451	936.956	711.376
210.577	14.466	936.318	710.892
211.592	14.583	935.415	710.642
212.607	14.603	934.794	710.191
213.621	14.497	934.239	709.257
214.636	14.560	933.163	708.646
215.650	14.524	932.832	708.178
216.665	14.689	931.772	708.013
217.680	14.802	931.165	707.967
218.694	14.651	930.481	706.745
219.709	14.509	930.041	705.747
220.723	14.601	929.127	705.379
221.738	14.794	927.936	705.230
222.753	14.610	927.932	704.386
223.767	14.778	926.997	704.324
224.782	14.641	926.919	703.622
225.796	14.813	926.109	703.669
226.811	14.778	925.160	702.741
227.826	14.618	924.746	701.690
228.840	14.741	923.884	701.491
229.855	14.727	923.059	700.746
230.869	14.748	921.895	699.888
231.884	14.666	921.984	699.549
232.899	14.776	920.757	699.015
233.913	14.883	919.892	698.744
234.928	14.685	919.700	697.710
235.942	14.708	919.236	697.392
236.957	14.703	918.456	696.717
237.972	14.721	918.113	696.470
238.986	14.892	917.265	696.476
240.001	14.886	916.259	695.627
241.015	14.792	916.222	695.145
242.030	14.790	915.351	694.415
243.045	14.837	914.718	694.069
244.059	14.932	914.093	693.928
245.074	14.925	913.365	693.285
246.088	15.088	912.462	693.212
247.103	14.990	911.985	692.382
248.117	14.969	911.661	691.992
249.132	15.098	910.969	691.935
250.147	15.107	910.487	691.546
251.161	15.202	909.702	691.281
252.176	15.078	909.193	690.322
253.190	15.247	908.049	690.086
254.205	15.359	907.226	689.862
255.220	15.288	906.595	689.030
256.234	15.276	906.610	688.929
257.249	15.268	905.756	688.188
258.263	15.335	904.766	687.649
259.278	15.216	904.161	686.643
260.293	15.315	904.105	686.945
261.307	15.401	903.319	686.636
262.322	15.354	902.499	685.760
263.336	15.443	901.603	685.384
264.351	15.473	901.126	685.083
265.366	15.356	900.256	683.882
266.380	15.490	899.723	683.963
267.395	15.489	899.140	683.454
268.409	15.325	898.560	682.288
269.424	15.501	897.481	682.122
270.439	15.486	896.799	681.484
271.453	15.441	896.413	680.948
272.468	15.452	896.107	680.700
273.482	15.548	895.285	680.404
274.497	15.511	894.421	679.536
275.512	15.511	893.986	679.146
276.526	15.489	893.820	678.873
277.541	15.554	893.295	678.675
278.555	15.589	892.420	678.091
279.570	15.792	891.550	678.189
280.585	15.718	890.902	677.337
281.599	15.538	890.359	676.139
282.614	15.778	889.522	676.410
283.628	15.674	889.143	675.643
284.643	15.895	887.819	675.466
285.657	15.816	887.409	674.777
286.672	15.864	886.913	674.533
287.687	15.679	886.484	673.403
288.701	15.842	885.757	673.446
289.716	15.872	885.157	673.049
290.730	15.780	884.707	672.280
291.745	15.773	883.936	671.608
292.760	15.794	883.344	671.180
293.774	15.796	882.977	670.851
294.789	15.984	882.100	670.873
295.803	15.861	881.271	669.695
296.818	15.841	880.867	669.250
297.833	15.827	880.298	668.702
298.847	15.887	878.913	667.831
299.862	16.089	878.147	667.989
300.876	15.817	878.471	667.099
301.891	15.889	877.670	666.716
302.906	16.058	876.906	666.745
303.920	16.156	876.475	666.744
304.935	16.115	875.939	666.118
305.949	16.120	875.346	665.626
306.964	16.148	874.574	665.089
307.979	16.144	873.803	664.431
308.993	16.115	873.651	664.141
310.008	16.184	872.635	663.580
311.022	16.089	872.608	663.130
312.037	16.153	871.983	662.849
313.052	16.143	870.933	661.952
314.066	15.967	870.608	660.953
315.081	16.169	869.917	661.162
316.095	15.975	869.713	660.191
317.110	16.078	868.923	659.935
318.125	16.108	868.448	659.633
319.139	16.144	868.401	659.680
320.154	16.083	867.733	658.876
321.168	16.187	866.935	658.619
322.183	16.263	866.296	658.369
323.197	16.297	865.811	658.073
324.212	16.174	865.350	657.188
325.227	16.286	864.865	657.195
326.241	16.150	864.204	656.108
327.256	16.036	863.939	655.406
328.270	16.267	862.808	655.387
329.285	16.259	862.227	654.855
330.300	16.132	861.781	653.966
331.314	16.221	861.415	653.977
332.329	16.375	860.574	653.878
333.343	16.424	860.199	653.723
334.358	16.338	859.881	653.089
335.373	16.448	859.624	653.262
336.387	16.402	859.107	652.634
337.402	16.359	859.024	652.348
338.416	16.465	858.728	652.475
339.431	16.496	858.101	652.058
340.446	16.562	857.407	651.730
341.460	16.706	857.145	652.026
342.475	16.556	856.965	651.253
343.489	16.669	856.343	651.160
344.504	16.637	855.778	650.549
345.519	16.665	855.166	650.134
346.533	16.635	854.578	649.515
347.548	16.674	853.996	649.165
348.562	16.599	853.722	648.610
349.577	16.450	853.054	647.473
350.592	16.658	852.390	647.709
351.606	16.739	851.493	647.280
352.621	16.592	850.836	646.163
353.635	16.631	850.215	645.782
354.650	16.643	849.779	645.439
355.665	16.803	848.884	645.312
356.679	16.744	848.679	644.874
357.694	16.850	847.509	644.332
358.708	16.883	846.967	643.990
359.723	16.751	846.294	642.919
360.738	16.814	846.076	642.934
361.752	16.766	845.668	642.385
362.767	16.840	844.689	641.866
363.781	16.927	844.270	641.818
364.796	16.953	843.664	641.400
365.810	17.020	843.414	641.407
366.825	17.037	842.967	641.073
367.840	17.054	842.573	640.781
368.854	17.065	842.229	640.507
369.869	16.964	841.655	639.632
370.883	17.180	841.171	640.019
371.898	17.086	840.763	639.299
372.913	17.105	840.688	639.257
373.927	17.101	840.092	638.734
374.942	17.117	839.423	638.227
375.956	17.156	838.931	637.946
376.971	17.247	838.643	638.010
377.986	17.252	838.195	637.632
379.000	17.359	837.412	637.380
380.015	17.218	836.998	636.481
381.029	17.261	836.240	636.010
382.044	17.325	835.948	635.970
383.059	17.250	835.412	635.224
384.073	17.507	834.907	635.745
385.088	17.273	834.387	634.419
386.102	17.254	833.709	633.779
387.117	17.176	833.136	632.993
388.132	17.148	832.534	632.379
389.146	17.457	831.731	632.860
390.161	17.426	831.572	632.568
391.175	17.433	830.817	631.964
392.190	17.449	830.375	631.629
393.205	17.379	829.925	630.973
394.219	17.429	830.036	631.189
395.234	17.352	829.287	630.277
396.248	17.413	828.385	629.760
397.263	17.308	828.173	629.155
398.278	17.212	828.174	628.744
399.292	17.352	827.569	628.748
400.307	17.351	826.933	628.205
401.321	17.401	826.573	628.063
402.336	17.431	826.086	627.746
403.350	17.467	825.752	627.570
404.365	17.493	825.314	627.277
405.380	17.491	824.691	626.742
406.394	17.578	824.021	626.496
407.409	17.681	823.690	626.567
408.423	17.752	823.424	626.572
409.438	17.556	823.094	625.544
410.453	17.816	822.463	625.962
411.467	17.673	822.173	625.163
412.482	17.742	821.747	625.035
413.496	17.840	821.277	624.983
414.511	17.844	820.797	624.578
415.526	17.766	820.498	624.007
416.540	17.855	819.866	623.798
417.555	17.783	819.520	623.217
418.569	17.890	819.014	623.169
419.584	17.920	818.579	622.891
420.599	17.916	817.987	622.369
421.613	103.537	1285.134	1440.473
422.628	89.384	1353.190	1440.596
