DTS Sentinel unit serial number:	SN413079Multiplexer serial number:	ORYXHardware model number:	OX4-SRSoftware version number:	ORYX F/W v4.00 Oryx Data Collector v3.7.2.0data status	okinstallation	princeton_trtdifferential loss correction	single-endedforward channel	channel 1reverse channel	N/Adate	2019/09/10time	18:44:11forward acquisition time	60.00reverse acquisition time	0.00gamma	496.2192k internal	0.2310k external	0.2310temperature offset calibration	0.9928default loss term (dB/km)	0.3790temperature slope calibration	1.0000multiplexer offset coefficient	1.0000multiplexer slope coefficient	1.0000fibre end	0.00T internal ref (°C)	35.25T ext. ref 1 (°C)	-0.31T ext. ref 2 (°C)	27.36length (m)	temperature (°C)	Stokes	anti-Stokes-747.200	800.000	-0.052	-0.216
-746.185	99.892	-0.228	-0.268
-745.171	-200.000	-0.018	-0.128
-744.156	252.353	-0.124	0.215
-743.142	-200.000	0.079	-0.369
-742.127	-34.925	0.234	-0.129
-741.112	-172.407	-0.202	-0.007
-740.098	-104.840	0.216	-0.050
-739.083	327.553	-0.028	0.055
-738.069	703.611	-0.164	0.439
-737.054	74.649	-0.147	0.157
-736.039	-200.000	-0.021	-0.238
-735.025	-192.297	0.277	-0.003
-734.010	-70.101	0.231	0.089
-732.996	-76.895	-0.380	0.135
-731.981	194.762	0.127	0.195
-730.966	5.271	-0.231	-0.173
-729.952	-200.000	-0.019	0.124
-728.937	-200.000	-0.048	-0.222
-727.923	-95.332	-0.273	0.075
-726.908	800.000	-0.082	-0.340
-725.894	102.523	0.109	-0.129
-724.879	-123.879	-0.031	0.005
-723.864	-200.000	-0.031	-0.331
-722.850	349.590	0.065	-0.131
-721.835	-96.645	-0.118	0.032
-720.821	4.234	-0.219	0.163
-719.806	449.256	-0.048	-0.107
-718.791	-200.000	-0.017	-0.105
-717.777	150.380	-0.144	-0.199
-716.762	33.051	-0.095	-0.084
-715.748	-104.391	-0.231	0.054
-714.733	117.857	-0.056	-0.069
-713.718	146.044	0.198	-0.269
-712.704	-128.108	-0.106	0.015
-711.689	-200.000	0.009	0.125
-710.675	240.325	-0.048	-0.080
-709.660	-200.000	0.060	-0.377
-708.645	-200.000	-0.015	0.109
-707.631	313.978	0.199	-0.379
-706.616	-200.000	-0.010	-0.096
-705.602	41.554	-0.282	-0.259
-704.587	113.006	0.142	0.175
-703.572	-3.710	0.138	-0.097
-702.558	-40.716	-0.323	0.170
-701.543	189.155	-0.106	-0.162
-700.529	196.024	0.079	0.122
-699.514	-200.000	-0.017	-0.095
-698.499	117.058	0.069	0.086
-697.485	43.119	0.086	-0.079
-696.470	-47.833	0.361	0.177
-695.456	80.814	-0.159	0.174
-694.441	74.986	0.104	-0.111
-693.426	-95.762	-0.228	-0.062
-692.412	-115.768	0.088	0.017
-691.397	-16.570	-0.292	-0.188
-690.383	-90.791	-0.581	-0.170
-689.368	-78.108	-0.083	-0.029
-688.354	-7.278	0.303	-0.208
-687.339	800.000	-0.049	0.166
-686.324	75.476	-0.063	-0.067
-685.310	118.981	0.096	0.121
-684.295	-200.000	-0.008	0.280
-683.281	-66.568	0.078	0.031
-682.266	-81.010	0.030	-0.010
-681.251	240.102	0.152	-0.257
-680.237	418.038	0.169	-0.365
-679.222	800.000	-0.071	-0.278
-678.208	-51.783	-0.151	0.071
-677.193	232.086	-0.159	-0.264
-676.178	800.000	-0.021	-0.085
-675.164	800.000	0.064	0.196
-674.149	27.469	-0.106	0.090
-673.135	-16.440	-0.241	0.155
-672.120	272.794	0.096	-0.172
-671.105	800.000	0.080	-0.277
-670.091	96.113	-0.154	-0.178
-669.076	219.784	0.094	-0.152
-668.062	-200.000	-0.023	0.152
-667.047	-134.243	0.136	0.017
-666.032	-25.225	-0.082	0.049
-665.018	747.830	0.115	0.314
-664.003	104.599	0.198	-0.236
-662.989	-17.517	0.251	-0.160
-661.974	800.000	-0.048	-0.151
-660.959	800.000	0.073	0.271
-659.945	-200.000	0.048	0.283
-658.930	-200.000	0.000	-0.028
-657.916	-81.500	-0.104	-0.035
-656.901	-200.000	-0.094	0.000
-655.886	-69.926	0.256	-0.099
-654.872	-149.534	0.158	0.013
-653.857	-98.163	0.301	0.078
-652.843	-9.374	-0.221	-0.149
-651.828	-83.745	0.117	-0.038
-650.814	23.487	-0.183	-0.152
-649.799	-200.000	0.019	-0.403
-648.784	-64.224	0.124	-0.051
-647.770	224.120	0.187	0.305
-646.755	76.231	-0.036	0.038
-645.741	-120.162	0.077	0.013
-644.726	-114.739	0.242	-0.047
-643.711	-137.717	-0.223	-0.025
-642.697	-8.446	0.351	0.239
-641.682	204.730	0.059	-0.093
-640.668	74.708	0.129	-0.137
-639.653	-175.753	-0.218	-0.006
-638.638	226.714	0.235	0.386
-637.624	-40.693	0.139	-0.073
-636.609	627.686	-0.061	-0.157
-635.595	-24.428	-0.123	-0.074
-634.580	-165.306	-0.677	-0.030
-633.565	459.513	0.129	0.290
-632.551	-24.715	-0.319	0.192
-631.536	426.945	-0.057	0.124
-630.522	184.264	-0.140	-0.209
-629.507	-148.778	-0.221	-0.018
-628.492	-78.616	0.329	-0.114
-627.478	800.000	0.072	0.314
-626.463	800.000	0.059	0.186
-625.449	43.782	0.163	0.150
-624.434	-83.269	-0.204	0.066
-623.419	-188.737	-0.108	0.001
-622.405	-200.000	-0.023	-0.378
-621.390	323.176	0.090	-0.173
-620.376	175.381	-0.169	0.248
-619.361	-200.000	-0.015	-0.545
-618.346	-6.964	0.101	-0.070
-617.332	-83.045	0.130	0.042
-616.317	-55.753	0.214	0.097
-615.303	293.219	0.099	0.182
-614.288	299.185	-0.153	0.285
-613.273	800.000	-0.043	-0.175
-612.259	267.082	0.167	0.295
-611.244	1.509	0.020	0.014
-610.230	-200.000	-0.037	-0.303
-609.215	18.786	-0.298	-0.241
-608.201	-52.998	0.282	-0.131
-607.186	-17.332	-0.219	-0.139
-606.171	-108.812	0.467	-0.101
-605.157	-54.857	-0.221	0.101
-604.142	-55.028	-0.253	-0.115
-603.128	-66.485	0.255	0.102
-602.113	142.104	-0.135	0.180
-601.098	80.332	-0.249	-0.271
-600.084	-127.214	0.219	-0.032
-599.069	-200.000	-0.081	-0.000
-598.055	39.411	-0.176	-0.159
-597.040	25.738	0.183	0.154
-596.025	-200.000	-0.015	0.105
-595.011	800.000	-0.109	-0.309
-593.996	-200.000	-0.014	-0.065
-592.982	6.987	-0.141	0.106
-591.967	-200.000	-0.035	0.193
-590.952	800.000	-0.095	0.317
-589.938	800.000	0.100	0.364
-588.923	-34.997	-0.090	0.050
-587.909	30.089	-0.186	-0.160
-586.894	143.188	-0.166	-0.223
-585.879	800.000	-0.050	-0.173
-584.865	38.561	0.224	-0.202
-583.850	111.751	-0.089	-0.109
-582.836	-24.797	0.362	-0.217
-581.821	500.128	0.060	-0.139
-580.806	-44.076	0.178	-0.090
-579.792	189.513	-0.214	0.324
-578.777	-29.216	0.113	-0.065
-577.763	373.479	-0.085	-0.174
-576.748	-77.436	0.182	-0.064
-575.733	-145.013	0.233	0.021
-574.719	-99.738	0.215	-0.054
-573.704	292.849	-0.128	0.235
-572.690	800.000	-0.040	0.130
-571.675	183.973	0.106	0.158
-570.661	-60.116	0.186	0.080
-569.646	-146.914	0.154	0.013
-568.631	-61.585	0.278	0.118
-567.617	-200.000	-0.024	-0.119
-566.602	-72.276	-0.058	0.022
-565.588	129.004	-0.123	0.158
-564.573	90.358	-0.255	-0.288
-563.558	238.187	0.111	-0.186
-562.544	64.275	0.062	-0.063
-561.529	-121.656	-0.097	0.016
-560.515	128.743	-0.233	-0.299
-559.500	322.417	0.049	0.094
-558.485	319.302	0.095	-0.181
-557.471	130.447	0.168	-0.217
-556.456	-114.973	0.225	0.043
-555.442	-38.450	-0.306	0.163
-554.427	-150.113	0.226	-0.018
-553.412	35.761	0.338	-0.300
-552.398	800.000	0.069	-0.279
-551.383	45.567	0.222	-0.207
-550.369	800.000	0.018	-0.063
-549.354	138.545	-0.076	0.101
-548.339	-145.148	-0.177	-0.016
-547.325	800.000	-0.063	-0.176
-546.310	121.024	0.149	-0.187
-545.296	256.274	-0.193	-0.334
-544.281	-59.112	0.453	-0.197
-543.266	-200.000	0.013	0.160
-542.252	263.388	-0.111	-0.194
-541.237	789.869	0.171	0.472
-540.223	434.664	0.025	0.055
-539.208	638.754	-0.128	0.329
-538.193	18.675	-0.218	0.176
-537.179	57.289	0.153	-0.150
-536.164	-102.037	0.336	0.082
-535.150	143.453	-0.082	0.110
-534.135	800.000	-0.151	-0.442
-533.121	-200.000	-0.035	-0.401
-532.106	58.161	-0.190	-0.187
-531.091	-200.000	0.011	-0.318
-530.077	-106.292	0.236	-0.053
-529.062	286.989	-0.058	-0.105
-528.048	-142.479	0.129	0.013
-527.033	43.074	0.040	0.037
-526.018	-200.000	0.009	-0.059
-525.004	78.017	-0.099	0.106
-523.989	121.869	0.244	0.307
-522.975	-60.499	-0.166	-0.071
-521.960	-32.738	-0.323	-0.181
-520.945	-200.000	-0.020	0.133
-519.931	-61.895	-0.115	-0.048
-518.916	-24.747	-0.115	-0.069
-517.902	427.683	0.090	-0.196
-516.887	-87.995	-0.316	-0.095
-515.872	-200.000	-0.013	0.087
-514.858	-170.308	-0.226	-0.008
-513.843	214.655	-0.098	-0.157
-512.829	-200.000	-0.018	-0.109
-511.814	-56.113	0.189	-0.085
-510.799	-53.100	-0.122	0.057
-509.785	-61.207	-0.044	0.019
-508.770	-5.120	-0.227	0.157
-507.756	207.067	0.148	-0.232
-506.741	-64.498	-0.470	0.192
-505.726	-82.548	-0.265	0.086
-504.712	-200.000	0.001	0.123
-503.697	188.199	0.050	0.076
-502.683	-120.223	-0.282	-0.048
-501.668	723.188	-0.099	-0.266
-500.653	-91.221	0.265	0.076
-499.639	-200.000	0.026	-0.176
-498.624	66.536	0.104	0.106
-497.610	-200.000	-0.450	0.001
-496.595	-200.000	0.044	-0.221
-495.581	37.202	0.260	0.232
-494.566	-41.301	-0.363	-0.188
-493.551	463.577	0.121	0.271
-492.537	279.874	-0.053	0.095
-491.522	-9.249	-0.124	-0.083
-490.508	203.511	-0.169	-0.263
-489.493	93.943	-0.102	-0.116
-488.478	71.013	0.141	0.147
-487.464	186.080	0.169	0.253
-486.449	-200.000	-0.043	0.342
-485.435	-87.604	0.347	0.105
-484.420	-152.561	0.196	-0.014
-483.405	-169.684	0.155	0.006
-482.391	-68.557	-0.192	-0.075
-481.376	-93.209	-0.265	-0.074
-480.362	-200.000	-0.057	0.333
-479.347	-101.300	0.107	0.026
-478.332	80.006	-0.206	-0.223
-477.318	111.273	0.116	0.140
-476.303	126.837	0.009	0.012
-475.289	470.963	0.085	-0.192
-474.274	5.175	-0.250	-0.185
-473.259	-40.023	0.205	0.108
-472.245	81.359	0.157	-0.170
-471.230	558.148	0.061	0.148
-470.216	-157.836	0.070	0.004
-469.201	55.319	-0.135	0.131
-468.186	-200.000	0.022	-0.152
-467.172	-1.122	0.189	-0.134
-466.157	-92.469	0.270	-0.076
-465.143	-45.660	-0.261	-0.130
-464.128	47.541	-0.120	0.112
-463.113	-200.000	-0.028	0.138
-462.099	-15.009	-0.264	0.170
-461.084	92.225	0.101	-0.114
-460.070	-25.471	0.041	0.025
-459.055	-29.020	0.156	0.090
-458.040	800.000	0.108	0.339
-457.026	165.907	-0.144	-0.205
-456.011	-59.577	-0.166	-0.071
-454.997	66.353	0.268	0.273
-453.982	-110.389	0.184	-0.038
-452.968	237.917	-0.114	-0.191
-451.953	210.886	-0.153	0.241
-450.938	322.572	0.051	0.098
-449.924	-144.591	0.064	0.006
-448.909	18.547	0.233	-0.187
-447.895	17.027	-0.078	0.062
-446.880	754.467	0.010	-0.028
-445.865	620.708	-0.037	0.094
-444.851	110.217	-0.101	-0.121
-443.836	77.609	-0.393	-0.420
-442.822	-148.393	-0.252	-0.021
-441.807	339.369	-0.088	-0.172
-440.792	479.132	-0.123	-0.280
-439.778	-181.152	-0.341	-0.007
-438.763	574.232	-0.064	-0.157
-437.749	72.717	0.172	-0.180
-436.734	-137.942	0.253	-0.028
-435.719	-102.173	-0.298	-0.072
-434.705	-40.967	-0.100	-0.052
-433.690	198.647	-0.120	-0.185
-432.676	92.889	0.265	0.300
-431.661	-200.000	-0.012	-0.057
-430.646	373.433	0.109	-0.223
-429.632	-101.646	-0.184	-0.045
-428.617	219.720	0.035	0.056
-427.603	-118.261	0.255	0.046
-426.588	101.435	0.262	-0.306
-425.573	430.997	0.138	-0.299
-424.559	603.903	-0.177	0.441
-423.544	-101.446	0.435	-0.106
-422.530	82.001	0.083	0.090
-421.515	-136.878	-0.143	0.016
-420.500	62.813	-0.109	-0.109
-419.486	800.000	0.046	0.195
-418.471	-200.000	0.031	0.267
-417.457	376.031	0.152	0.311
-416.442	-138.001	-0.464	0.052
-415.428	-59.770	0.134	0.057
-414.413	-62.994	0.059	-0.025
-413.398	3.147	-0.015	0.011
-412.384	73.640	-0.205	0.215
-411.369	41.891	0.144	0.131
-410.355	-163.794	0.117	0.006
-409.340	29.688	-0.387	0.330
-408.325	-83.880	0.148	0.047
-407.311	-57.395	0.214	-0.094
-406.296	-74.434	0.171	0.062
-405.282	198.046	0.134	0.205
-404.267	-78.986	0.216	-0.074
-403.252	-66.980	0.181	-0.072
-402.238	800.000	0.108	-0.319
-401.223	-123.127	0.256	-0.041
-400.209	-156.995	-0.191	-0.012
-399.194	-200.000	-0.017	-0.372
-398.179	-78.747	0.337	0.115
-397.165	82.514	0.095	0.103
-396.150	-200.000	0.012	0.187
-395.136	628.975	0.043	0.108
-394.121	88.687	0.049	-0.054
-393.106	-200.000	0.053	0.292
-392.092	800.000	-0.063	0.249
-391.077	43.253	0.258	-0.236
-390.063	-62.130	-0.277	-0.116
-389.048	800.000	0.096	0.389
-388.033	76.754	-0.084	-0.089
-387.019	-164.003	-0.290	-0.014
-386.004	603.823	-0.024	-0.061
-384.990	-116.778	0.365	-0.067
-383.975	-39.456	-0.302	-0.158
-382.960	-125.805	0.208	0.031
-381.946	800.000	-0.021	-0.091
-380.931	229.433	0.143	-0.234
-379.917	-101.069	-0.296	-0.073
-378.902	-162.013	0.218	0.011
-377.888	-0.701	0.295	0.209
-376.873	-200.000	-0.014	-0.111
-375.858	425.286	0.071	0.152
-374.844	339.676	-0.037	0.071
-373.829	79.929	0.157	-0.169
-372.815	800.000	-0.065	-0.232
-371.800	-182.182	-0.229	-0.004
-370.785	9.742	-0.390	-0.296
-369.771	-13.366	0.043	-0.028
-368.756	-97.688	0.260	0.067
-367.742	535.870	0.114	0.271
-366.727	-5.947	0.039	0.026
-365.712	-16.115	0.110	0.070
-364.698	-142.341	0.242	-0.024
-363.683	125.655	0.177	-0.224
-362.669	-200.000	0.126	0.001
-361.654	253.507	-0.040	-0.069
-360.639	-23.169	-0.019	0.011
-359.625	-200.000	0.009	-0.127
-358.610	444.825	-0.157	-0.346
-357.596	-200.000	-0.187	-0.000
-356.581	-13.159	0.057	-0.037
-355.566	107.796	-0.116	-0.138
-354.552	77.636	-0.052	-0.056
-353.537	-200.000	0.029	0.295
-352.523	-200.000	0.060	-0.296
-351.508	-111.959	-0.048	0.010
-350.493	-99.309	-0.358	-0.090
-349.479	407.229	0.060	0.128
-348.464	-14.481	0.078	-0.050
-347.450	560.308	0.091	0.221
-346.435	162.398	-0.193	-0.271
-345.420	13.984	0.158	0.123
-344.406	-200.000	0.091	-0.588
-343.391	331.219	-0.119	-0.229
-342.377	45.622	-0.344	0.318
-341.362	24.879	-0.209	0.173
-340.348	240.166	-0.171	-0.285
-339.333	105.241	0.091	-0.107
-338.318	800.000	0.052	0.150
-337.304	-165.356	-0.406	-0.018
-336.289	-41.013	0.206	-0.106
-335.275	508.185	-0.030	-0.070
-334.260	-7.848	0.209	0.141
-333.245	800.000	-0.027	0.103
-332.231	-118.243	-0.292	-0.052
-331.216	800.000	-0.036	-0.103
-330.202	-181.542	0.153	0.003
-329.187	91.415	-0.123	0.138
-328.172	-44.535	0.212	0.106
-327.158	-52.186	-0.091	-0.042
-326.143	57.083	0.156	0.152
-325.129	284.205	-0.079	0.142
-324.114	-102.507	0.222	0.053
-323.099	26.329	0.044	0.036
-322.085	402.727	-0.133	-0.279
-321.070	-143.787	0.156	0.015
-320.056	-200.000	-0.005	0.058
-319.041	-200.000	-0.012	0.294
-318.026	469.220	0.128	0.286
-317.012	23.070	-0.184	-0.151
-315.997	-200.000	0.050	-0.224
-314.983	-200.000	-0.025	-0.182
-313.968	-102.802	0.262	0.062
-312.953	76.262	-0.216	0.228
-311.939	-200.000	0.039	-0.249
-310.924	131.495	0.126	-0.162
-309.910	-31.824	-0.394	-0.220
-308.895	-67.512	-0.168	0.066
-307.880	403.898	-0.058	0.123
-306.866	-103.146	0.339	-0.080
-305.851	-81.238	0.256	-0.084
-304.837	-97.698	-0.382	0.099
-303.822	-5.815	0.199	0.136
-302.807	-50.317	-0.057	-0.027
-301.793	800.000	0.045	-0.193
-300.778	800.000	0.102	-0.335
-299.764	-122.948	-0.169	0.027
-298.749	-200.000	0.001	-0.144
-297.735	-106.194	0.222	0.050
-296.720	-66.996	-0.327	0.129
-295.705	-124.171	-0.312	0.049
-294.691	414.405	0.131	-0.278
-293.676	63.650	-0.292	-0.293
-292.662	-25.643	0.134	0.079
-291.647	-200.000	-0.040	0.182
-290.632	84.868	-0.114	-0.124
-289.618	120.768	-0.135	0.167
-288.603	-126.284	0.127	0.019
-287.589	-27.169	0.322	-0.187
-286.574	800.000	0.014	0.042
-285.559	-200.000	0.024	-0.219
-284.545	-140.357	-0.306	-0.032
-283.530	-57.347	0.224	-0.098
-282.516	81.528	0.263	0.284
-281.501	-108.947	0.059	-0.013
-280.486	576.982	-0.115	0.281
-279.472	-200.000	0.010	-0.103
-278.457	171.634	0.262	-0.375
-277.443	-200.000	-0.006	-0.129
-276.428	-117.088	0.165	0.030
-275.413	-141.321	0.218	0.022
-274.399	182.661	0.220	-0.323
-273.384	-151.084	-0.260	0.019
-272.370	169.366	0.019	-0.027
-271.355	800.000	0.102	-0.306
-270.340	-200.000	0.041	-0.195
-269.326	-200.000	-0.015	-0.438
-268.311	-200.000	0.019	-0.092
-267.297	-200.000	0.003	0.161
-266.282	-42.563	0.206	0.105
-265.267	-0.596	0.217	0.154
-264.253	-116.759	-0.167	0.031
-263.238	-21.377	-0.183	0.111
-262.224	-39.678	-0.418	-0.218
-261.209	-81.001	0.305	0.101
-260.195	214.353	0.131	0.207
-259.180	-42.840	-0.070	-0.035
-258.165	-200.000	0.020	0.173
-257.151	-120.665	-0.249	0.042
-256.136	272.980	0.139	-0.244
-255.122	4.372	-0.324	-0.237
-254.107	-73.945	-0.111	-0.040
-253.092	169.001	0.066	-0.094
-252.078	175.756	0.108	0.156
-251.063	717.685	0.077	-0.203
-250.049	-200.000	0.011	0.225
-249.034	39.027	0.198	0.176
-248.019	-71.963	0.174	0.064
-247.005	-31.148	0.155	0.087
-245.990	-3.422	-0.208	0.144
-244.976	-84.696	-0.145	0.045
-243.961	-200.000	-0.049	0.355
-242.946	-9.513	-0.171	0.114
-241.932	-200.000	0.056	0.279
-240.917	385.436	-0.113	0.232
-239.903	-80.654	0.360	0.119
-238.888	304.882	0.090	0.166
-237.873	-49.356	0.279	0.133
-236.859	-200.000	0.019	0.134
-235.844	-112.096	0.482	0.097
-234.830	-200.000	-0.040	0.197
-233.815	-40.527	-0.205	-0.106
-232.800	51.718	0.216	-0.205
-231.786	-152.865	-0.305	-0.022
-230.771	3.371	-0.107	-0.078
-229.757	626.643	-0.103	0.258
-228.742	-200.000	-0.003	0.043
-227.727	40.907	0.265	-0.238
-226.713	222.529	-0.065	0.104
-225.698	-200.000	0.113	0.521
-224.684	65.715	-0.162	0.164
-223.669	-200.000	0.029	0.349
-222.655	384.580	-0.088	-0.181
-221.640	252.864	-0.244	-0.414
-220.625	474.988	-0.045	-0.102
-219.611	-34.702	-0.374	-0.204
-218.596	800.000	-0.081	-0.266
-217.582	139.647	0.090	0.118
-216.567	-37.296	0.180	0.096
-215.552	61.751	-0.309	0.307
-214.538	-105.958	0.470	0.105
-213.523	501.318	-0.078	0.178
-212.509	373.622	-0.051	0.103
-211.494	114.853	0.095	0.115
-210.479	54.580	0.116	-0.111
-209.465	-40.775	0.131	0.067
-208.450	200.664	-0.148	0.227
-207.436	-126.631	-0.319	-0.047
-206.421	299.017	0.229	0.419
-205.406	37.429	0.241	-0.212
-204.392	218.586	-0.065	0.103
-203.377	241.174	-0.162	-0.269
-202.363	-31.691	-0.505	0.282
-201.348	-16.202	-0.165	0.104
-200.333	204.278	-0.202	0.311
-199.319	-54.895	-0.252	-0.113
-198.304	-99.574	0.220	-0.055
-197.290	156.808	-0.182	0.250
-196.275	-200.000	0.001	0.109
-195.260	-65.047	-0.408	0.164
-194.246	177.431	0.123	0.178
-193.231	280.306	0.085	0.151
-192.217	794.834	0.119	0.326
-191.202	-79.121	0.043	0.015
-190.187	192.390	0.105	0.157
-189.173	-197.115	0.048	0.000
-188.158	-100.230	-0.108	0.027
-187.144	431.269	-0.207	0.446
-186.129	800.000	-0.039	0.147
-185.114	24.899	-0.139	0.114
-184.100	110.704	-0.224	-0.268
-183.085	-155.649	0.354	0.023
-182.071	10.701	-0.030	0.023
-181.056	800.000	-0.067	-0.234
-180.042	-72.332	-0.063	-0.023
-179.027	-83.764	-0.464	0.147
-178.012	302.879	0.085	0.157
-176.998	125.608	-0.062	0.077
-175.983	-150.285	0.285	-0.022
-174.969	800.000	-0.096	-0.335
-173.954	-114.774	0.071	0.014
-172.939	301.743	0.129	-0.238
-171.925	-111.456	-0.229	0.046
-170.910	-5.005	0.012	0.008
-169.896	-105.108	0.384	-0.087
-168.881	-200.000	-0.047	0.363
-167.866	-28.119	0.078	-0.045
-166.852	-200.000	-0.069	0.325
-165.837	800.000	0.132	0.366
-164.823	379.997	0.097	0.198
-163.808	-131.085	0.100	0.013
-162.793	800.000	0.084	-0.274
-161.779	800.000	0.052	-0.201
-160.764	-97.040	0.095	-0.025
-159.750	-145.163	-0.107	-0.010
-158.735	147.855	0.245	-0.327
-157.720	46.339	-0.305	0.281
-156.706	-200.000	-0.025	0.382
-155.691	130.641	0.058	-0.074
-154.677	467.908	-0.166	0.370
-153.662	-142.954	-0.247	0.024
-152.647	83.586	-0.122	0.132
-151.633	-131.183	0.221	0.029
-150.618	-108.410	0.112	-0.024
-149.604	-200.000	-0.030	0.147
-148.589	-102.959	-0.197	-0.046
-147.574	369.759	0.094	0.189
-146.560	-200.000	0.016	0.129
-145.545	-48.022	0.341	-0.163
-144.531	-65.177	0.150	-0.060
-143.516	15.183	0.113	0.088
-142.502	-104.684	-0.370	-0.084
-141.487	249.756	-0.071	-0.120
-140.472	12.507	0.181	0.139
-139.458	41.423	0.139	0.125
-138.443	140.586	-0.122	0.160
-137.429	-60.066	0.318	0.135
-136.414	25.703	-0.058	0.048
-135.399	131.128	0.243	0.310
-134.385	135.484	-0.038	0.049
-133.370	77.491	0.064	-0.068
-132.356	-200.000	0.029	0.221
-131.341	124.166	-0.044	0.054
-130.326	8.723	0.214	0.160
-129.312	800.000	0.011	-0.033
-128.297	800.000	0.057	-0.238
-127.283	-22.521	0.222	0.133
-126.268	-32.323	-0.123	-0.068
-125.253	196.141	0.139	-0.210
-124.239	-200.000	-0.022	0.147
-123.224	-200.000	0.000	0.203
-122.210	154.473	-0.061	0.083
-121.195	-86.637	-0.072	-0.022
-120.180	-200.000	-0.021	-0.130
-119.166	-102.108	0.154	0.037
-118.151	134.245	-0.095	-0.122
-117.137	-182.568	-0.066	0.001
-116.122	235.988	-0.080	0.131
-115.107	536.563	0.114	-0.267
-114.093	-68.818	0.085	-0.033
-113.078	-119.781	0.397	-0.068
-112.064	-18.610	-0.200	-0.123
-111.049	-18.684	0.121	0.075
-110.034	59.852	-0.147	-0.144
-109.020	-47.024	0.177	0.086
-108.005	499.187	-0.109	0.249
-106.991	160.033	-0.096	-0.133
-105.976	-104.155	-0.082	-0.019
-104.962	164.554	-0.213	-0.298
-103.947	-200.000	-0.015	-0.282
-102.932	223.314	0.165	0.264
-101.918	800.000	0.034	-0.131
-100.903	-120.824	0.346	-0.058
-99.889	621.798	-0.114	0.283
-98.874	-200.000	-0.003	0.297
-97.859	92.312	-0.086	0.096
-96.845	180.791	0.036	-0.053
-95.830	297.033	-0.125	0.227
-94.816	-25.412	-0.141	-0.082
-93.801	-86.780	-0.192	-0.058
-92.786	-112.480	-0.457	-0.090
-91.772	-11.556	0.239	-0.155
-90.757	244.208	0.119	0.198
-89.743	177.601	0.172	-0.248
-88.728	-9.364	0.322	0.213
-87.713	144.794	-0.276	0.366
-86.699	800.000	0.009	0.026
-85.684	133.024	0.066	-0.084
-84.670	-120.114	0.032	-0.005
-83.655	51.490	-0.186	0.175
-82.640	-37.073	-0.191	0.101
-81.626	229.835	0.127	0.205
-80.611	-44.996	-0.132	-0.065
-79.597	-58.716	0.259	-0.111
-78.582	308.054	0.181	0.334
-77.567	-25.109	-0.138	-0.081
-76.553	174.563	0.112	-0.160
-75.538	1.033	-0.234	0.166
-74.524	800.000	-0.064	0.266
-73.509	-91.427	0.374	0.106
-72.494	-79.669	0.022	0.007
-71.480	-82.111	0.189	0.061
-70.465	-113.979	0.080	0.015
-69.451	578.097	0.128	0.310
-68.436	80.443	0.075	-0.080
-67.422	37.194	0.226	0.198
-66.407	-95.721	-0.233	0.061
-65.392	-85.577	-0.120	0.037
-64.378	-60.796	0.123	0.052
-63.363	-139.870	-0.123	-0.013
-62.349	-200.000	-0.013	-0.229
-61.334	130.610	-0.810	-1.027
-60.319	800.000	0.135	0.571
-59.305	-200.000	0.014	-0.713
-58.290	543.609	0.346	0.817
-57.276	800.000	0.474	1.432
-56.261	-200.000	98.601	557.796
-55.246	594.988	1397.577	3418.464
-54.232	183.111	2628.750	3837.926
-53.217	120.795	2194.904	2697.927
-52.203	46.960	1643.321	1510.575
-51.188	38.825	1376.766	1215.366
-50.173	35.466	1333.893	1157.266
-49.159	56.202	1384.317	1328.905
-48.144	60.728	1402.350	1373.940
-47.130	39.007	1355.215	1197.265
-46.115	35.412	1337.421	1159.814
-45.100	35.120	1332.715	1153.931
-44.086	35.037	1330.510	1151.473
-43.071	35.068	1327.878	1149.338
-42.057	35.100	1325.509	1147.432
-41.042	35.056	1323.995	1145.812
-40.027	35.165	1322.354	1144.997
-39.013	35.064	1320.739	1142.951
-37.998	35.254	1317.935	1141.615
-36.984	35.188	1316.946	1140.315
-35.969	35.271	1314.496	1138.641
-34.954	35.312	1313.053	1137.590
-33.940	35.236	1311.981	1136.169
-32.925	35.407	1310.265	1135.652
-31.911	35.396	1308.931	1134.382
-30.896	35.287	1307.776	1132.691
-29.881	35.340	1306.608	1131.951
-28.867	35.373	1304.689	1130.438
-27.852	35.344	1303.078	1128.826
-26.838	35.383	1301.631	1127.756
-25.823	35.422	1300.760	1127.183
-24.809	35.355	1298.894	1125.128
-23.794	35.246	1297.625	1123.351
-22.779	35.298	1295.968	1122.172
-21.765	35.372	1294.618	1121.392
-20.750	35.294	1293.615	1120.022
-19.736	35.266	1292.042	1118.453
-18.721	35.195	1290.781	1116.903
-17.706	35.163	1289.940	1115.947
-16.692	35.196	1288.783	1115.091
-15.677	35.220	1287.440	1114.024
-14.663	35.183	1286.405	1112.870
-13.648	35.125	1285.114	1111.371
-12.633	35.100	1284.602	1110.741
-11.619	35.104	1283.150	1109.464
-10.604	35.178	1282.406	1109.205
-9.590	35.169	1281.569	1108.385
-8.575	35.254	1280.475	1107.889
-7.560	35.261	1279.360	1106.918
-6.546	35.272	1278.451	1106.151
-5.531	35.221	1277.913	1105.349
-4.517	35.169	1277.001	1104.216
-3.502	35.241	1276.123	1103.831
-2.487	35.179	1275.404	1102.803
-1.473	35.086	1271.032	1098.447
-0.458	33.257	1254.656	1073.882
0.556	26.624	1234.473	1028.339
1.571	22.163	1237.739	1005.507
2.586	21.108	1252.761	1011.506
3.600	20.505	1242.240	999.455
4.615	14.849	1169.236	909.933
5.629	4.719	1090.369	796.825
6.644	0.062	1068.071	757.063
7.659	-0.391	1065.413	752.835
8.673	-0.423	1064.009	751.617
9.688	-0.486	1062.423	750.116
10.702	-0.224	1061.438	750.662
11.717	5.685	1070.150	786.485
12.731	14.831	1083.020	842.154
13.746	17.801	1086.493	859.765
14.761	17.470	1085.432	857.187
15.775	17.323	1084.588	855.701
16.790	17.008	1083.385	853.094
17.804	16.799	1082.899	851.584
18.819	16.950	1082.707	852.118
19.834	16.856	1082.346	851.289
20.848	16.856	1081.622	850.643
21.863	16.845	1080.799	849.863
22.877	16.893	1079.900	849.323
23.892	16.859	1079.101	848.449
24.907	16.975	1078.662	848.606
25.921	16.973	1077.439	847.563
26.936	16.953	1076.141	846.365
27.950	16.994	1074.156	844.932
28.965	16.893	1072.624	843.150
29.980	16.955	1070.560	841.763
30.994	17.175	1069.340	841.818
32.009	17.046	1067.986	840.041
33.023	16.778	1067.070	837.921
34.038	16.807	1066.337	837.414
35.053	17.007	1065.591	837.744
36.067	17.134	1064.483	837.422
37.082	17.077	1063.497	836.293
38.096	17.289	1062.756	836.677
39.111	17.279	1061.956	835.924
40.126	17.169	1060.009	833.780
41.140	16.900	1058.564	831.249
42.155	16.675	1057.163	828.975
43.169	16.853	1056.248	829.057
44.184	16.983	1054.906	828.561
45.199	16.763	1053.639	826.422
46.213	16.666	1052.656	825.107
47.228	16.760	1051.370	824.483
48.242	16.896	1050.376	824.289
49.257	16.926	1049.334	823.544
50.271	16.946	1049.074	823.366
51.286	16.959	1047.507	822.127
52.301	16.923	1046.896	821.401
53.315	17.027	1045.451	820.697
54.330	17.039	1044.519	819.949
55.344	17.059	1043.537	819.202
56.359	16.928	1043.201	818.233
57.374	16.752	1041.981	816.359
58.388	16.951	1040.600	816.161
59.403	16.756	1040.010	814.689
60.417	16.760	1038.547	813.489
61.432	16.704	1038.298	812.951
62.447	16.922	1037.509	813.309
63.461	17.007	1036.634	812.959
64.476	16.811	1036.160	811.576
65.490	16.828	1034.753	810.484
66.505	16.803	1034.112	809.791
67.520	16.925	1033.342	809.700
68.534	16.748	1032.088	807.799
69.549	16.708	1030.789	806.520
70.563	16.609	1030.201	805.516
71.578	16.658	1029.488	805.124
72.593	16.504	1028.747	803.740
73.607	16.584	1028.013	803.474
74.622	16.857	1027.619	804.391
75.636	16.841	1026.617	803.459
76.651	16.741	1025.584	802.110
77.666	16.572	1024.897	800.700
78.680	16.746	1024.167	800.880
79.695	16.738	1023.947	800.598
80.709	16.783	1022.987	799.994
81.724	16.689	1021.874	798.608
82.739	16.825	1020.835	798.364
83.753	16.965	1020.374	798.592
84.768	17.280	1019.469	799.294
85.782	17.158	1018.389	797.806
86.797	17.077	1017.282	796.489
87.812	17.065	1015.973	795.334
88.826	17.128	1015.034	794.823
89.841	17.150	1014.666	794.569
90.855	17.254	1013.042	793.712
91.870	17.137	1012.304	792.521
92.884	17.083	1010.984	791.166
93.899	17.030	1010.255	790.277
94.914	17.233	1009.338	790.433
95.928	17.151	1007.798	788.776
96.943	16.854	1007.228	786.880
97.957	16.781	1005.518	785.136
98.972	16.499	1004.400	782.889
99.987	16.592	1004.091	783.009
101.001	16.789	1003.459	783.361
102.016	16.963	1002.119	783.048
103.030	16.799	1000.926	781.289
104.045	16.697	999.898	779.951
105.060	16.567	999.060	778.630
106.074	16.762	998.370	778.920
107.089	17.157	997.821	780.235
108.103	17.139	996.412	778.980
109.118	16.858	995.237	776.707
110.133	16.922	994.887	776.659
111.147	16.875	992.904	774.826
112.162	16.556	992.675	773.119
113.176	16.928	991.462	773.805
114.191	16.798	990.662	772.521
115.206	16.559	989.582	770.520
116.220	16.572	988.679	769.810
117.235	16.837	987.317	769.884
118.249	16.740	986.441	768.693
119.264	16.680	986.147	768.123
120.279	16.868	985.189	768.161
121.293	16.933	983.878	767.365
122.308	16.859	983.538	766.696
123.322	16.866	982.249	765.656
124.337	16.680	981.120	763.871
125.352	16.339	978.734	760.411
126.366	16.212	977.876	759.107
127.381	16.768	977.602	761.324
128.395	17.052	976.843	761.940
129.410	17.155	975.875	761.581
130.424	17.117	974.470	760.245
131.439	17.083	973.699	759.424
132.454	17.008	973.235	758.663
133.468	17.011	971.749	757.449
134.483	17.171	971.347	757.781
135.497	17.184	970.795	757.343
136.512	17.393	968.986	756.797
137.527	17.381	968.040	755.936
138.541	17.446	967.730	755.918
139.556	17.411	966.221	754.517
140.570	17.176	966.113	753.320
141.585	17.330	964.180	752.428
142.600	17.134	963.981	751.342
143.614	17.344	963.382	751.738
144.629	17.514	962.437	751.681
145.643	17.345	961.391	750.055
146.658	17.081	960.537	748.157
147.673	17.154	959.293	747.444
148.687	17.223	958.085	746.742
149.702	16.968	957.478	745.078
150.716	17.157	956.191	744.841
151.731	17.229	955.677	744.690
152.746	17.352	955.311	744.881
153.760	17.458	954.764	744.848
154.775	17.353	954.171	743.864
155.789	17.385	952.592	742.704
156.804	17.463	951.554	742.170
157.819	17.420	950.665	741.224
158.833	17.522	950.220	741.255
159.848	17.372	949.279	739.805
160.862	17.265	948.144	738.391
161.877	17.447	947.035	738.248
162.892	17.486	946.834	738.196
163.906	17.542	945.470	737.310
164.921	17.258	944.890	735.563
165.935	17.513	943.432	735.468
166.950	17.450	942.593	734.477
167.964	17.504	941.497	733.787
168.979	17.279	940.442	731.934
169.994	17.301	939.978	731.600
171.008	17.360	939.244	731.219
172.023	17.409	938.124	730.494
173.037	17.047	937.016	728.013
174.052	17.057	935.975	727.184
175.067	17.280	935.496	727.700
176.081	17.315	935.409	727.720
177.096	17.356	934.529	727.146
178.110	17.082	933.600	725.188
179.125	17.088	932.357	724.184
180.140	17.023	931.959	723.535
181.154	17.132	931.486	723.566
182.169	17.307	931.444	724.217
183.183	17.378	930.926	724.051
184.198	17.369	930.015	723.238
185.213	17.401	928.810	722.373
186.227	17.435	927.991	721.818
187.242	17.412	927.615	721.364
188.256	17.361	927.074	720.664
189.271	17.525	926.010	720.467
190.286	17.390	925.043	719.082
191.300	16.888	923.867	715.982
192.315	16.329	922.583	712.566
193.329	16.347	921.992	712.121
194.344	16.908	922.430	714.762
195.359	17.363	922.154	716.404
196.373	17.481	921.285	716.161
197.388	17.026	920.466	713.548
198.402	17.108	919.666	713.208
199.417	17.155	918.960	712.796
200.432	16.923	917.660	710.751
201.446	16.718	916.987	709.309
202.461	16.925	916.301	709.583
203.475	16.106	914.667	704.831
204.490	15.480	913.705	701.414
205.504	16.370	914.178	705.435
206.519	17.058	913.915	708.038
207.534	17.030	913.377	707.444
208.548	17.325	912.850	708.202
209.563	17.144	912.424	707.053
210.577	17.237	911.393	706.581
211.592	17.420	910.637	706.690
212.607	17.379	909.645	705.686
213.621	17.483	909.338	705.819
214.636	17.490	908.602	705.214
215.650	17.490	908.094	704.759
216.665	17.655	907.206	704.689
217.680	17.559	905.893	703.212
218.694	17.032	905.221	700.454
219.709	17.046	904.439	699.841
220.723	17.328	903.822	700.465
221.738	17.377	903.455	700.320
222.753	17.303	902.917	699.535
223.767	17.492	902.039	699.571
224.782	17.630	901.853	699.934
225.796	17.637	901.001	699.237
226.811	17.096	899.625	695.892
227.826	16.607	898.373	692.859
228.840	16.755	898.006	693.120
229.855	16.936	896.811	692.876
230.869	16.575	895.979	690.697
231.884	16.886	895.850	691.806
232.899	17.548	895.669	694.305
233.913	17.451	895.058	693.374
234.928	17.510	894.270	692.946
235.942	17.640	893.500	692.815
236.957	17.238	892.506	690.350
237.972	17.309	892.257	690.383
238.986	17.468	891.398	690.305
240.001	17.372	890.812	689.402
241.015	17.495	889.680	688.960
242.030	17.636	889.340	689.205
243.045	17.544	889.047	688.547
244.059	17.629	888.648	688.518
245.074	17.403	887.765	686.861
246.088	17.158	886.262	684.652
247.103	17.444	885.748	685.348
248.117	17.740	885.813	686.526
249.132	17.748	884.858	685.757
250.147	17.766	884.142	685.217
251.161	18.059	883.455	685.800
252.176	17.886	883.095	684.766
253.190	18.099	882.056	684.750
254.205	18.212	881.594	684.783
255.220	18.136	880.901	683.882
256.234	17.907	880.555	682.636
257.249	17.901	879.538	681.763
258.263	18.045	878.997	681.861
259.278	18.114	878.061	681.346
260.293	18.317	876.956	681.239
261.307	18.016	876.499	679.627
262.322	17.846	876.060	678.550
263.336	16.983	873.875	673.372
264.351	16.119	871.987	668.434
265.366	16.256	871.722	668.715
266.380	17.252	872.479	673.184
267.395	17.734	872.154	674.781
268.409	17.624	871.376	673.683
269.424	17.944	870.512	674.221
270.439	17.972	870.306	674.113
271.453	18.278	869.312	674.490
272.468	18.256	868.945	674.058
273.482	18.078	868.755	673.151
274.497	17.818	867.162	670.834
275.512	17.539	866.198	668.935
276.526	18.020	866.121	670.702
277.541	17.911	865.767	669.942
278.555	17.650	864.548	667.917
279.570	17.595	863.359	666.723
280.585	17.774	862.959	667.057
281.599	17.871	862.404	666.947
282.614	17.423	861.185	664.196
283.628	17.446	860.841	663.964
284.643	17.731	860.364	664.648
285.657	17.530	859.109	662.834
286.672	17.164	858.337	660.760
287.687	17.808	857.892	662.862
288.701	17.657	857.649	662.026
289.716	17.267	857.078	660.013
290.730	17.250	856.398	659.366
291.745	17.132	854.891	657.691
292.760	17.421	854.996	658.832
293.774	18.146	854.871	661.482
294.789	18.431	854.587	662.307
295.803	18.531	854.201	662.335
296.818	18.591	853.398	661.886
297.833	18.182	852.306	659.403
298.847	18.157	851.660	658.750
299.862	18.300	851.274	658.942
300.876	18.532	850.831	659.435
301.891	18.382	849.870	658.056
302.906	17.799	849.035	655.110
303.920	17.962	848.493	655.262
304.935	18.352	848.358	656.593
305.949	18.386	847.504	656.006
306.964	18.258	847.008	655.072
307.979	18.378	846.238	654.879
308.993	18.613	846.187	655.680
310.008	18.498	845.686	654.793
311.022	18.215	844.585	652.806
312.037	18.278	844.376	652.827
313.052	18.036	843.484	651.155
314.066	17.568	841.831	648.040
315.081	17.330	841.081	646.503
316.095	17.923	841.325	648.886
317.110	18.293	841.292	650.208
318.125	17.741	840.067	647.112
319.139	16.900	838.551	642.698
320.154	17.062	838.261	643.034
321.168	17.526	838.674	645.054
322.183	18.141	837.728	646.595
323.197	18.339	837.710	647.270
324.212	18.412	836.928	646.886
325.227	18.465	836.572	646.754
326.241	18.387	835.980	645.943
327.256	18.297	835.372	645.077
328.270	18.365	834.701	644.761
329.285	18.230	834.024	643.672
330.300	17.963	833.253	642.017
331.314	18.182	832.923	642.529
332.329	18.359	832.600	642.885
333.343	18.589	831.637	642.947
334.358	18.610	831.400	642.787
335.373	18.563	830.930	642.191
336.387	18.736	830.955	642.802
337.402	18.755	830.374	642.366
338.416	18.720	830.128	641.988
339.431	18.684	830.039	641.727
340.446	18.947	829.630	642.335
341.460	18.858	828.663	641.199
342.475	18.574	828.440	639.910
343.489	18.503	828.070	639.304
344.504	18.771	827.662	639.928
345.519	18.996	827.102	640.278
346.533	19.057	827.070	640.424
347.548	19.027	826.264	639.632
348.562	19.162	825.790	639.710
349.577	19.114	825.248	639.053
350.592	19.095	824.842	638.614
351.606	19.070	823.929	637.757
352.621	19.118	822.618	636.863
353.635	18.885	822.104	635.549
354.650	18.484	820.987	633.146
355.665	17.528	819.523	628.435
356.679	17.961	818.934	629.526
357.694	18.345	818.293	630.390
358.708	18.312	818.223	630.159
359.723	18.834	817.710	631.629
360.738	18.951	817.373	631.742
361.752	19.024	816.887	631.578
362.767	19.180	816.448	631.756
363.781	19.438	815.996	632.295
364.796	19.541	815.450	632.194
365.810	19.337	815.497	631.427
366.825	19.454	814.488	631.019
367.840	19.128	814.018	629.405
368.854	18.979	813.136	628.123
369.869	19.050	812.671	627.967
370.883	18.960	812.307	627.304
371.898	18.702	812.043	626.103
372.913	18.771	811.577	625.939
373.927	19.056	811.270	626.686
374.942	19.059	811.179	626.572
375.956	19.131	810.625	626.349
376.971	19.333	809.945	626.503
377.986	19.320	809.802	626.289
379.000	19.339	808.827	625.548
380.015	19.060	808.513	624.240
381.029	19.205	807.790	624.149
382.044	19.263	807.551	624.121
383.059	19.303	806.808	623.637
384.073	19.394	806.267	623.493
385.088	19.398	805.814	623.100
386.102	19.382	804.750	622.167
387.117	19.244	804.587	621.487
388.132	19.107	803.749	620.288
389.146	18.792	802.568	618.190
390.161	18.916	802.400	618.452
391.175	19.025	802.256	618.680
392.190	18.795	801.166	616.959
393.205	17.937	799.428	612.489
394.219	16.844	798.295	607.650
395.234	16.947	798.124	607.835
396.248	18.254	799.081	613.197
397.263	19.340	799.607	617.436
398.278	19.234	799.473	616.897
399.292	19.022	798.773	615.547
400.307	19.201	798.110	615.620
401.321	19.399	797.622	615.896
402.336	19.541	797.738	616.438
403.350	19.666	797.394	616.564
404.365	19.751	797.121	616.600
405.380	20.096	796.380	617.203
406.394	20.053	795.916	616.636
407.409	19.902	795.368	615.621
408.423	19.906	794.869	615.195
409.438	20.133	794.418	615.595
410.453	19.935	794.143	614.626
411.467	20.130	793.547	614.801
412.482	20.024	793.108	614.032
413.496	20.035	793.195	614.082
414.511	19.960	792.973	613.591
415.526	20.054	792.005	613.121
416.540	20.028	791.232	612.374
417.555	19.643	790.557	610.439
418.569	19.737	790.310	610.528
419.584	19.776	789.566	610.035
420.599	19.540	789.068	608.763
421.613	154.424	1359.618	1790.553
422.628	133.666	1442.774	1790.655
