DTS Sentinel unit serial number:	SN413079Multiplexer serial number:	ORYXHardware model number:	OX4-SRSoftware version number:	ORYX F/W v4.00 Oryx Data Collector v3.7.2.0data status	okinstallation	princeton_trtdifferential loss correction	single-endedforward channel	channel 1reverse channel	N/Adate	2019/09/18time	14:34:35forward acquisition time	60.00reverse acquisition time	0.00gamma	496.2192k internal	0.2310k external	0.2310temperature offset calibration	0.9986default loss term (dB/km)	0.3790temperature slope calibration	1.0000multiplexer offset coefficient	1.0000multiplexer slope coefficient	1.0000fibre end	0.00T internal ref (°C)	34.50T ext. ref 1 (°C)	0.70T ext. ref 2 (°C)	31.93length (m)	temperature (°C)	Stokes	anti-Stokes-747.200	-200.000	0.036	0.173
-746.185	135.170	-0.260	0.343
-745.171	-108.478	0.193	0.042
-744.156	118.326	0.228	0.285
-743.142	-61.976	0.262	0.111
-742.127	165.870	-0.135	-0.195
-741.112	-200.000	0.039	-0.216
-740.098	800.000	0.069	0.276
-739.083	-53.239	-0.153	0.071
-738.069	718.839	-0.065	0.176
-737.054	-200.000	0.030	-0.311
-736.039	267.525	-0.145	-0.258
-735.025	134.151	0.111	-0.146
-734.010	134.777	-0.310	-0.408
-732.996	-168.835	0.365	-0.014
-731.981	-200.000	-0.045	-0.512
-730.966	62.859	0.138	0.140
-729.952	-200.000	-0.002	0.022
-728.937	154.610	-0.184	0.257
-727.923	136.397	-0.150	0.199
-726.908	-200.000	0.023	-0.133
-725.894	-12.092	-0.029	0.019
-724.879	412.113	-0.198	-0.428
-723.864	-98.417	-0.297	-0.077
-722.850	-104.137	0.121	-0.029
-721.835	-20.057	-0.191	0.119
-720.821	440.181	0.016	-0.036
-719.806	-200.000	0.025	-0.292
-718.791	-128.617	-0.321	-0.046
-717.777	-181.654	-0.320	0.006
-716.762	11.657	-0.073	0.057
-715.748	20.822	0.115	-0.095
-714.733	-200.000	0.001	-0.297
-713.718	-85.389	0.336	-0.106
-712.704	201.754	-0.066	0.104
-711.689	80.511	-0.341	-0.372
-710.675	341.762	-0.063	-0.124
-709.660	-64.381	0.195	-0.080
-708.645	800.000	0.026	-0.084
-707.631	192.541	0.112	-0.171
-706.616	-32.605	0.332	-0.187
-705.602	-118.819	-0.139	0.025
-704.587	-87.784	0.106	-0.033
-703.572	-7.994	-0.124	-0.085
-702.558	29.208	-0.291	-0.250
-701.543	-149.820	0.154	0.012
-700.529	-78.605	-0.237	0.082
-699.514	800.000	0.054	0.221
-698.499	-42.013	-0.170	0.088
-697.485	-75.903	0.238	-0.085
-696.470	-200.000	-0.021	0.123
-695.456	374.447	-0.139	0.287
-694.441	-90.265	0.309	0.091
-693.426	100.779	0.217	-0.255
-692.412	-200.000	0.019	0.403
-691.397	-200.000	-0.034	-0.418
-690.383	0.715	-0.086	-0.062
-689.368	597.215	0.047	-0.118
-688.354	-71.151	-0.153	-0.058
-687.339	153.130	-0.102	-0.142
-686.324	55.736	0.252	-0.247
-685.310	627.433	-0.084	0.216
-684.295	-200.000	-0.022	-0.129
-683.281	-74.841	-0.306	-0.111
-682.266	-200.000	0.039	-0.204
-681.251	-200.000	-0.048	-0.214
-680.237	-175.381	0.331	-0.009
-679.222	-145.539	0.138	0.013
-678.208	384.309	-0.072	-0.149
-677.193	163.078	0.156	-0.223
-676.178	28.263	-0.296	-0.253
-675.164	-146.334	0.396	0.035
-674.149	204.055	-0.143	-0.224
-673.135	800.000	-0.023	-0.081
-672.120	-111.009	0.142	-0.030
-671.105	-86.210	-0.222	0.069
-670.091	466.099	-0.104	0.235
-669.076	-200.000	-0.016	-0.177
-668.062	-103.597	-0.081	-0.019
-667.047	355.730	0.092	0.185
-666.032	-115.831	-0.339	-0.064
-665.018	551.925	0.026	0.062
-664.003	217.868	0.133	-0.215
-662.989	-200.000	-0.022	-0.278
-661.974	5.170	-0.325	0.242
-660.959	-200.000	0.042	-0.436
-659.945	-200.000	-0.012	0.062
-658.930	210.729	-0.186	0.295
-657.916	-200.000	0.036	0.182
-656.901	-30.693	-0.223	0.128
-655.886	314.335	-0.129	-0.246
-654.872	-32.843	-0.218	-0.123
-653.857	-98.949	-0.301	0.077
-652.843	-200.000	0.004	0.076
-651.828	800.000	-0.030	-0.099
-650.814	-100.210	-0.266	0.067
-649.799	155.682	0.167	-0.232
-648.784	800.000	0.120	-0.450
-647.770	800.000	0.044	0.192
-646.755	28.790	-0.171	0.147
-645.741	46.171	-0.013	-0.012
-644.726	-94.108	-0.106	0.029
-643.711	19.738	-0.173	0.141
-642.697	-105.929	-0.209	0.048
-641.682	569.530	0.107	0.263
-640.668	252.841	0.032	-0.056
-639.653	-15.344	-0.050	-0.033
-638.638	-200.000	-0.020	0.156
-637.624	208.643	-0.046	-0.073
-636.609	-200.000	0.005	0.059
-635.595	142.826	-0.168	-0.225
-634.580	745.232	-0.045	0.122
-633.565	54.936	0.034	0.033
-632.551	-200.000	-0.014	0.284
-631.536	-20.286	-0.108	0.067
-630.522	460.436	-0.267	-0.601
-629.507	800.000	0.026	0.104
-628.492	667.410	-0.021	-0.056
-627.478	-200.000	0.014	-0.079
-626.463	491.869	0.070	0.163
-625.449	-143.474	0.265	0.026
-624.434	111.746	0.111	0.135
-623.419	-141.725	0.164	-0.017
-622.405	800.000	-0.034	-0.120
-621.390	7.770	0.175	-0.133
-620.376	312.422	0.153	0.290
-619.361	800.000	0.097	-0.324
-618.346	143.434	0.103	0.138
-617.332	-200.000	-0.001	0.019
-616.317	-53.833	-0.190	0.088
-615.303	391.580	-0.021	0.044
-614.288	-133.498	0.331	-0.042
-613.273	269.724	0.084	-0.150
-612.259	-75.634	-0.328	0.118
-611.244	23.474	0.153	0.127
-610.230	263.067	-0.192	-0.337
-609.215	-71.077	0.328	0.124
-608.201	122.635	0.252	-0.319
-607.186	-200.000	-0.010	0.155
-606.171	-24.461	0.099	0.060
-605.157	-56.281	0.158	0.071
-604.142	369.907	0.061	-0.125
-603.128	-33.791	-0.167	-0.093
-602.113	-200.000	0.064	0.427
-601.098	800.000	-0.078	-0.318
-600.084	561.966	-0.167	0.407
-599.069	-200.000	-0.014	0.159
-598.055	-88.459	0.108	0.033
-597.040	-9.218	0.235	-0.159
-596.025	-65.405	-0.047	0.019
-595.011	-104.330	-0.138	0.032
-593.996	69.129	0.193	0.201
-592.982	645.238	0.088	0.226
-591.967	-120.683	0.524	0.089
-590.952	-200.000	0.010	0.358
-589.938	-99.371	0.248	-0.063
-588.923	-36.050	-0.219	-0.119
-587.909	157.743	0.162	-0.227
-586.894	-200.000	0.030	0.181
-585.879	51.548	-0.137	-0.131
-584.865	-128.043	-0.366	0.053
-583.850	-167.358	0.279	0.011
-582.836	14.025	0.132	0.104
-581.821	-19.775	0.029	0.018
-580.806	20.404	-0.067	0.055
-579.792	-13.589	-0.114	-0.075
-578.777	-50.506	-0.160	-0.076
-577.763	800.000	-0.068	-0.203
-576.748	-175.253	-0.208	-0.006
-575.733	71.009	-0.164	0.171
-574.719	-167.972	-0.124	-0.005
-573.704	253.062	-0.264	-0.454
-572.690	-200.000	0.011	0.107
-571.675	27.521	0.259	0.220
-570.661	-25.552	0.117	0.070
-569.646	119.630	0.124	-0.154
-568.631	335.766	-0.144	-0.281
-567.617	-33.823	-0.429	-0.238
-566.602	31.307	-0.128	0.111
-565.588	284.743	0.103	0.188
-564.573	-14.180	-0.113	-0.074
-563.558	-2.092	-0.275	0.195
-562.544	604.369	-0.084	0.211
-561.529	65.592	-0.227	0.232
-560.515	-12.221	0.043	-0.029
-559.500	-200.000	-0.032	-0.203
-558.485	-137.313	-0.337	-0.039
-557.471	-200.000	-0.014	-0.190
-556.456	27.625	-0.130	0.110
-555.442	-15.980	-0.252	0.161
-554.427	800.000	0.014	0.044
-553.412	-78.144	-0.683	-0.237
-552.398	35.655	0.139	0.123
-551.383	-200.000	0.019	0.159
-550.369	255.036	0.094	-0.162
-549.354	439.193	-0.133	-0.292
-548.339	-70.641	0.172	-0.065
-547.325	584.049	-0.048	0.118
-546.310	475.679	-0.181	0.411
-545.296	466.333	0.090	0.204
-544.281	-86.799	0.496	0.153
-543.266	-143.458	-0.351	-0.034
-542.252	61.969	-0.365	0.367
-541.237	-21.840	-0.088	-0.054
-540.223	279.440	-0.126	0.227
-539.208	-37.087	-0.102	-0.055
-538.193	71.711	-0.122	0.127
-537.179	800.000	-0.089	0.346
-536.164	-200.000	0.029	-0.442
-535.150	111.231	0.151	-0.183
-534.135	-5.048	-0.065	0.045
-533.121	-200.000	0.067	0.312
-532.106	800.000	0.069	0.218
-531.091	-56.517	0.124	0.055
-530.077	-102.567	-0.273	-0.066
-529.062	-102.380	0.076	0.018
-528.048	-98.404	0.112	0.029
-527.033	180.123	0.183	0.270
-526.018	-84.665	-0.165	-0.052
-525.004	54.062	-0.405	-0.392
-523.989	800.000	-0.090	0.277
-522.975	-165.582	0.457	-0.020
-521.960	337.031	-0.047	0.093
-520.945	-84.529	-0.317	-0.101
-519.931	-200.000	0.034	-0.171
-518.916	800.000	0.067	-0.194
-517.902	16.832	-0.265	-0.211
-516.887	-32.785	0.183	-0.103
-515.872	-22.900	-0.054	-0.033
-514.858	233.935	0.166	-0.275
-513.843	173.453	-0.024	0.035
-512.829	319.206	0.092	-0.176
-511.814	800.000	-0.127	0.547
-510.799	800.000	-0.033	-0.115
-509.785	-13.815	-0.172	-0.112
-508.770	-134.204	-0.323	-0.040
-507.756	-25.862	-0.221	-0.131
-506.741	200.958	-0.172	-0.266
-505.726	253.197	0.090	0.154
-504.712	75.496	0.161	0.171
-503.697	-49.707	0.173	0.083
-502.683	-163.948	0.242	0.011
-501.668	96.882	-0.186	-0.214
-500.653	-53.998	0.216	0.099
-499.639	-200.000	-0.005	0.035
-498.624	-200.000	0.011	0.145
-497.610	193.597	0.257	-0.391
-496.595	-17.086	0.108	0.068
-495.581	-200.000	0.026	-0.214
-494.566	8.050	-0.203	-0.153
-493.551	369.906	0.044	-0.090
-492.537	47.913	-0.105	0.098
-491.522	-110.862	-0.440	0.091
-490.508	-95.411	0.199	-0.054
-489.493	-157.728	0.340	-0.020
-488.478	-74.512	0.154	0.056
-487.464	-105.756	-0.015	0.003
-486.449	403.760	-0.034	-0.071
-485.435	78.494	0.061	0.066
-484.420	-200.000	0.042	-0.253
-483.405	-200.000	-0.004	0.075
-482.391	800.000	-0.055	0.176
-481.376	380.675	-0.086	0.178
-480.362	-13.706	0.406	0.264
-479.347	29.901	-0.162	0.139
-478.332	-74.680	0.261	0.094
-477.318	74.368	0.142	-0.149
-476.303	-98.591	-0.217	-0.056
-475.289	-62.593	-0.032	0.013
-474.274	-200.000	0.051	0.278
-473.259	-81.660	-0.197	-0.065
-472.245	-62.111	-0.353	-0.148
-471.230	3.547	0.097	-0.071
-470.216	314.710	-0.148	-0.279
-469.201	-125.932	-0.166	0.025
-468.186	32.425	0.316	0.274
-467.172	-200.000	0.033	0.245
-466.157	-66.071	-0.271	0.108
-465.143	410.647	-0.083	-0.177
-464.128	-99.580	-0.294	-0.074
-463.113	393.292	-0.110	0.230
-462.099	800.000	-0.067	0.229
-461.084	-6.356	-0.078	0.053
-460.070	36.378	0.208	-0.184
-459.055	800.000	0.065	0.189
-458.040	-200.000	0.031	-0.162
-457.026	-50.072	-0.131	-0.062
-456.011	281.350	0.182	-0.327
-454.997	-33.165	0.240	0.134
-453.982	-173.992	0.079	-0.002
-452.968	398.333	0.045	-0.096
-451.953	152.320	0.203	0.278
-450.938	800.000	-0.049	-0.160
-449.924	331.487	0.047	-0.091
-448.909	541.787	-0.094	-0.225
-447.895	33.150	0.077	-0.067
-446.880	253.110	0.093	0.159
-445.865	-79.781	0.109	-0.037
-444.851	-96.179	0.167	0.045
-443.836	265.492	-0.067	-0.117
-442.822	2.376	-0.097	0.071
-441.807	282.126	-0.165	-0.296
-440.792	59.728	-0.223	0.221
-439.778	-35.121	0.317	-0.173
-438.763	-92.017	0.224	-0.064
-437.749	34.496	-0.351	-0.308
-436.734	800.000	-0.040	-0.171
-435.719	800.000	0.078	-0.268
-434.705	87.222	-0.138	-0.153
-433.690	8.953	-0.112	-0.084
-432.676	253.871	-0.066	-0.113
-431.661	218.882	0.062	-0.100
-430.646	-180.136	0.301	-0.006
-429.632	93.520	0.032	0.037
-428.617	-200.000	0.062	0.326
-427.603	-164.139	0.172	-0.008
-426.588	-144.391	-0.254	0.024
-425.573	-200.000	-0.007	0.055
-424.559	30.217	-0.037	0.031
-423.544	-18.682	-0.165	-0.103
-422.530	332.418	0.115	-0.222
-421.515	34.477	0.230	-0.201
-420.500	472.588	0.073	0.165
-419.486	451.785	0.063	0.139
-418.471	-1.126	0.122	-0.086
-417.457	-110.350	-0.151	-0.032
-416.442	-152.723	0.283	-0.020
-415.428	253.518	-0.140	0.240
-414.413	-200.000	0.038	0.342
-413.398	-200.000	-0.010	0.207
-412.384	-16.259	-0.099	-0.063
-411.369	-99.741	-0.114	-0.029
-410.355	-200.000	-0.002	0.108
-409.340	-22.928	0.169	-0.102
-408.325	-200.000	-0.025	-0.401
-407.311	490.601	0.123	0.282
-406.296	800.000	-0.081	-0.289
-405.282	48.784	-0.204	-0.192
-404.267	-8.732	0.280	-0.188
-403.252	25.755	0.280	-0.233
-402.238	48.021	0.198	0.185
-401.223	6.878	-0.041	0.030
-400.209	-60.373	-0.196	-0.084
-399.194	-24.225	-0.241	0.144
-398.179	800.000	-0.081	-0.268
-397.165	-103.363	0.060	-0.014
-396.150	-200.000	-0.002	0.188
-395.136	656.338	-0.124	-0.318
-394.121	-200.000	0.059	-0.447
-393.106	800.000	-0.067	-0.203
-392.092	215.150	-0.272	-0.432
-391.077	144.936	-0.136	-0.182
-390.063	-200.000	-0.022	0.247
-389.048	-77.384	0.282	0.098
-388.033	117.098	-0.193	0.237
-387.019	-102.709	0.323	-0.077
-386.004	-122.239	0.265	-0.043
-384.990	-65.509	-0.131	0.053
-383.975	-200.000	-0.083	-0.467
-382.960	-69.523	0.183	0.070
-381.946	112.367	0.189	-0.229
-380.931	209.540	0.137	0.215
-379.917	-126.465	-0.105	0.016
-378.902	79.900	-0.091	-0.098
-377.888	305.901	-0.072	-0.134
-376.873	800.000	0.068	0.260
-375.858	-200.000	0.024	-0.173
-374.844	-32.826	-0.071	0.039
-373.829	-200.000	-0.024	0.230
-372.815	-190.227	-0.112	0.001
-371.800	-200.000	-0.003	-0.031
-370.785	-200.000	-0.048	0.278
-369.771	-200.000	0.017	0.216
-368.756	155.292	-0.218	-0.300
-367.742	-200.000	-0.329	-0.000
-366.727	40.458	0.147	-0.133
-365.712	-18.696	0.144	-0.090
-364.698	-200.000	0.071	-0.474
-363.683	800.000	-0.033	-0.123
-362.669	-200.000	0.001	0.299
-361.654	-163.376	0.448	0.021
-360.639	119.615	-0.125	0.155
-359.625	83.773	0.080	-0.088
-358.610	-160.205	-0.138	0.007
-357.596	44.272	0.162	0.149
-356.581	90.627	0.159	-0.178
-355.566	-41.557	-0.069	-0.035
-354.552	162.546	-0.111	0.156
-353.537	-74.060	-0.277	-0.100
-352.523	-69.199	-0.395	0.152
-351.508	13.811	0.136	0.106
-350.493	-38.330	0.134	-0.071
-349.479	-5.739	0.067	-0.046
-348.464	-45.916	-0.213	-0.105
-347.450	-119.359	-0.195	-0.034
-346.435	-174.347	-0.418	0.012
-345.420	42.516	0.175	0.159
-344.406	-38.820	0.142	0.075
-343.391	144.356	0.221	-0.295
-342.377	123.042	0.054	0.068
-341.362	144.420	0.149	0.199
-340.348	24.266	0.312	0.258
-339.333	-101.455	0.051	0.012
-338.318	-200.000	0.010	-0.083
-337.304	-158.600	0.395	0.023
-336.289	-200.000	0.049	0.394
-335.275	-55.002	-0.171	-0.077
-334.260	-38.888	0.041	0.022
-333.245	-150.514	0.380	-0.029
-332.231	-131.782	0.080	-0.010
-331.216	98.158	-0.191	-0.219
-330.202	198.552	-0.151	0.231
-329.187	-134.057	0.223	-0.028
-328.172	-37.309	-0.235	0.125
-327.158	412.446	-0.099	-0.210
-326.143	-81.850	-0.288	-0.094
-325.129	-12.108	-0.426	0.279
-324.114	-130.384	0.104	0.014
-323.099	800.000	0.082	-0.241
-322.085	107.981	-0.221	-0.263
-321.070	75.590	0.077	0.082
-320.056	-152.234	-0.055	-0.004
-319.041	274.933	-0.083	0.147
-318.026	220.865	-0.230	0.368
-317.012	-200.000	0.017	-0.081
-315.997	54.271	-0.178	-0.172
-314.983	800.000	-0.078	0.244
-313.968	-200.000	0.036	-0.205
-312.953	12.407	-0.077	-0.059
-311.939	79.548	-0.140	0.150
-310.924	98.135	-0.213	-0.245
-309.910	152.693	0.087	0.119
-308.895	800.000	-0.011	-0.036
-307.880	-143.021	0.223	0.022
-306.866	800.000	0.097	0.290
-305.851	205.547	-0.022	-0.034
-304.837	657.621	0.086	0.220
-303.822	27.604	0.108	0.091
-302.807	7.819	0.172	-0.128
-301.793	274.134	-0.120	-0.213
-300.778	222.074	0.093	0.150
-299.764	-170.651	-0.218	-0.008
-298.749	-60.073	0.146	0.062
-297.735	439.352	0.089	-0.195
-296.720	98.336	-0.134	0.154
-295.705	800.000	0.030	-0.098
-294.691	-34.384	-0.403	-0.221
-293.676	-99.463	0.368	0.093
-292.662	-200.000	0.010	-0.551
-291.647	151.783	0.163	0.221
-290.632	-57.641	-0.281	0.123
-289.618	-149.544	-0.319	-0.025
-288.603	469.936	0.035	0.079
-287.589	131.692	0.127	-0.163
-286.574	-200.000	0.041	0.214
-285.559	57.416	0.360	0.350
-284.545	-179.673	-0.206	0.004
-283.530	-97.778	0.168	0.043
-282.516	800.000	0.034	0.107
-281.501	51.175	-0.135	0.128
-280.486	-11.156	0.210	0.138
-279.472	253.094	0.127	-0.216
-278.457	10.877	-0.118	0.090
-277.443	-88.642	-0.095	-0.028
-276.428	-39.275	-0.181	-0.095
-275.413	311.090	0.076	-0.142
-274.399	22.434	0.276	-0.225
-273.384	-181.648	0.287	0.006
-272.370	-59.729	-0.135	0.058
-271.355	-168.476	-0.231	0.009
-270.340	-173.068	-0.159	-0.005
-269.326	-95.541	-0.280	0.075
-268.311	800.000	0.096	-0.337
-267.297	-69.518	-0.188	-0.072
-266.282	655.026	0.054	-0.137
-265.267	-79.959	-0.312	-0.104
-264.253	504.606	0.088	-0.204
-263.238	-107.770	-0.098	-0.021
-262.224	-28.518	-0.258	0.148
-261.209	-90.584	-0.233	-0.067
-260.195	13.982	-0.208	-0.161
-259.180	27.598	0.078	0.065
-258.165	45.449	-0.151	-0.139
-257.151	-36.890	-0.079	0.042
-256.136	198.674	-0.043	0.065
-255.122	133.536	-0.053	0.068
-254.107	-178.482	0.373	0.009
-253.092	-200.000	0.013	0.115
-252.078	800.000	0.041	0.122
-251.063	-197.663	-0.178	0.001
-250.049	-70.673	0.108	-0.041
-249.034	226.640	0.045	-0.073
-248.019	-66.836	-0.075	-0.030
-247.005	-95.730	-0.209	-0.056
-245.990	7.054	0.120	-0.089
-244.976	8.211	-0.089	-0.066
-243.961	-87.480	0.131	0.039
-242.946	379.933	0.047	-0.095
-241.932	800.000	-0.033	0.126
-240.917	-76.512	-0.189	-0.066
-239.903	-46.708	-0.226	-0.110
-238.888	311.346	0.104	0.194
-237.873	800.000	0.026	0.076
-236.859	187.018	-0.280	0.416
-235.844	119.045	0.060	0.074
-234.830	74.860	-0.065	0.068
-233.815	40.871	0.050	-0.045
-232.800	-71.721	-0.161	0.060
-231.786	13.159	0.220	-0.170
-230.771	576.841	-0.081	-0.197
-229.757	1.301	0.128	-0.092
-228.742	-200.000	-0.021	0.113
-227.727	-143.795	0.388	-0.037
-226.713	1.209	0.054	0.039
-225.698	80.882	0.096	0.103
-224.684	-116.442	0.202	-0.037
-223.669	-200.000	-0.012	0.254
-222.655	-6.493	0.169	0.115
-221.640	54.797	-0.107	-0.102
-220.625	800.000	0.077	-0.213
-219.611	-73.693	-0.125	-0.045
-218.596	118.199	-0.072	0.089
-217.582	-88.784	-0.147	0.043
-216.567	4.814	0.333	-0.244
-215.552	-200.000	0.046	0.309
-214.538	-1.335	0.307	-0.216
-213.523	-110.895	0.207	0.042
-212.509	13.356	0.398	-0.307
-211.494	-160.954	-0.142	0.007
-210.479	-151.334	0.197	0.015
-209.465	139.668	-0.227	-0.297
-208.450	100.477	0.054	0.063
-207.436	-149.701	-0.474	-0.037
-206.421	-44.123	0.202	0.101
-205.406	83.901	-0.034	-0.037
-204.392	43.629	0.111	0.101
-203.377	55.580	-0.014	0.013
-202.363	-200.000	-0.026	0.404
-201.348	36.553	-0.047	-0.041
-200.333	326.041	0.052	-0.099
-199.319	-79.126	0.114	0.038
-198.304	-15.090	-0.262	0.167
-197.290	-200.000	0.010	0.457
-196.275	-200.000	0.019	-0.200
-195.260	-66.093	-0.131	-0.052
-194.246	-34.353	-0.270	-0.147
-193.231	185.687	0.308	0.454
-192.217	34.709	0.118	-0.103
-191.202	800.000	0.127	-0.357
-190.187	-138.475	0.343	0.037
-189.173	-200.000	0.036	0.190
-188.158	-200.000	-0.004	0.067
-187.144	-14.976	0.120	-0.077
-186.129	-54.573	-0.014	-0.006
-185.114	475.689	-0.094	0.211
-184.100	-131.401	0.322	-0.042
-183.085	60.908	-0.203	-0.200
-182.071	-51.348	0.215	0.100
-181.056	-159.193	0.308	-0.017
-180.042	75.652	0.374	0.393
-179.027	152.167	0.176	0.239
-178.012	258.063	0.140	-0.240
-176.998	465.664	-0.145	0.322
-175.983	20.830	0.083	0.066
-174.969	-147.312	0.055	0.005
-173.954	318.962	-0.038	0.071
-172.939	800.000	-0.037	-0.119
-171.925	-200.000	-0.005	0.179
-170.910	16.363	0.327	0.256
-169.896	3.802	-0.139	0.101
-168.881	3.344	-0.186	0.135
-167.866	-4.653	0.159	0.109
-166.852	-200.000	0.064	-0.358
-165.837	-200.000	-0.052	0.270
-164.823	-64.599	0.129	0.052
-163.808	-181.089	-0.162	-0.003
-162.793	-11.564	-0.168	0.110
-161.779	174.497	0.070	0.101
-160.764	-119.358	-0.236	-0.041
-159.750	49.693	-0.056	-0.052
-158.735	-146.747	-0.057	0.005
-157.720	-144.631	0.190	0.017
-156.706	22.354	0.293	-0.238
-155.691	369.409	-0.024	-0.048
-154.677	795.722	0.138	-0.377
-153.662	800.000	-0.092	-0.336
-152.647	-77.750	0.554	-0.190
-151.633	-200.000	-0.008	0.422
-150.618	-128.354	-0.287	0.041
-149.604	800.000	-0.061	-0.223
-148.589	800.000	-0.100	-0.388
-147.574	800.000	0.054	-0.194
-146.560	-173.760	-0.287	0.008
-145.545	800.000	0.027	-0.112
-144.531	-51.734	-0.276	0.128
-143.516	17.109	0.107	0.085
-142.502	-79.713	0.072	-0.024
-141.487	-118.220	-0.238	-0.042
-140.472	445.393	-0.165	0.359
-139.458	-43.948	0.184	0.092
-138.443	-24.994	0.219	0.129
-137.429	-200.000	-0.019	0.145
-136.414	-47.267	-0.225	0.109
-135.399	650.663	0.023	0.058
-134.385	-200.000	-0.004	-0.108
-133.370	265.957	-0.087	-0.150
-132.356	120.947	-0.273	0.336
-131.341	37.432	-0.107	0.094
-130.326	-78.916	-0.101	0.034
-129.312	283.927	0.108	0.193
-128.297	800.000	-0.061	-0.223
-127.283	-140.826	0.230	0.024
-126.268	-104.194	-0.070	-0.016
-125.253	-112.603	0.356	0.070
-124.239	-200.000	-0.066	0.391
-123.224	800.000	0.048	-0.163
-122.210	-69.411	0.100	-0.038
-121.195	520.593	0.130	-0.303
-120.180	-200.000	0.054	-0.249
-119.166	-122.290	-0.141	0.023
-118.151	-129.097	0.298	-0.041
-117.137	107.816	-0.231	0.273
-116.122	508.909	0.103	0.237
-115.107	-14.355	-0.178	0.113
-114.093	-63.311	-0.102	-0.042
-113.078	367.271	-0.153	-0.305
-112.064	41.012	0.236	0.211
-111.049	56.141	-0.143	0.138
-110.034	-3.654	-0.084	0.058
-109.020	121.190	-0.109	-0.134
-108.005	-113.123	-0.200	0.039
-106.991	-21.580	0.170	-0.103
-105.976	309.153	0.133	0.247
-104.962	-89.148	0.340	0.100
-103.947	-200.000	0.124	-0.001
-102.932	-135.402	-0.110	-0.013
-101.918	-100.653	0.293	0.072
-100.903	673.763	-0.081	0.209
-99.889	91.789	-0.090	-0.101
-98.874	-105.396	-0.413	0.093
-97.859	119.506	0.236	0.290
-96.845	-129.795	0.148	0.020
-95.830	-200.000	0.011	0.233
-94.816	800.000	0.022	0.071
-93.801	-78.955	0.223	-0.075
-92.786	135.886	-0.233	-0.301
-91.772	105.165	0.086	0.101
-90.757	51.770	0.151	-0.142
-89.743	6.824	-0.175	-0.129
-88.728	111.839	0.110	0.131
-87.713	100.098	-0.163	0.188
-86.699	800.000	-0.118	-0.380
-85.684	51.332	0.134	0.126
-84.670	-29.332	-0.324	-0.183
-83.655	-200.000	0.013	0.133
-82.640	-176.752	0.291	0.007
-81.626	800.000	-0.094	-0.280
-80.611	-107.411	0.300	-0.065
-79.597	113.369	0.286	0.344
-78.582	1.921	0.264	-0.188
-77.567	-21.136	-0.199	0.120
-76.553	-144.112	-0.273	0.025
-75.538	-195.388	0.265	0.002
-74.524	227.332	0.062	0.100
-73.509	-200.000	-0.009	-0.131
-72.494	117.043	-0.237	0.288
-71.480	474.975	-0.120	0.269
-70.465	800.000	0.051	-0.211
-69.451	34.092	0.141	0.122
-68.436	11.065	-0.270	0.204
-67.422	800.000	0.065	0.204
-66.407	-200.000	0.033	-0.325
-65.392	800.000	0.009	0.039
-64.378	-200.000	-0.013	0.170
-63.363	-200.000	0.087	0.422
-62.349	800.000	-0.102	0.329
-61.334	26.305	-0.950	-0.785
-60.319	58.421	0.364	0.353
-59.305	653.794	-0.444	-1.127
-58.290	800.000	0.323	1.166
-57.276	800.000	0.450	1.554
-56.261	-200.000	96.136	562.603
-55.246	525.503	1410.526	3282.410
-54.232	146.385	2632.808	3494.408
-53.217	112.608	2216.000	2651.729
-52.203	46.327	1658.614	1519.792
-51.188	37.929	1390.856	1222.062
-50.173	34.694	1347.574	1164.304
-49.159	54.833	1396.553	1332.106
-48.144	58.661	1414.289	1372.723
-47.130	38.267	1368.899	1204.663
-46.115	34.670	1351.139	1167.052
-45.100	34.494	1346.608	1162.021
-44.086	34.491	1343.811	1159.546
-43.071	34.415	1341.324	1156.890
-42.057	34.325	1339.439	1154.673
-41.042	34.372	1337.838	1153.533
-40.027	34.387	1336.398	1152.334
-39.013	34.403	1334.080	1150.388
-37.998	34.472	1332.270	1149.199
-36.984	34.424	1330.817	1147.611
-35.969	34.512	1328.552	1146.137
-34.954	34.563	1327.242	1145.271
-33.940	34.479	1326.354	1143.956
-32.925	34.576	1324.655	1143.023
-31.911	34.638	1322.801	1141.752
-30.896	34.497	1321.634	1139.856
-29.881	34.593	1320.467	1139.377
-28.867	34.626	1318.949	1138.215
-27.852	34.736	1316.876	1137.039
-26.838	34.559	1315.957	1135.146
-25.823	34.666	1314.623	1134.590
-24.809	34.587	1313.135	1132.789
-23.794	34.672	1311.385	1131.741
-22.779	34.630	1310.380	1130.579
-21.765	34.668	1309.152	1129.697
-20.750	34.513	1307.892	1127.649
-19.736	34.446	1306.642	1126.132
-18.721	34.518	1305.239	1125.301
-17.706	34.496	1304.075	1124.127
-16.692	34.375	1302.982	1122.423
-15.677	34.398	1301.632	1121.354
-14.663	34.396	1300.852	1120.625
-13.648	34.481	1299.230	1119.683
-12.633	34.460	1298.447	1118.839
-11.619	34.411	1297.848	1117.991
-10.604	34.529	1296.655	1117.612
-9.590	34.438	1295.452	1115.995
-8.575	34.322	1295.102	1114.970
-7.560	34.446	1293.943	1114.655
-6.546	34.373	1293.293	1113.627
-5.531	34.339	1292.127	1112.378
-4.517	34.334	1291.193	1111.501
-3.502	34.486	1290.319	1111.590
-2.487	34.533	1289.422	1111.048
-1.473	34.528	1285.780	1107.833
-0.458	33.575	1271.199	1089.758
0.556	28.989	1252.838	1051.021
1.571	24.588	1258.051	1029.994
2.586	22.902	1271.663	1031.212
3.600	21.410	1259.777	1012.846
4.615	15.615	1183.540	919.839
5.629	5.879	1102.931	807.229
6.644	1.052	1080.035	766.043
7.659	0.683	1077.199	762.103
8.673	0.575	1076.466	760.973
9.688	0.491	1075.158	759.560
10.702	0.706	1073.733	759.565
11.717	6.152	1080.878	792.046
12.731	14.575	1092.396	843.145
13.746	17.794	1094.964	861.334
14.761	17.310	1093.979	858.042
15.775	16.575	1092.059	852.755
16.790	15.497	1090.133	845.751
17.804	14.818	1088.391	840.906
18.819	14.420	1087.500	838.142
19.834	14.139	1086.220	835.670
20.848	13.724	1085.533	832.984
21.863	13.511	1085.067	831.485
22.877	13.471	1083.756	830.205
23.892	13.331	1083.493	829.230
24.907	13.371	1082.330	828.466
25.921	13.404	1081.789	828.142
26.936	13.361	1081.142	827.357
27.950	13.472	1079.901	826.891
28.965	13.466	1079.000	826.099
29.980	13.542	1077.328	825.124
30.994	13.663	1076.008	824.643
32.009	13.632	1075.561	824.071
33.023	13.705	1073.717	822.949
34.038	13.561	1073.111	821.699
35.053	13.574	1072.119	820.928
36.067	13.612	1070.989	820.182
37.082	13.642	1070.292	819.719
38.096	13.602	1069.776	819.054
39.111	13.586	1068.966	818.283
40.126	13.600	1067.298	817.002
41.140	13.413	1066.842	815.663
42.155	13.406	1065.494	814.526
43.169	13.445	1064.320	813.746
44.184	13.508	1063.302	813.204
45.199	13.367	1062.465	811.800
46.213	13.387	1061.200	810.860
47.228	13.424	1059.968	810.030
48.242	13.496	1058.820	809.430
49.257	13.486	1058.157	808.805
50.271	13.586	1057.039	808.369
51.286	13.577	1056.004	807.458
52.301	13.521	1055.209	806.510
53.315	13.520	1053.873	805.408
54.330	13.500	1052.816	804.435
55.344	13.492	1052.115	803.788
56.359	13.431	1051.383	802.860
57.374	13.507	1050.598	802.558
58.388	13.399	1049.517	801.143
59.403	13.372	1049.160	800.665
60.417	13.352	1048.056	799.658
61.432	13.311	1047.135	798.687
62.447	13.343	1046.351	798.172
63.461	13.396	1045.440	797.661
64.476	13.338	1044.578	796.654
65.490	13.259	1044.057	795.805
66.505	13.459	1042.921	795.830
67.520	13.306	1042.795	794.929
68.534	13.341	1041.794	794.263
69.549	13.317	1040.718	793.257
70.563	13.282	1040.595	792.924
71.578	13.314	1039.724	792.342
72.593	13.280	1039.277	791.769
73.607	13.284	1038.245	790.933
74.622	13.357	1037.410	790.578
75.636	13.447	1036.311	790.099
76.651	13.260	1036.217	789.064
77.666	13.288	1035.496	788.582
78.680	13.386	1034.571	788.273
79.695	13.305	1034.180	787.520
80.709	13.381	1033.391	787.210
81.724	13.426	1032.270	786.502
82.739	13.562	1031.788	786.709
83.753	13.347	1031.266	785.223
84.768	13.533	1030.190	785.213
85.782	13.524	1029.397	784.497
86.797	13.530	1028.269	783.599
87.812	13.515	1027.126	782.588
88.826	13.568	1025.818	781.772
89.841	13.513	1025.288	781.038
90.855	13.511	1024.460	780.327
91.870	13.522	1023.814	779.820
92.884	13.665	1022.990	779.797
93.899	13.705	1021.577	778.837
94.914	13.691	1020.887	778.175
95.928	13.648	1019.870	777.130
96.943	13.576	1019.562	776.491
97.957	13.539	1018.818	775.682
98.972	13.528	1017.716	774.722
99.987	13.625	1016.568	774.235
101.001	13.599	1015.852	773.499
102.016	13.495	1015.076	772.353
103.030	13.596	1014.179	772.073
104.045	13.578	1013.589	771.471
105.060	13.586	1012.291	770.452
106.074	13.550	1011.247	769.424
107.089	13.539	1010.129	768.455
108.103	13.427	1009.303	767.239
109.118	13.513	1008.425	766.901
110.133	13.491	1007.740	766.211
111.147	13.417	1007.075	765.296
112.162	13.501	1005.850	764.683
113.176	13.451	1005.600	764.198
114.191	13.507	1004.774	763.757
115.206	13.587	1003.639	763.198
116.220	13.524	1002.945	762.311
117.235	13.590	1001.804	761.679
118.249	13.550	1001.108	760.898
119.264	13.603	1000.311	760.472
120.279	13.574	999.693	759.799
121.293	13.403	998.890	758.337
122.308	13.558	998.228	758.479
123.322	13.460	997.360	757.305
124.337	13.556	995.759	756.462
125.352	13.424	995.261	755.410
126.366	13.484	994.057	754.705
127.381	13.527	992.861	753.926
128.395	13.555	991.756	753.148
129.410	13.731	990.779	753.139
130.424	13.592	990.237	752.027
131.439	13.630	989.326	751.443
132.454	13.693	988.371	750.934
133.468	13.576	987.769	749.884
134.483	13.729	986.709	749.705
135.497	13.718	985.544	748.701
136.512	13.583	985.072	747.669
137.527	13.685	984.016	747.259
138.541	13.625	983.639	746.637
139.556	13.576	982.978	745.847
140.570	13.551	982.496	745.305
141.585	13.776	981.377	745.400
142.600	13.821	980.365	744.769
143.614	13.779	979.530	743.880
144.629	13.723	978.546	742.815
145.643	13.772	977.843	742.437
146.658	13.722	976.539	741.159
147.673	13.783	975.425	740.517
148.687	13.624	975.280	739.633
149.702	13.642	974.234	738.855
150.716	13.721	973.508	738.592
151.731	13.579	972.799	737.354
152.746	13.681	971.835	737.012
153.760	13.579	971.544	736.274
154.775	13.733	970.769	736.306
155.789	13.691	970.370	735.752
156.804	13.900	969.171	735.701
157.819	13.908	968.800	735.393
158.833	13.809	968.125	734.376
159.848	13.945	967.279	734.269
160.862	13.917	965.938	733.064
161.877	13.843	965.082	732.022
162.892	13.836	964.320	731.348
163.906	13.941	962.979	730.730
164.921	13.886	962.729	730.232
165.935	13.796	961.985	729.210
166.950	13.907	960.650	728.618
167.964	13.735	959.896	727.231
168.979	13.958	958.886	727.374
169.994	13.983	958.053	726.790
171.008	13.874	957.559	725.873
172.023	13.934	956.945	725.606
173.037	13.989	956.224	725.234
174.052	14.004	955.331	724.561
175.067	13.944	954.818	723.845
176.081	13.930	953.989	723.091
177.096	14.041	953.576	723.197
178.110	13.993	952.643	722.219
179.125	13.830	952.397	721.260
180.140	14.007	951.817	721.522
181.154	14.031	951.865	721.602
182.169	13.981	950.877	720.572
183.183	14.015	950.333	720.241
184.198	14.215	948.927	719.978
185.213	14.161	948.310	719.214
186.227	14.069	947.957	718.484
187.242	14.076	947.309	717.957
188.256	14.229	946.598	718.016
189.271	14.236	945.356	717.041
190.286	14.062	944.986	715.947
191.300	13.980	944.535	715.193
192.315	14.032	943.874	714.848
193.329	14.015	943.159	714.173
194.344	14.080	942.360	713.784
195.359	13.998	941.979	713.081
196.373	14.048	941.134	712.590
197.388	14.142	940.876	712.735
198.402	14.235	940.253	712.600
199.417	14.356	939.561	712.528
200.432	14.361	938.870	711.963
201.446	14.302	938.531	711.392
202.461	14.360	938.039	711.203
203.475	14.313	937.271	710.357
204.490	14.359	936.638	710.012
205.504	14.376	936.047	709.573
206.519	14.425	934.893	708.843
207.534	14.315	934.135	707.737
208.548	14.436	933.745	707.895
209.563	14.389	933.227	707.239
210.577	14.483	932.144	706.753
211.592	14.625	931.617	706.895
212.607	14.558	930.735	705.877
213.621	14.388	930.148	704.651
214.636	14.464	929.538	704.447
215.650	14.507	928.872	704.061
216.665	14.463	928.249	703.343
217.680	14.595	927.444	703.229
218.694	14.683	926.630	702.920
219.709	14.595	925.991	702.000
220.723	14.479	925.637	701.181
221.738	14.539	924.650	700.623
222.753	14.604	923.703	700.118
223.767	14.669	923.299	700.022
224.782	14.602	922.971	699.433
225.796	14.744	922.020	699.242
226.811	14.825	921.411	699.058
227.826	14.662	920.546	697.661
228.840	14.791	919.810	697.577
229.855	14.741	918.970	696.671
230.869	14.704	918.175	695.854
231.884	14.796	917.320	695.527
232.899	14.758	916.734	694.861
233.913	14.747	915.945	694.156
234.928	14.603	915.876	693.443
235.942	14.625	915.303	693.041
236.957	14.764	914.877	693.232
237.972	14.712	913.919	692.229
238.986	14.772	913.193	691.869
240.001	14.828	912.552	691.554
241.015	14.868	911.607	690.942
242.030	14.938	911.095	690.783
243.045	14.992	910.554	690.534
244.059	14.795	910.386	689.532
245.074	14.942	909.392	689.324
246.088	14.915	908.683	688.615
247.103	15.030	907.818	688.371
248.117	15.019	907.502	688.026
249.132	14.976	907.188	687.549
250.147	15.125	905.973	687.179
251.161	15.170	905.498	686.942
252.176	15.192	904.648	686.325
253.190	15.121	904.309	685.720
254.205	15.217	903.587	685.504
255.220	15.160	902.964	684.735
256.234	15.125	902.483	684.167
257.249	15.235	901.625	683.908
258.263	15.225	901.016	683.342
259.278	15.227	900.490	682.891
260.293	15.344	899.893	682.857
261.307	15.404	898.920	682.301
262.322	15.516	897.847	681.880
263.336	15.209	897.805	680.539
264.351	15.532	896.642	680.908
265.366	15.488	896.133	680.285
266.380	15.388	895.974	679.698
267.395	15.406	894.949	678.932
268.409	15.407	894.365	678.436
269.424	15.451	893.615	677.982
270.439	15.436	893.067	677.447
271.453	15.518	892.043	676.941
272.468	15.460	891.717	676.399
273.482	15.551	891.253	676.353
274.497	15.529	890.559	675.679
275.512	15.457	889.736	674.705
276.526	15.409	889.576	674.330
277.541	15.525	889.099	674.376
278.555	15.592	888.294	673.973
279.570	15.667	887.764	673.813
280.585	15.758	886.675	673.291
281.599	15.570	886.249	672.157
282.614	15.630	885.212	671.551
283.628	15.713	884.719	671.449
284.643	15.623	884.242	670.667
285.657	15.717	883.325	670.286
286.672	15.634	883.144	669.760
287.687	15.696	882.624	669.555
288.701	15.635	881.969	668.755
289.716	15.722	881.247	668.493
290.730	15.753	880.717	668.155
291.745	15.807	879.928	667.712
292.760	15.880	879.242	667.422
293.774	16.004	878.511	667.299
294.789	15.777	878.449	666.293
295.803	15.815	877.406	665.596
296.818	15.752	876.705	664.755
297.833	15.872	875.888	664.552
298.847	15.866	875.496	664.169
299.862	15.875	874.758	663.588
300.876	15.963	874.253	663.490
301.891	15.977	873.664	663.044
302.906	15.975	873.072	662.525
303.920	16.011	872.762	662.373
304.935	16.137	872.031	662.257
305.949	16.068	871.694	661.669
306.964	15.997	870.901	660.729
307.979	16.016	870.076	660.119
308.993	16.133	869.276	659.914
310.008	16.211	868.790	659.792
311.022	16.048	868.535	658.903
312.037	16.007	867.838	658.156
313.052	16.132	867.218	658.115
314.066	16.133	866.684	657.652
315.081	16.049	866.185	656.891
316.095	16.136	865.518	656.666
317.110	16.186	864.771	656.233
318.125	16.011	864.889	655.583
319.139	16.229	863.991	655.692
320.154	16.106	863.501	654.788
321.168	16.166	863.077	654.640
322.183	16.213	862.219	654.111
323.197	16.227	861.795	653.787
324.212	16.098	861.366	652.907
325.227	16.292	860.318	652.801
326.241	16.294	859.904	652.439
327.256	16.281	859.704	652.181
328.270	16.275	858.859	651.457
329.285	16.053	858.728	650.445
330.300	16.236	857.651	650.276
331.314	16.261	857.210	649.980
332.329	16.267	856.976	649.768
333.343	16.284	856.536	649.443
334.358	16.223	855.937	648.694
335.373	16.145	855.766	648.207
336.387	16.451	855.207	648.903
337.402	16.371	854.858	648.274
338.416	16.511	854.176	648.236
339.431	16.439	854.007	647.775
340.446	16.532	853.762	647.888
341.460	16.577	853.395	647.725
342.475	16.438	852.982	646.822
343.489	16.521	852.218	646.505
344.504	16.539	851.965	646.321
345.519	16.644	851.429	646.259
346.533	16.725	850.852	646.071
347.548	16.662	850.404	645.434
348.562	16.479	849.819	644.236
349.577	16.599	848.974	643.996
350.592	16.601	848.422	643.529
351.606	16.591	847.537	642.763
352.621	16.668	846.940	642.544
353.635	16.643	846.608	642.142
354.650	16.724	845.849	641.816
355.665	16.738	845.257	641.361
356.679	16.690	844.979	640.915
357.694	16.690	844.209	640.273
358.708	16.801	843.073	639.773
359.723	16.805	842.867	639.577
360.738	16.945	842.070	639.444
361.752	16.814	841.812	638.695
362.767	16.732	841.219	637.879
363.781	16.977	840.416	638.135
364.796	17.116	839.734	638.083
365.810	16.974	839.533	637.342
366.825	16.947	838.925	636.722
367.840	17.123	838.560	637.049
368.854	16.889	838.078	635.749
369.869	16.988	837.631	635.726
370.883	16.896	837.558	635.269
371.898	17.006	837.371	635.483
372.913	17.081	836.656	635.165
373.927	17.203	835.767	634.890
374.942	17.132	835.420	634.304
375.956	17.148	835.257	634.185
376.971	17.179	834.822	633.915
377.986	16.994	834.667	633.050
379.000	17.207	833.666	633.028
380.015	17.260	833.104	632.744
381.029	17.283	832.814	632.553
382.044	17.194	832.561	631.973
383.059	17.197	831.831	631.376
384.073	17.257	830.990	630.904
385.088	17.251	830.263	630.273
386.102	17.219	830.041	629.929
387.117	17.148	829.712	629.363
388.132	17.406	828.496	629.338
389.146	17.332	828.059	628.677
390.161	17.332	828.023	628.595
391.175	17.491	827.111	628.434
392.190	17.313	826.985	627.626
393.205	17.188	826.735	626.918
394.219	17.305	826.085	626.801
395.234	17.400	825.654	626.770
396.248	17.373	824.942	626.072
397.263	17.438	824.544	625.954
398.278	17.341	824.064	625.178
399.292	17.331	824.269	625.242
400.307	17.277	823.423	624.345
401.321	17.400	822.772	624.251
402.336	17.367	822.276	623.695
403.350	17.489	822.026	623.901
404.365	17.455	821.443	623.277
405.380	17.744	820.358	623.455
406.394	17.561	820.258	622.656
407.409	17.498	820.311	622.409
408.423	17.744	819.692	622.783
409.438	17.583	819.302	621.844
410.453	17.704	818.861	621.895
411.467	17.818	817.999	621.603
412.482	17.871	817.796	621.585
413.496	17.705	817.598	620.774
414.511	17.737	817.042	620.416
415.526	17.782	816.691	620.258
416.540	17.725	816.475	619.831
417.555	17.794	815.908	619.598
418.569	17.701	815.421	618.834
419.584	17.917	814.679	619.000
420.599	17.844	814.209	618.324
421.613	104.759	1286.834	1446.404
422.628	90.370	1355.691	1446.498
