DTS Sentinel unit serial number:	SN413079Multiplexer serial number:	ORYXHardware model number:	OX4-SRSoftware version number:	ORYX F/W v4.00 Oryx Data Collector v3.7.2.0data status	okinstallation	princeton_trtdifferential loss correction	single-endedforward channel	channel 1reverse channel	N/Adate	2019/09/11time	09:12:11forward acquisition time	60.00reverse acquisition time	0.00gamma	496.2192k internal	0.2309k external	0.2309temperature offset calibration	0.9950default loss term (dB/km)	0.3790temperature slope calibration	1.0000multiplexer offset coefficient	1.0000multiplexer slope coefficient	1.0000fibre end	0.00T internal ref (°C)	34.31T ext. ref 1 (°C)	0.09T ext. ref 2 (°C)	29.98length (m)	temperature (°C)	Stokes	anti-Stokes-747.200	800.000	-0.103	0.334
-746.185	-200.000	0.028	0.248
-745.171	89.188	0.126	-0.142
-744.156	-101.897	-0.473	-0.116
-743.142	-76.515	-0.173	-0.062
-742.127	-191.724	-0.121	-0.001
-741.112	358.934	-0.140	0.285
-740.098	74.672	0.296	0.316
-739.083	-200.000	-0.029	0.223
-738.069	3.058	-0.188	0.138
-737.054	233.493	0.158	-0.265
-736.039	3.223	-0.210	0.155
-735.025	-27.674	0.293	0.173
-734.010	-9.197	-0.404	0.274
-732.996	79.485	-0.090	0.098
-731.981	-110.238	-0.088	0.019
-730.966	-77.761	-0.282	0.099
-729.952	583.829	-0.065	0.162
-728.937	111.024	-0.021	0.026
-727.923	-138.474	-0.426	0.048
-726.908	-200.000	0.063	-0.303
-725.894	-123.010	0.082	-0.013
-724.879	-200.000	-0.060	-0.408
-723.864	-26.705	-0.355	-0.211
-722.850	-200.000	-0.313	0.000
-721.835	-32.029	-0.223	-0.127
-720.821	-200.000	0.001	-0.061
-719.806	-200.000	0.016	-0.386
-718.791	80.030	-0.199	-0.217
-717.777	-88.632	0.245	0.074
-716.762	63.050	0.042	-0.043
-715.748	94.308	0.192	-0.222
-714.733	77.059	-0.050	0.054
-713.718	40.260	0.143	0.130
-712.704	-17.789	-0.187	-0.119
-711.689	-60.795	-0.080	-0.034
-710.675	45.837	-0.093	-0.087
-709.660	3.356	0.033	-0.025
-708.645	-121.545	0.115	0.019
-707.631	309.271	-0.097	-0.184
-706.616	-127.847	0.116	-0.017
-705.602	-134.787	-0.101	0.012
-704.587	198.076	0.153	0.237
-703.572	-53.403	-0.376	-0.175
-702.558	229.567	-0.126	-0.208
-701.543	267.643	-0.041	0.073
-700.529	65.152	-0.202	0.207
-699.514	-200.000	0.023	-0.172
-698.499	517.315	0.220	0.522
-697.485	447.612	-0.145	-0.324
-696.470	-200.000	0.001	-0.301
-695.456	-8.332	-0.227	0.155
-694.441	800.000	-0.028	-0.077
-693.426	327.900	0.036	-0.070
-692.412	-26.088	0.133	-0.079
-691.397	743.146	-0.074	-0.201
-690.383	20.544	-0.187	-0.153
-689.368	-33.316	-0.165	0.093
-688.354	27.302	-0.189	-0.161
-687.339	-55.560	-0.217	-0.098
-686.324	-17.631	-0.351	-0.224
-685.310	360.442	-0.167	-0.339
-684.295	54.971	-0.188	0.184
-683.281	800.000	-0.083	-0.322
-682.266	3.223	-0.077	0.057
-681.251	47.362	0.217	-0.205
-680.237	-107.139	-0.280	0.063
-679.222	109.097	0.089	-0.108
-678.208	-58.951	-0.171	0.075
-677.193	-168.063	0.243	0.010
-676.178	537.479	-0.063	-0.151
-675.164	-150.046	-0.141	0.011
-674.149	-82.890	-0.187	-0.061
-673.135	358.664	0.089	0.180
-672.120	800.000	-0.158	0.477
-671.105	-114.309	0.178	-0.035
-670.091	85.132	0.077	-0.086
-669.076	5.779	-0.241	-0.180
-668.062	13.085	-0.253	-0.198
-667.047	28.244	0.053	-0.045
-666.032	414.686	-0.054	0.117
-665.018	84.790	0.032	-0.036
-664.003	72.390	-0.164	0.173
-662.989	800.000	0.042	0.122
-661.974	353.599	0.157	0.315
-660.959	86.873	0.167	0.187
-659.945	-200.000	0.016	0.230
-658.930	-104.936	-0.183	0.042
-657.916	194.485	-0.074	-0.113
-656.901	-24.641	0.250	-0.151
-655.886	-90.357	-0.186	0.055
-654.872	-145.606	-0.213	-0.019
-653.857	-25.802	-0.259	-0.155
-652.843	-200.000	-0.011	-0.229
-651.828	2.988	-0.246	0.181
-650.814	751.634	0.077	-0.211
-649.799	-200.000	0.006	-0.033
-648.784	318.647	0.215	-0.412
-647.770	92.595	-0.075	-0.085
-646.755	157.753	-0.199	-0.279
-645.741	-7.583	0.092	-0.063
-644.726	11.683	0.337	-0.262
-643.711	-110.666	-0.207	0.043
-642.697	16.204	-0.074	0.059
-641.682	60.658	-0.127	-0.127
-640.668	-200.000	0.033	-0.180
-639.653	137.933	-0.133	0.176
-638.638	453.478	-0.042	-0.095
-637.624	-49.057	-0.384	-0.186
-636.609	800.000	0.068	-0.238
-635.595	-200.000	-0.007	-0.201
-634.580	-115.408	0.195	-0.037
-633.565	-200.000	0.014	-0.069
-632.551	87.475	-0.098	0.110
-631.536	800.000	-0.027	-0.079
-630.522	-200.000	-0.082	-0.413
-629.507	-200.000	-0.054	-0.304
-628.492	-148.297	0.051	0.004
-627.478	-104.491	-0.120	-0.028
-626.463	-41.785	-0.278	-0.144
-625.449	-26.593	0.418	0.248
-624.434	-45.865	-0.208	-0.104
-623.419	-200.000	-0.053	0.262
-622.405	175.604	0.020	0.030
-621.390	-200.000	0.001	0.265
-620.376	-99.402	-0.292	-0.074
-619.361	-200.000	-0.078	-0.436
-618.346	-158.871	0.153	-0.009
-617.332	-12.170	-0.220	-0.146
-616.317	445.888	-0.092	0.205
-615.303	800.000	-0.035	0.139
-614.288	-70.186	0.060	-0.023
-613.273	-200.000	0.024	-0.193
-612.259	-41.002	-0.173	0.090
-611.244	193.961	0.211	0.323
-610.230	-115.050	-0.263	-0.051
-609.215	-81.789	-0.221	-0.073
-608.201	-85.232	0.244	0.077
-607.186	-200.000	0.047	0.530
-606.171	53.255	0.123	-0.119
-605.157	800.000	-0.180	-0.745
-604.142	101.677	0.118	0.140
-603.128	800.000	0.144	-0.425
-602.113	600.206	-0.101	-0.253
-601.098	-200.000	0.002	-0.220
-600.084	-55.057	-0.234	-0.106
-599.069	166.498	0.163	0.233
-598.055	-20.246	0.059	0.037
-597.040	-200.000	-0.019	-0.107
-596.025	207.494	-0.194	-0.306
-595.011	212.806	0.105	0.168
-593.996	800.000	0.013	0.042
-592.982	89.098	-0.133	-0.149
-591.967	-22.584	-0.120	0.073
-590.952	-31.542	0.136	0.077
-589.938	-200.000	0.037	0.442
-588.923	-108.573	0.456	0.099
-587.909	62.469	0.104	0.105
-586.894	468.558	0.066	0.151
-585.879	-170.643	0.073	-0.003
-584.865	379.977	-0.089	0.184
-583.850	-129.699	0.202	-0.028
-582.836	-144.117	-0.177	-0.017
-581.821	-52.787	-0.216	0.101
-580.806	-38.280	-0.209	0.112
-579.792	-27.171	0.101	-0.060
-578.777	-101.932	0.320	-0.078
-577.763	199.637	-0.257	0.399
-576.748	135.813	-0.194	0.255
-575.733	236.885	0.042	0.071
-574.719	-31.510	0.323	-0.183
-573.704	-200.000	0.072	0.483
-572.690	35.568	0.061	0.054
-571.675	-130.525	-0.143	-0.019
-570.661	-119.493	-0.073	-0.013
-569.646	-108.064	0.223	-0.049
-568.631	-53.045	0.058	-0.027
-567.617	-135.746	-0.231	0.028
-566.602	792.531	0.055	0.153
-565.588	-120.183	-0.381	0.066
-564.573	-100.658	-0.413	-0.103
-563.558	313.423	-0.148	-0.281
-562.544	800.000	0.036	0.115
-561.529	60.854	0.048	0.048
-560.515	-200.000	-0.017	0.274
-559.500	-63.590	0.314	-0.130
-558.485	28.130	0.145	0.124
-557.471	-200.000	0.028	0.186
-556.456	-200.000	-0.005	0.409
-555.442	-200.000	0.003	-0.176
-554.427	-118.342	0.210	0.038
-553.412	106.783	-0.025	0.030
-552.398	780.571	-0.064	0.177
-551.383	68.900	-0.095	-0.098
-550.369	-91.654	-0.023	0.007
-549.354	-162.839	-0.353	0.017
-548.339	25.338	-0.135	0.113
-547.325	289.381	0.188	0.344
-546.310	36.114	0.161	0.143
-545.296	-200.000	0.001	0.014
-544.281	55.659	0.053	-0.052
-543.266	-200.000	0.040	0.264
-542.252	201.728	-0.158	-0.246
-541.237	64.028	-0.094	-0.096
-540.223	-67.556	0.282	0.112
-539.208	-200.000	-0.003	0.097
-538.193	-26.871	-0.040	0.024
-537.179	-200.000	0.053	-0.400
-536.164	52.716	0.050	0.048
-535.150	-15.936	-0.248	-0.159
-534.135	-200.000	-0.011	-0.129
-533.121	-118.425	0.298	0.053
-532.106	-98.834	0.091	0.023
-531.091	183.007	-0.191	-0.285
-530.077	2.555	-0.288	-0.210
-529.062	284.183	0.047	-0.086
-528.048	449.822	-0.129	-0.288
-527.033	-122.061	0.194	0.032
-526.018	743.943	-0.042	-0.115
-525.004	393.918	-0.051	-0.106
-523.989	-111.284	0.171	0.035
-522.975	800.000	-0.047	0.187
-521.960	-62.566	-0.217	-0.091
-520.945	-30.826	-0.214	-0.122
-519.931	-68.879	0.074	0.029
-518.916	-153.428	0.117	-0.008
-517.902	-142.632	-0.163	-0.016
-516.887	-111.462	-0.128	-0.026
-515.872	585.688	0.037	0.092
-514.858	800.000	-0.006	0.019
-513.843	-76.353	-0.057	-0.020
-512.829	86.501	-0.099	-0.110
-511.814	-200.000	0.006	0.056
-510.799	92.043	0.178	-0.202
-509.785	89.711	0.091	-0.102
-508.770	-133.906	-0.406	0.051
-507.756	-0.809	0.107	0.077
-506.741	576.798	-0.051	0.126
-505.726	87.767	0.186	0.208
-504.712	68.717	0.120	-0.124
-503.697	-80.825	0.267	0.089
-502.683	29.851	-0.069	-0.059
-501.668	316.805	-0.099	-0.187
-500.653	10.648	-0.294	-0.226
-499.639	87.950	0.100	-0.111
-498.624	-50.334	0.161	-0.077
-497.610	-200.000	0.004	0.128
-496.595	38.347	0.151	-0.135
-495.581	-200.000	0.047	-0.527
-494.566	-142.918	0.271	-0.026
-493.551	-200.000	-0.044	0.253
-492.537	-200.000	0.007	0.093
-491.522	469.476	-0.035	0.078
-490.508	372.077	0.075	0.152
-489.493	-77.150	-0.079	-0.028
-488.478	93.653	0.077	0.088
-487.464	-134.568	-0.435	0.053
-486.449	89.709	-0.048	-0.054
-485.435	-200.000	0.007	-0.181
-484.420	-200.000	0.059	0.345
-483.405	730.804	0.022	0.060
-482.391	-61.227	0.271	0.115
-481.376	-200.000	-0.007	-0.124
-480.362	-42.933	-0.347	-0.177
-479.347	501.731	0.135	-0.312
-478.332	-200.000	0.029	-0.230
-477.318	6.706	0.086	0.064
-476.303	2.496	-0.180	-0.131
-475.289	44.359	-0.214	0.197
-474.274	-117.144	0.396	0.072
-473.259	63.540	-0.057	-0.057
-472.245	48.682	-0.146	0.138
-471.230	-200.000	0.021	0.125
-470.216	-105.102	0.086	0.020
-469.201	800.000	0.059	-0.217
-468.186	-30.339	-0.156	-0.089
-467.172	-200.000	-0.012	0.142
-466.157	-155.944	-0.076	0.005
-465.143	-200.000	0.030	0.246
-464.128	-118.006	-0.253	0.046
-463.113	-200.000	-0.005	0.025
-462.099	800.000	-0.033	0.122
-461.084	14.757	-0.210	-0.165
-460.070	10.458	-0.106	0.081
-459.055	146.567	-0.100	0.135
-458.040	76.290	0.071	-0.075
-457.026	-200.000	-0.052	-0.400
-456.011	-200.000	0.037	-0.180
-454.997	37.731	-0.099	0.088
-453.982	218.748	0.041	0.065
-452.968	-200.000	-0.088	0.395
-451.953	-134.429	0.175	0.021
-450.938	34.460	0.173	-0.152
-449.924	-11.570	0.027	-0.018
-448.909	23.072	0.148	-0.122
-447.895	-32.991	-0.194	0.108
-446.880	68.286	0.101	-0.104
-445.865	-200.000	0.036	-0.165
-444.851	-191.625	-0.416	-0.004
-443.836	239.694	0.098	-0.164
-442.822	800.000	-0.096	-0.395
-441.807	-64.861	-0.134	0.054
-440.792	-200.000	-0.032	0.237
-439.778	-200.000	-0.007	-0.089
-438.763	-29.574	0.050	0.029
-437.749	321.556	-0.079	0.151
-436.734	800.000	0.078	-0.264
-435.719	8.668	0.020	0.015
-434.705	185.281	-0.171	-0.254
-433.690	-200.000	-0.000	-0.220
-432.676	22.353	-0.232	-0.190
-431.661	-115.161	0.302	0.057
-430.646	177.006	-0.205	0.299
-429.632	800.000	0.052	-0.146
-428.617	800.000	-0.040	-0.152
-427.603	800.000	-0.024	0.090
-426.588	295.176	-0.086	0.159
-425.573	38.550	-0.126	-0.113
-424.559	473.590	-0.101	0.228
-423.544	800.000	-0.053	-0.178
-422.530	27.973	0.144	-0.122
-421.515	-165.935	-0.402	-0.017
-420.500	54.644	0.188	-0.182
-419.486	-0.526	0.064	-0.045
-418.471	-200.000	-0.040	0.292
-417.457	-109.371	0.147	0.031
-416.442	-123.406	0.187	-0.030
-415.428	-37.586	0.117	-0.063
-414.413	-200.000	-0.054	0.346
-413.398	81.733	-0.124	0.134
-412.384	-200.000	0.016	-0.219
-411.369	308.492	0.105	0.197
-410.355	160.294	-0.218	-0.305
-409.340	280.319	0.043	0.076
-408.325	800.000	-0.079	-0.235
-407.311	-121.552	0.218	0.036
-406.296	104.243	0.126	-0.149
-405.282	-200.000	0.024	-0.158
-404.267	-120.846	-0.168	-0.028
-403.252	-6.903	0.176	0.120
-402.238	-147.046	-0.278	-0.024
-401.223	52.104	0.094	-0.090
-400.209	119.333	0.062	-0.077
-399.194	-84.172	-0.269	-0.086
-398.179	-134.266	0.208	-0.026
-397.165	737.706	-0.083	0.222
-396.150	-108.778	-0.553	-0.119
-395.136	-185.807	0.127	0.002
-394.121	147.563	-0.164	-0.221
-393.106	647.203	0.065	-0.166
-392.092	123.408	0.172	0.216
-391.077	-35.118	-0.048	-0.026
-390.063	405.634	-0.066	0.140
-389.048	-5.748	-0.132	-0.091
-388.033	-14.056	-0.304	-0.196
-387.019	-84.922	-0.134	0.042
-386.004	-166.071	0.119	-0.005
-384.990	-119.045	0.172	-0.030
-383.975	304.106	0.068	0.126
-382.960	-116.174	-0.143	-0.027
-381.946	-200.000	-0.025	0.186
-380.931	-155.605	0.019	-0.001
-379.917	67.015	0.265	-0.270
-378.902	-30.140	0.158	-0.090
-377.888	-200.000	-0.019	0.151
-376.873	-11.731	0.146	0.096
-375.858	-49.612	0.186	-0.088
-374.844	800.000	-0.033	0.122
-373.829	-195.742	0.246	0.002
-372.815	-200.000	-0.055	0.245
-371.800	-67.461	0.220	0.086
-370.785	-67.481	-0.161	0.063
-369.771	-61.002	0.358	0.152
-368.756	-24.850	-0.151	-0.090
-367.742	-102.233	-0.268	0.064
-366.727	226.069	0.077	-0.125
-365.712	-200.000	-0.016	0.152
-364.698	-167.804	-0.080	-0.003
-363.683	800.000	0.068	0.214
-362.669	800.000	0.057	0.225
-361.654	-26.147	-0.108	-0.064
-360.639	55.183	-0.236	0.229
-359.625	-200.000	0.026	0.256
-358.610	-200.000	0.014	0.121
-357.596	121.701	-0.226	0.283
-356.581	108.230	0.122	0.146
-355.566	-33.495	0.165	-0.091
-354.552	165.734	0.235	0.332
-353.537	184.694	-0.155	-0.229
-352.523	-12.080	0.169	0.111
-351.508	132.040	0.185	-0.239
-350.493	434.691	-0.064	-0.139
-349.479	70.868	0.142	0.147
-348.464	-84.018	0.201	0.064
-347.450	-156.076	0.307	0.019
-346.435	800.000	0.092	0.272
-345.420	179.338	0.196	0.287
-344.406	-200.000	-0.079	0.379
-343.391	262.096	0.075	0.131
-342.377	-17.669	-0.172	0.108
-341.362	-28.810	0.146	0.084
-340.348	-156.393	-0.094	0.006
-339.333	-84.477	0.094	-0.030
-338.318	-67.621	0.286	0.112
-337.304	-200.000	-0.006	0.296
-336.289	-166.611	0.060	0.002
-335.275	108.079	-0.168	-0.200
-334.260	-24.539	0.101	0.060
-333.245	-200.000	0.034	0.263
-332.231	-74.868	-0.310	0.111
-331.216	-200.000	-0.011	-0.062
-330.202	-200.000	-0.003	-0.152
-329.187	800.000	0.032	-0.118
-328.172	249.848	-0.070	-0.119
-327.158	70.220	-0.262	0.271
-326.143	-87.348	-0.156	0.047
-325.129	-23.572	0.044	0.027
-324.114	-110.205	-0.345	0.072
-323.099	-73.189	-0.229	0.084
-322.085	398.255	-0.040	-0.083
-321.070	800.000	-0.087	-0.249
-320.056	-96.365	-0.171	-0.045
-319.041	-104.734	0.336	-0.077
-318.026	-83.153	0.259	0.083
-317.012	-123.504	0.248	0.039
-315.997	-200.000	0.019	0.133
-314.983	-86.389	0.131	0.040
-313.968	-200.000	-0.007	-0.287
-312.953	-141.703	0.223	-0.022
-311.939	437.418	0.088	0.191
-310.924	-29.097	-0.223	-0.128
-309.910	800.000	-0.060	-0.218
-308.895	578.058	0.059	0.144
-307.880	118.833	0.056	0.069
-306.866	674.545	-0.122	0.315
-305.851	98.971	-0.169	-0.195
-304.837	70.148	-0.130	-0.134
-303.822	-88.907	0.021	-0.006
-302.807	24.374	0.191	0.158
-301.793	-9.262	0.296	-0.198
-300.778	800.000	0.040	0.157
-299.764	800.000	0.035	0.105
-298.749	500.626	-0.060	0.138
-297.735	-78.621	0.240	0.082
-296.720	523.023	0.042	-0.098
-295.705	45.263	0.216	-0.199
-294.691	59.568	0.080	-0.079
-293.676	352.700	0.145	-0.287
-292.662	123.050	0.226	0.283
-291.647	86.627	-0.234	0.257
-290.632	-56.717	-0.139	-0.062
-289.618	84.909	-0.280	-0.306
-288.603	-81.865	-0.266	-0.087
-287.589	64.722	-0.138	0.139
-286.574	8.316	0.192	0.144
-285.559	52.221	0.168	0.160
-284.545	-67.569	-0.109	-0.043
-283.530	-90.417	0.113	-0.033
-282.516	64.558	0.042	-0.042
-281.501	-200.000	0.029	0.224
-280.486	56.596	-0.176	-0.171
-279.472	31.548	0.091	0.078
-278.457	-28.690	0.112	-0.064
-277.443	503.307	-0.051	-0.119
-276.428	-60.906	-0.106	0.045
-275.413	-200.000	-0.005	-0.128
-274.399	800.000	0.049	0.163
-273.384	12.372	-0.069	0.053
-272.370	-27.490	-0.045	-0.026
-271.355	800.000	0.051	0.178
-270.340	-200.000	0.018	0.163
-269.326	-191.890	-0.308	-0.003
-268.311	-175.344	0.163	-0.004
-267.297	-69.344	-0.244	-0.093
-266.282	-91.950	0.138	-0.039
-265.267	-125.434	0.113	-0.017
-264.253	-200.000	-0.046	0.255
-263.238	392.246	0.122	0.252
-262.224	-143.830	0.456	-0.043
-261.209	103.771	-0.141	-0.165
-260.195	765.872	0.112	-0.302
-259.180	-200.000	0.006	0.051
-258.165	-90.037	-0.257	-0.075
-257.151	800.000	-0.031	0.103
-256.136	47.398	0.088	-0.082
-255.122	800.000	0.032	0.098
-254.107	-59.860	0.286	-0.122
-253.092	800.000	0.048	0.137
-252.078	800.000	-0.054	-0.163
-251.063	279.099	-0.031	0.055
-250.049	-200.000	0.008	0.096
-249.034	145.422	0.240	-0.320
-248.019	-200.000	-0.346	-0.000
-247.005	-53.808	0.165	-0.075
-245.990	-86.728	0.108	-0.033
-244.976	116.305	0.107	-0.130
-243.961	45.362	-0.270	-0.248
-242.946	-144.743	-0.164	-0.015
-241.932	-88.276	0.176	-0.052
-240.917	-200.000	-0.003	0.223
-239.903	-74.777	-0.134	0.048
-238.888	32.979	-0.040	-0.035
-237.873	-25.543	-0.174	-0.103
-236.859	-200.000	0.053	-0.402
-235.844	-13.251	0.066	-0.043
-234.830	60.835	-0.184	-0.182
-233.815	-53.162	-0.088	-0.040
-232.800	-200.000	-0.003	-0.146
-231.786	98.901	-0.048	0.055
-230.771	131.331	-0.103	0.132
-229.757	-85.006	-0.196	0.061
-228.742	188.962	0.108	0.161
-227.727	-176.738	-0.158	-0.004
-226.713	69.634	-0.275	-0.282
-225.698	3.016	-0.079	-0.057
-224.684	-157.127	0.222	0.013
-223.669	-200.000	0.000	-0.085
-222.655	207.946	0.120	0.186
-221.640	615.498	0.034	0.084
-220.625	-200.000	0.003	-0.157
-219.611	-200.000	0.072	-0.404
-218.596	-150.199	0.420	-0.032
-217.582	416.045	0.176	-0.373
-216.567	-60.201	-0.091	-0.039
-215.552	-111.376	0.138	-0.028
-214.538	28.839	-0.186	-0.157
-213.523	438.252	-0.106	0.230
-212.509	-200.000	0.057	0.288
-211.494	-58.813	0.170	-0.073
-210.479	73.740	0.322	0.336
-209.465	93.819	-0.066	-0.074
-208.450	-18.912	0.275	-0.170
-207.436	-200.000	-0.004	-0.199
-206.421	800.000	-0.014	0.058
-205.406	11.130	0.115	0.087
-204.392	-200.000	0.020	0.223
-203.377	-160.277	0.149	0.008
-202.363	-200.000	0.010	0.049
-201.348	-86.601	-0.157	-0.048
-200.333	368.591	-0.057	-0.115
-199.319	-200.000	0.001	0.149
-198.304	-21.980	0.090	0.054
-197.290	292.568	0.035	-0.063
-196.275	21.272	-0.147	-0.119
-195.260	800.000	0.086	-0.267
-194.246	115.681	0.132	-0.160
-193.231	-24.922	-0.082	0.049
-192.217	-101.113	0.083	0.020
-191.202	-78.013	-0.328	-0.113
-190.187	209.078	-0.067	0.104
-189.173	-58.436	0.153	0.066
-188.158	116.964	-0.057	0.070
-187.144	-74.619	-0.129	-0.046
-186.129	161.835	0.149	-0.208
-185.114	800.000	-0.037	0.142
-184.100	-0.699	-0.260	0.183
-183.085	183.204	-0.117	0.171
-182.071	-13.309	0.082	0.053
-181.056	-115.921	0.153	0.028
-180.042	-200.000	0.052	-0.243
-179.027	-89.757	-0.226	-0.066
-178.012	-167.165	-0.074	-0.003
-176.998	-42.114	0.165	0.084
-175.983	-51.139	0.330	0.154
-174.969	-90.777	0.215	-0.062
-173.954	-200.000	0.039	-0.222
-172.939	123.191	-0.129	-0.161
-171.925	-72.847	0.297	-0.108
-170.910	800.000	-0.035	-0.127
-169.896	771.952	0.109	0.296
-168.881	50.484	-0.088	0.082
-167.866	78.057	-0.102	-0.108
-166.852	320.002	0.127	0.239
-165.837	800.000	0.083	0.343
-164.823	-36.309	0.366	0.196
-163.808	-7.938	0.094	-0.063
-162.793	800.000	0.018	0.061
-161.779	238.888	0.184	0.304
-160.764	-44.576	0.253	-0.125
-159.750	800.000	0.063	0.254
-158.735	-200.000	0.005	0.309
-157.720	60.831	-0.143	0.140
-156.706	-200.000	0.064	0.340
-155.691	-35.858	0.134	-0.072
-154.677	199.439	-0.123	0.187
-153.662	52.389	-0.201	-0.190
-152.647	104.817	-0.046	-0.053
-151.633	-29.182	-0.234	0.133
-150.618	97.514	0.059	-0.067
-149.604	9.179	0.082	0.061
-148.589	427.222	0.223	0.479
-147.574	368.364	-0.043	0.087
-146.560	43.920	-0.271	0.247
-145.545	-200.000	-0.033	-0.179
-144.531	542.257	0.107	0.252
-143.516	-174.127	-0.150	-0.004
-142.502	-159.240	0.168	-0.009
-141.487	-200.000	0.042	0.294
-140.472	-97.981	0.142	0.036
-139.458	-200.000	-0.003	0.214
-138.443	1.253	-0.292	-0.208
-137.429	-10.132	-0.204	0.134
-136.414	800.000	-0.053	0.185
-135.399	221.162	0.137	-0.218
-134.385	149.929	-0.093	-0.126
-133.370	-91.873	-0.140	-0.039
-132.356	-16.956	-0.352	-0.221
-131.341	-127.332	0.263	-0.038
-130.326	-200.000	-0.005	-0.140
-129.312	64.672	-0.277	-0.277
-128.297	25.074	0.077	-0.063
-127.283	-78.992	-0.463	0.156
-126.268	72.647	0.118	-0.122
-125.253	64.061	-0.074	-0.074
-124.239	-68.160	0.119	-0.046
-123.224	800.000	0.097	0.296
-122.210	800.000	-0.125	-0.406
-121.195	360.537	-0.223	-0.443
-120.180	63.798	-0.103	-0.102
-119.166	484.002	0.161	-0.363
-118.151	-94.358	-0.325	-0.088
-117.137	65.933	0.153	-0.154
-116.122	-52.120	0.315	-0.145
-115.107	148.558	0.160	0.214
-114.093	-125.777	-0.274	-0.041
-113.078	-79.132	-0.136	0.046
-112.064	-51.215	0.323	0.150
-111.049	-76.843	-0.300	-0.104
-110.034	633.420	-0.060	-0.151
-109.020	-200.000	-0.014	0.138
-108.005	679.688	-0.062	0.160
-106.991	214.560	0.152	0.238
-105.976	-124.440	0.166	0.026
-104.962	-200.000	0.030	-0.263
-103.947	565.701	-0.050	0.120
-102.932	-200.000	-0.003	-0.044
-101.918	77.867	-0.080	0.085
-100.903	800.000	-0.105	0.359
-99.889	26.761	0.096	0.080
-98.874	-7.914	0.148	-0.099
-97.859	-97.775	0.167	0.043
-96.845	-200.000	0.016	0.111
-95.830	-52.133	-0.132	-0.061
-94.816	51.935	-0.072	0.068
-93.801	762.457	-0.032	0.087
-92.786	108.699	0.207	0.244
-91.772	36.182	-0.137	-0.120
-90.757	-126.774	-0.143	-0.021
-89.743	487.617	0.091	0.206
-88.728	623.337	-0.121	0.302
-87.713	-43.712	0.253	-0.126
-86.699	-21.467	0.180	0.109
-85.684	181.753	-0.024	0.036
-84.670	57.207	0.203	-0.196
-83.655	15.542	0.193	0.150
-82.640	-127.130	-0.167	-0.024
-81.626	94.382	0.035	-0.040
-80.611	-192.324	-0.178	-0.002
-79.597	209.500	-0.042	0.065
-78.582	16.932	-0.003	0.002
-77.567	768.389	-0.044	-0.120
-76.553	800.000	0.044	-0.183
-75.538	45.182	-0.161	0.147
-74.524	172.582	0.061	-0.087
-73.509	-42.446	-0.118	-0.059
-72.494	-200.000	0.005	0.089
-71.480	-90.951	-0.321	-0.091
-70.465	-40.876	0.302	0.154
-69.451	34.878	0.300	-0.260
-68.436	55.496	0.203	-0.194
-67.422	-200.000	0.020	0.109
-66.407	223.122	0.152	0.242
-65.392	-32.420	0.024	0.013
-64.378	483.203	-0.055	-0.124
-63.363	-17.783	0.572	0.355
-62.349	-38.309	-0.303	-0.159
-61.334	23.235	-0.977	-0.794
-60.319	800.000	0.130	0.486
-59.305	628.332	-0.368	-0.921
-58.290	83.084	0.805	0.867
-57.276	800.000	0.451	1.510
-56.261	-200.000	97.837	547.579
-55.246	582.263	1396.459	3388.085
-54.232	182.902	2631.578	3841.583
-53.217	118.112	2203.591	2686.322
-52.203	45.977	1648.981	1509.121
-51.188	37.925	1381.609	1214.499
-50.173	34.578	1338.577	1156.388
-49.159	55.283	1388.737	1328.041
-48.144	59.246	1405.631	1368.577
-47.130	38.102	1360.211	1196.586
-46.115	34.538	1341.782	1158.731
-45.100	34.197	1337.485	1152.910
-44.086	34.210	1335.009	1150.805
-43.071	34.155	1332.587	1148.339
-42.057	34.156	1330.608	1146.595
-41.042	34.173	1328.704	1145.015
-40.027	34.239	1327.279	1144.135
-39.013	34.189	1325.135	1141.943
-37.998	34.301	1322.624	1140.404
-36.984	34.282	1321.582	1139.345
-35.969	34.205	1319.817	1137.320
-34.954	34.273	1317.915	1136.040
-33.940	34.371	1315.908	1134.849
-32.925	34.405	1314.647	1133.919
-31.911	34.380	1313.115	1132.401
-30.896	34.318	1312.305	1131.294
-29.881	34.405	1310.317	1130.052
-28.867	34.399	1309.377	1129.162
-27.852	34.357	1308.023	1127.695
-26.838	34.515	1306.172	1126.988
-25.823	34.461	1304.642	1125.304
-24.809	34.478	1303.447	1124.330
-23.794	34.361	1302.389	1122.683
-22.779	34.515	1300.700	1122.090
-21.765	34.425	1299.817	1120.759
-20.750	34.308	1298.478	1118.870
-19.736	34.241	1297.198	1117.331
-18.721	34.169	1296.012	1115.844
-17.706	34.261	1294.553	1115.078
-16.692	34.360	1292.870	1114.163
-15.677	34.328	1292.073	1113.247
-14.663	34.343	1290.650	1112.063
-13.648	34.291	1289.665	1110.866
-12.633	34.263	1288.526	1109.678
-11.619	34.228	1287.697	1108.717
-10.604	34.260	1286.779	1108.067
-9.590	34.323	1285.717	1107.478
-8.575	34.112	1285.246	1105.804
-7.560	34.272	1283.839	1105.478
-6.546	34.293	1283.026	1104.851
-5.531	34.162	1282.386	1103.501
-4.517	34.104	1281.832	1102.642
-3.502	34.209	1280.795	1102.317
-2.487	34.237	1279.649	1101.448
-1.473	34.220	1275.708	1097.911
-0.458	33.046	1260.718	1078.276
0.556	27.757	1242.331	1039.455
1.571	24.414	1248.407	1025.274
2.586	23.596	1264.260	1033.444
3.600	22.829	1252.649	1019.434
4.615	15.925	1176.272	919.622
5.629	5.040	1095.987	801.123
6.644	0.387	1074.451	761.841
7.659	0.006	1071.639	757.858
8.673	0.015	1069.828	756.555
9.688	-0.027	1068.407	755.274
10.702	0.473	1067.882	757.346
11.717	7.282	1078.151	798.978
12.731	17.349	1092.684	860.883
13.746	21.441	1097.345	885.234
14.761	21.994	1097.397	887.996
15.775	21.951	1096.629	887.077
16.790	21.681	1095.784	884.949
17.804	21.469	1095.989	883.965
18.819	21.706	1094.854	884.169
19.834	21.791	1094.619	884.329
20.848	21.859	1094.434	884.446
21.863	21.812	1093.735	883.568
22.877	21.770	1092.770	882.496
23.892	21.577	1092.844	881.506
24.907	21.809	1091.355	881.392
25.921	21.712	1090.617	880.231
26.936	21.742	1088.763	878.809
27.950	21.779	1087.334	877.764
28.965	21.529	1085.836	875.228
29.980	21.528	1084.324	873.925
30.994	21.812	1083.085	874.266
32.009	21.767	1082.034	873.113
33.023	21.542	1080.985	871.074
34.038	21.702	1080.317	871.252
35.053	21.844	1079.603	871.308
36.067	21.810	1078.501	870.171
37.082	21.916	1078.448	870.577
38.096	21.952	1077.478	869.895
39.111	22.035	1076.269	869.251
40.126	21.869	1074.878	867.231
41.140	21.710	1073.066	864.908
42.155	21.439	1071.610	862.324
43.169	21.443	1070.468	861.345
44.184	21.471	1069.877	860.933
45.199	21.445	1068.596	859.699
46.213	21.500	1067.825	859.272
47.228	21.501	1067.264	858.751
48.242	21.592	1066.079	858.166
49.257	21.775	1065.212	858.288
50.271	21.879	1064.540	858.177
51.286	21.839	1063.744	857.267
52.301	21.814	1062.862	856.357
53.315	21.872	1061.130	855.168
54.330	21.816	1060.528	854.334
55.344	21.660	1060.205	853.240
56.359	21.597	1058.904	851.810
57.374	21.594	1058.005	850.998
58.388	21.663	1057.176	850.589
59.403	21.494	1056.136	848.860
60.417	21.349	1055.351	847.449
61.432	21.520	1054.706	847.684
62.447	21.640	1054.154	847.745
63.461	21.470	1053.687	846.476
64.476	21.573	1052.193	845.697
65.490	21.440	1051.152	844.145
66.505	21.593	1050.727	844.468
67.520	21.574	1049.825	843.576
68.534	21.309	1048.858	841.445
69.549	21.054	1047.827	839.318
70.563	21.144	1046.867	838.910
71.578	21.091	1046.314	838.136
72.593	20.999	1044.905	836.492
73.607	21.052	1044.724	836.528
74.622	21.344	1044.350	837.553
75.636	21.388	1043.512	837.018
76.651	21.236	1042.536	835.435
77.666	21.227	1041.526	834.506
78.680	21.300	1040.881	834.263
79.695	21.269	1040.809	833.985
80.709	21.241	1040.381	833.435
81.724	21.408	1038.684	832.798
82.739	21.463	1038.044	832.471
83.753	21.794	1037.291	833.370
84.768	22.094	1036.603	834.165
85.782	22.262	1035.449	833.960
86.797	21.980	1034.529	831.812
87.812	21.835	1034.019	830.642
88.826	22.001	1032.445	830.089
89.841	22.037	1031.528	829.446
90.855	22.092	1030.532	828.830
91.870	21.968	1029.934	827.692
92.884	21.981	1028.577	826.592
93.899	21.768	1028.067	825.103
94.914	22.003	1027.037	825.311
95.928	21.773	1025.993	823.320
96.943	21.601	1024.864	821.531
97.957	21.417	1023.269	819.319
98.972	21.339	1021.974	817.845
99.987	21.378	1021.867	817.871
101.001	21.769	1020.795	818.764
102.016	21.739	1020.427	818.257
103.030	21.484	1019.448	816.211
104.045	21.437	1018.137	814.870
105.060	21.288	1017.075	813.255
106.074	21.556	1016.304	813.811
107.089	21.883	1015.763	814.826
108.103	21.742	1014.909	813.416
109.118	21.624	1013.257	811.473
110.133	21.636	1012.191	810.604
111.147	21.404	1011.153	808.626
112.162	21.249	1009.988	806.906
113.176	21.436	1009.498	807.309
114.191	21.388	1008.594	806.291
115.206	21.061	1007.727	804.023
116.220	21.194	1006.444	803.537
117.235	21.326	1005.738	803.511
118.249	21.213	1004.808	802.178
119.264	21.182	1004.216	801.489
120.279	21.132	1003.598	800.698
121.293	21.293	1002.908	800.814
122.308	21.320	1001.575	799.801
123.322	21.365	999.781	798.506
124.337	21.059	999.063	796.463
125.352	20.543	997.704	792.958
126.366	20.676	995.896	792.056
127.381	21.238	996.136	794.733
128.395	21.638	995.752	796.175
129.410	21.783	994.826	796.026
130.424	21.780	993.759	795.086
131.439	21.761	992.569	793.978
132.454	21.808	992.118	793.758
133.468	21.596	991.571	792.293
134.483	21.820	990.133	792.084
135.497	21.923	989.615	792.064
136.512	22.151	988.334	791.996
137.527	21.954	987.582	790.439
138.541	22.050	987.003	790.336
139.556	22.101	986.065	789.743
140.570	22.024	985.565	788.929
141.585	22.003	984.570	787.971
142.600	21.931	982.904	786.242
143.614	22.276	982.348	787.271
144.629	22.230	981.897	786.636
145.643	22.094	980.646	784.956
146.658	21.965	978.823	782.852
147.673	21.837	978.200	781.717
148.687	21.841	977.454	781.065
149.702	21.753	975.976	779.426
150.716	21.698	975.287	778.564
151.731	21.812	974.825	778.630
152.746	22.089	974.340	779.404
153.760	22.132	973.114	778.545
154.775	22.097	972.753	778.033
155.789	22.120	971.753	777.265
156.804	22.050	971.020	776.303
157.819	22.216	970.162	776.280
158.833	22.126	969.343	775.159
159.848	22.131	968.631	774.539
160.862	21.992	967.251	772.756
161.877	22.184	965.827	772.395
162.892	22.128	965.254	771.622
163.906	22.016	964.015	770.075
164.921	21.921	963.529	769.202
165.935	22.024	962.575	768.822
166.950	22.114	961.415	768.223
167.964	22.229	960.381	767.830
168.979	22.039	959.546	766.264
169.994	22.041	958.675	765.508
171.008	22.120	958.428	765.588
172.023	22.229	957.259	765.063
173.037	21.873	956.515	762.852
174.052	21.884	954.955	761.588
175.067	21.797	954.697	760.938
176.081	21.981	953.765	760.926
177.096	21.860	953.409	760.047
178.110	21.673	952.158	758.173
179.125	21.468	951.524	756.716
180.140	21.485	951.477	756.686
181.154	21.652	951.028	756.982
182.169	21.875	950.830	757.721
183.183	22.066	950.616	758.308
184.198	22.083	949.439	757.376
185.213	22.167	948.294	756.758
186.227	22.161	947.579	756.096
187.242	22.233	947.131	755.978
188.256	22.110	946.797	755.116
189.271	22.227	945.951	754.878
190.286	22.015	944.489	752.738
191.300	21.342	943.440	748.951
192.315	20.528	941.947	744.214
193.329	20.580	941.203	743.783
194.344	21.502	941.521	747.913
195.359	21.912	941.584	749.650
196.373	22.172	940.657	749.956
197.388	22.047	940.078	748.892
198.402	21.918	939.769	748.029
199.417	22.071	939.022	748.023
200.432	21.839	937.580	745.822
201.446	21.625	936.996	744.382
202.461	21.590	936.727	743.950
203.475	20.773	934.905	738.975
204.490	20.148	933.454	735.109
205.504	21.045	933.990	739.271
206.519	21.678	933.617	741.593
207.534	21.695	933.408	741.434
208.548	22.078	933.531	743.083
209.563	21.663	932.456	740.410
210.577	21.745	931.595	740.007
211.592	22.232	930.839	741.395
212.607	22.197	930.339	740.782
213.621	22.221	929.374	740.052
214.636	22.305	928.653	739.766
215.650	21.999	928.307	738.136
216.665	22.260	927.896	738.842
217.680	22.144	926.925	737.514
218.694	21.663	925.682	734.446
219.709	21.609	924.712	733.383
220.723	21.975	924.215	734.459
221.738	22.047	923.925	734.463
222.753	21.931	923.631	733.678
223.767	22.171	922.757	733.923
224.782	22.312	922.180	733.989
225.796	22.357	921.769	733.782
226.811	21.606	920.262	729.389
227.826	20.988	918.984	725.742
228.840	21.175	918.608	726.157
229.855	21.270	917.900	725.929
230.869	20.902	916.426	723.174
231.884	21.295	916.766	725.007
232.899	22.054	917.311	728.523
233.913	22.043	915.756	727.181
234.928	21.885	915.640	726.371
235.942	21.879	915.065	725.824
236.957	21.686	913.945	724.073
237.972	21.620	913.283	723.212
238.986	21.673	912.736	722.933
240.001	21.721	912.100	722.564
241.015	21.825	911.597	722.530
242.030	21.979	910.945	722.582
243.045	21.977	910.609	722.246
244.059	22.092	910.209	722.339
245.074	21.972	909.270	721.036
246.088	21.634	908.185	718.724
247.103	21.848	908.049	719.430
248.117	22.556	907.644	721.947
249.132	22.726	907.292	722.299
250.147	22.762	906.796	721.987
251.161	22.832	906.447	721.933
252.176	22.813	905.437	720.985
253.190	22.864	905.195	720.938
254.205	23.066	904.661	721.273
255.220	23.025	904.024	720.535
256.234	23.019	902.772	719.447
257.249	22.828	902.092	718.065
258.263	22.828	901.474	717.510
259.278	22.879	901.000	717.277
260.293	22.924	900.189	716.751
261.307	22.751	899.687	715.588
262.322	22.678	898.611	714.371
263.336	21.801	896.748	709.279
264.351	20.855	894.442	703.575
265.366	20.964	894.615	704.091
266.380	21.903	895.493	708.512
267.395	22.520	894.921	710.486
268.409	22.507	893.871	709.537
269.424	22.564	893.913	709.736
270.439	22.674	892.778	709.215
271.453	22.832	892.067	709.222
272.468	22.886	892.389	709.635
273.482	23.010	891.645	709.477
274.497	22.542	890.333	706.494
275.512	22.337	889.202	704.711
276.526	22.600	889.760	706.146
277.541	22.786	889.416	706.558
278.555	22.507	888.411	704.578
279.570	22.491	886.840	703.207
280.585	22.614	886.605	703.448
281.599	22.415	885.922	702.050
282.614	21.943	884.478	698.966
283.628	21.941	884.179	698.660
284.643	22.308	883.968	699.891
285.657	22.005	882.616	697.553
286.672	21.651	881.835	695.472
287.687	22.306	881.911	698.068
288.701	22.378	881.233	697.755
289.716	22.050	880.569	695.870
290.730	21.802	879.911	694.306
291.745	21.726	878.617	692.922
292.760	21.923	878.873	693.840
293.774	22.871	879.170	697.764
294.789	23.248	878.774	698.875
295.803	23.235	878.301	698.387
296.818	23.433	877.377	698.370
297.833	22.827	876.081	694.893
298.847	22.632	875.359	693.492
299.862	23.109	875.310	695.265
300.876	23.334	874.974	695.822
301.891	23.192	874.174	694.568
302.906	22.619	873.225	691.506
303.920	22.871	873.288	692.480
304.935	23.215	872.486	693.131
305.949	23.225	871.790	692.555
306.964	22.988	871.213	691.110
307.979	23.046	870.633	690.816
308.993	23.330	870.615	691.851
310.008	23.149	870.519	691.005
311.022	23.060	869.108	689.478
312.037	23.003	868.212	688.482
313.052	22.793	867.403	686.965
314.066	21.873	866.039	682.244
315.081	21.609	865.011	680.351
316.095	22.437	865.811	684.139
317.110	22.902	865.454	685.601
318.125	22.073	864.233	681.357
319.139	21.152	862.299	676.207
320.154	21.033	862.010	675.458
321.168	21.994	862.432	679.451
322.183	22.646	862.725	682.147
323.197	22.691	862.213	681.856
324.212	22.927	862.200	682.697
325.227	23.045	861.186	682.289
326.241	22.965	860.169	681.112
327.256	22.827	859.681	680.135
328.270	22.628	859.443	679.121
329.285	22.512	858.062	677.522
330.300	22.447	857.277	676.594
331.314	22.581	857.081	676.894
332.329	23.048	856.927	678.504
333.343	23.328	856.447	679.139
334.358	23.080	856.175	677.911
335.373	23.232	855.725	678.077
336.387	23.370	855.830	678.628
337.402	23.452	855.534	678.647
338.416	23.402	855.337	678.240
339.431	23.493	855.191	678.412
340.446	23.642	854.698	678.532
341.460	23.513	853.815	677.278
342.475	23.476	853.343	676.702
343.489	23.450	853.181	676.414
344.504	23.586	852.627	676.436
345.519	23.778	852.738	677.196
346.533	23.917	851.902	676.999
347.548	23.960	851.560	676.832
348.562	23.880	850.772	675.843
349.577	23.815	849.962	674.893
350.592	23.796	849.769	674.606
351.606	23.931	848.708	674.218
352.621	23.830	847.479	672.797
353.635	23.574	847.110	671.478
354.650	23.035	845.507	668.109
355.665	22.127	843.887	663.346
356.679	22.482	844.126	664.815
357.694	22.975	843.263	665.936
358.708	22.761	842.903	664.786
359.723	23.228	843.188	666.710
360.738	23.525	842.661	667.350
361.752	23.564	841.975	666.896
362.767	23.900	841.961	668.088
363.781	23.969	841.779	668.145
364.796	24.251	841.082	668.589
365.810	24.172	840.601	667.852
366.825	24.035	840.680	667.343
367.840	23.818	839.412	665.463
368.854	23.315	838.537	662.828
369.869	23.587	837.962	663.333
370.883	23.754	837.615	663.626
371.898	23.534	836.957	662.225
372.913	23.627	836.766	662.360
373.927	23.549	836.470	661.778
374.942	23.909	836.000	662.687
375.956	23.862	835.927	662.396
376.971	24.128	835.476	662.972
377.986	24.194	834.807	662.626
379.000	24.213	833.999	661.996
380.015	23.950	833.671	660.701
381.029	24.097	833.134	660.762
382.044	24.254	832.704	660.946
383.059	24.267	831.812	660.228
384.073	24.145	831.615	659.562
385.088	24.077	831.133	658.869
386.102	23.889	830.158	657.342
387.117	23.804	829.865	656.736
388.132	23.489	828.272	654.257
389.146	23.120	827.529	652.253
390.161	23.572	827.348	653.717
391.175	23.868	827.161	654.604
392.190	23.742	825.689	652.917
393.205	22.285	823.855	646.061
394.219	20.863	822.306	639.571
395.234	20.864	821.970	639.259
396.248	22.349	823.470	645.822
397.263	23.748	824.356	651.595
398.278	23.782	823.879	651.286
399.292	23.733	823.205	650.514
400.307	23.558	822.893	649.570
401.321	23.720	822.385	649.705
402.336	24.015	822.280	650.643
403.350	24.423	822.002	651.856
404.365	24.690	821.885	652.682
405.380	24.951	821.462	653.239
406.394	24.842	821.255	652.619
407.409	24.754	820.838	651.910
408.423	24.645	820.484	651.174
409.438	24.958	819.380	651.377
410.453	25.001	819.141	651.286
411.467	24.818	818.978	650.435
412.482	24.924	818.388	650.293
413.496	24.897	818.398	650.146
414.511	25.025	817.669	649.973
415.526	24.927	817.079	649.092
416.540	24.813	816.489	648.152
417.555	24.516	815.848	646.510
418.569	24.560	815.297	646.178
419.584	24.638	814.772	645.984
420.599	24.273	814.151	644.117
421.613	154.305	1365.587	1794.557
422.628	134.291	1445.921	1794.648
