DTS Sentinel unit serial number:	SN413079Multiplexer serial number:	ORYXHardware model number:	OX4-SRSoftware version number:	ORYX F/W v4.00 Oryx Data Collector v3.7.2.0data status	okinstallation	princeton_trtdifferential loss correction	single-endedforward channel	channel 1reverse channel	N/Adate	2019/09/11time	06:24:11forward acquisition time	60.00reverse acquisition time	0.00gamma	496.2192k internal	0.2331k external	0.2331temperature offset calibration	0.9918default loss term (dB/km)	0.3790temperature slope calibration	1.0000multiplexer offset coefficient	1.0000multiplexer slope coefficient	1.0000fibre end	0.00T internal ref (°C)	29.56T ext. ref 1 (°C)	-0.20T ext. ref 2 (°C)	24.06length (m)	temperature (°C)	Stokes	anti-Stokes-747.200	-144.965	0.399	0.037
-746.185	-122.787	-0.065	-0.011
-745.171	612.441	-0.011	-0.028
-744.156	-53.584	-0.354	0.163
-743.142	65.793	-0.090	0.092
-742.127	-26.202	0.373	0.221
-741.112	63.284	-0.087	0.087
-740.098	-17.930	-0.250	0.157
-739.083	208.711	0.180	0.283
-738.069	-7.936	0.164	-0.111
-737.054	-23.943	-0.076	-0.046
-736.039	123.133	-0.213	-0.269
-735.025	-28.399	0.350	0.203
-734.010	51.032	0.029	-0.027
-732.996	366.538	0.113	0.230
-731.981	363.233	0.014	-0.027
-730.966	1.687	-0.198	0.144
-729.952	-200.000	-0.046	-0.225
-728.937	141.456	0.136	-0.181
-727.923	-59.236	0.072	-0.031
-726.908	94.627	-0.160	-0.183
-725.894	-86.730	-0.236	0.073
-724.879	281.666	-0.155	-0.279
-723.864	800.000	-0.052	-0.150
-722.850	-200.000	-0.015	-0.268
-721.835	-64.768	-0.205	0.083
-720.821	75.429	-0.073	-0.077
-719.806	-200.000	-0.041	-0.275
-718.791	-200.000	0.003	0.033
-717.777	-71.042	-0.387	0.146
-716.762	170.069	-0.184	0.265
-715.748	-147.392	-0.358	0.031
-714.733	-19.211	0.183	0.114
-713.718	-32.887	0.214	-0.119
-712.704	-7.674	-0.149	0.101
-711.689	-49.636	-0.266	0.127
-710.675	-61.584	0.181	-0.076
-709.660	161.154	0.125	0.176
-708.645	31.586	0.042	-0.036
-707.631	-4.127	0.031	-0.022
-706.616	-159.652	-0.163	-0.009
-705.602	-95.177	-0.376	-0.102
-704.587	-200.000	0.019	-0.117
-703.572	800.000	-0.063	-0.248
-702.558	800.000	-0.062	-0.190
-701.543	-187.219	-0.428	-0.006
-700.529	-0.620	0.246	-0.175
-699.514	-126.277	-0.063	0.009
-698.499	800.000	0.059	-0.221
-697.485	38.130	0.220	-0.197
-696.470	-200.000	0.027	-0.211
-695.456	137.867	-0.167	0.219
-694.441	-29.591	-0.139	0.080
-693.426	34.932	-0.119	-0.104
-692.412	158.584	-0.061	-0.085
-691.397	16.129	-0.216	-0.171
-690.383	-73.069	-0.118	-0.043
-689.368	-9.437	-0.212	0.142
-688.354	46.237	0.176	0.164
-687.339	51.110	-0.186	-0.177
-686.324	9.124	-0.095	-0.072
-685.310	-52.928	-0.200	0.092
-684.295	262.787	0.104	-0.181
-683.281	399.653	-0.218	-0.460
-682.266	-200.000	-0.062	-0.312
-681.251	721.267	-0.051	-0.138
-680.237	-86.172	-0.269	-0.083
-679.222	-76.324	-0.374	0.132
-678.208	-200.000	0.014	-0.132
-677.193	-150.453	-0.151	-0.012
-676.178	-200.000	-0.024	-0.138
-675.164	498.986	-0.044	0.101
-674.149	-200.000	-0.038	-0.182
-673.135	-25.501	-0.126	-0.075
-672.120	439.028	0.121	0.265
-671.105	207.872	-0.058	0.091
-670.091	176.524	0.087	0.127
-669.076	-40.353	0.255	0.133
-668.062	-96.667	0.200	0.053
-667.047	300.064	0.069	0.128
-666.032	-74.602	-0.075	0.027
-665.018	-200.000	0.049	-0.443
-664.003	-200.000	-0.005	0.131
-662.989	270.622	0.078	-0.137
-661.974	37.023	0.171	-0.152
-660.959	2.066	-0.272	0.197
-659.945	800.000	-0.073	0.281
-658.930	301.681	-0.144	0.266
-657.916	800.000	0.072	0.311
-656.901	-14.916	-0.240	0.154
-655.886	43.469	0.156	-0.143
-654.872	-29.072	-0.304	-0.175
-653.857	-200.000	-0.061	-0.269
-652.843	-150.172	-0.243	-0.019
-651.828	-63.999	0.085	0.035
-650.814	-69.977	0.115	0.044
-649.799	348.794	-0.102	0.201
-648.784	800.000	-0.011	-0.049
-647.770	800.000	0.030	-0.118
-646.755	20.841	-0.283	0.230
-645.741	256.439	-0.070	-0.121
-644.726	-137.061	0.227	0.026
-643.711	-41.218	0.121	0.063
-642.697	-200.000	0.002	-0.026
-641.682	52.647	0.166	-0.159
-640.668	-141.461	-0.137	0.014
-639.653	656.004	-0.231	-0.595
-638.638	124.558	0.027	0.035
-637.624	-80.478	-0.344	-0.115
-636.609	534.014	-0.005	-0.013
-635.595	-64.682	-0.298	0.121
-634.580	-125.747	0.107	0.016
-633.565	-200.000	-0.006	-0.110
-632.551	-200.000	-0.044	0.296
-631.536	502.803	0.060	0.139
-630.522	501.498	0.101	-0.234
-629.507	3.137	0.105	0.077
-628.492	-36.513	-0.061	0.033
-627.478	27.451	0.119	0.100
-626.463	-49.193	-0.329	0.158
-625.449	109.769	0.010	-0.012
-624.434	5.214	0.147	-0.109
-623.419	236.065	0.046	-0.076
-622.405	41.137	-0.179	-0.162
-621.390	-200.000	-0.065	-0.424
-620.376	-200.000	-0.024	-0.120
-619.361	-75.634	0.303	0.108
-618.346	264.094	0.118	-0.205
-617.332	-7.322	-0.042	-0.028
-616.317	800.000	0.090	0.283
-615.303	-96.573	-0.229	0.061
-614.288	-147.883	0.360	0.030
-613.273	620.017	0.055	0.139
-612.259	-44.101	-0.330	0.166
-611.244	800.000	-0.042	0.155
-610.230	283.965	0.064	0.115
-609.215	-156.642	-0.340	0.021
-608.201	-154.916	0.262	0.017
-607.186	261.150	-0.164	0.284
-606.171	-31.123	0.225	0.127
-605.157	-52.319	0.099	-0.046
-604.142	-53.653	-0.072	-0.033
-603.128	800.000	0.042	-0.176
-602.113	-123.603	-0.108	0.017
-601.098	-200.000	-0.007	0.052
-600.084	127.359	-0.097	-0.123
-599.069	752.776	-0.042	0.114
-598.055	-200.000	-0.051	-0.253
-597.040	-14.585	-0.198	-0.128
-596.025	343.924	-0.127	-0.248
-595.011	-121.163	-0.222	0.037
-593.996	-200.000	0.011	0.208
-592.982	-200.000	-0.038	-0.300
-591.967	-200.000	-0.004	-0.115
-590.952	-106.258	-0.126	0.028
-589.938	243.087	-0.069	0.116
-588.923	-51.538	-0.447	-0.209
-587.909	-61.627	-0.360	0.151
-586.894	239.608	0.033	0.055
-585.879	-122.007	-0.299	0.049
-584.865	86.909	0.092	0.102
-583.850	-7.267	-0.094	-0.064
-582.836	-200.000	0.030	-0.318
-581.821	391.270	-0.247	-0.513
-580.806	-79.570	-0.131	0.044
-579.792	466.844	0.137	-0.307
-578.777	-103.050	-0.003	-0.001
-577.763	-142.680	0.498	0.049
-576.748	-15.953	-0.184	0.117
-575.733	-3.462	-0.339	0.236
-574.719	-9.624	0.334	-0.223
-573.704	800.000	-0.032	0.099
-572.690	-200.000	-0.017	-0.400
-571.675	-200.000	-0.030	-0.144
-570.661	-34.235	-0.196	0.108
-569.646	-6.795	-0.184	0.125
-568.631	800.000	0.070	0.291
-567.617	478.301	-0.063	-0.143
-566.602	-130.320	-0.411	0.056
-565.588	52.552	0.064	0.061
-564.573	-22.651	-0.244	-0.148
-563.558	-38.734	0.113	-0.059
-562.544	-6.519	-0.176	-0.120
-561.529	-182.549	-0.151	0.003
-560.515	94.465	-0.200	0.227
-559.500	800.000	-0.047	-0.131
-558.485	800.000	-0.081	0.250
-557.471	83.430	0.031	0.033
-556.456	800.000	-0.091	-0.292
-555.442	-17.703	0.383	0.240
-554.427	-40.684	-0.171	0.089
-553.412	-124.456	-0.392	-0.061
-552.398	-14.037	0.156	-0.101
-551.383	-27.424	0.081	-0.047
-550.369	20.084	0.194	0.156
-549.354	206.045	-0.027	0.042
-548.339	-116.306	0.203	-0.038
-547.325	172.503	-0.030	0.043
-546.310	11.250	-0.221	-0.169
-545.296	-94.989	-0.136	0.037
-544.281	-200.000	0.022	0.169
-543.266	800.000	0.059	-0.252
-542.252	78.473	0.097	-0.103
-541.237	-169.169	0.215	0.008
-540.223	627.258	-0.120	0.302
-539.208	-200.000	-0.005	0.312
-538.193	-37.740	-0.031	-0.016
-537.179	55.403	-0.172	0.166
-536.164	-200.000	-0.321	-0.001
-535.150	-105.554	0.273	-0.062
-534.135	-200.000	0.046	0.246
-533.121	45.954	0.196	-0.181
-532.106	147.423	-0.061	-0.082
-531.091	269.087	0.157	0.275
-530.077	-24.486	-0.110	0.065
-529.062	-40.485	-0.166	-0.086
-528.048	139.860	-0.133	-0.175
-527.033	800.000	0.029	-0.086
-526.018	615.651	-0.093	-0.233
-525.004	-200.000	0.023	-0.396
-523.989	412.889	0.199	-0.421
-522.975	800.000	-0.084	0.259
-521.960	-103.836	0.191	0.045
-520.945	-76.889	0.072	0.025
-519.931	-200.000	-0.021	-0.140
-518.916	-26.102	-0.267	0.157
-517.902	-200.000	0.006	0.121
-516.887	162.613	-0.187	-0.261
-515.872	-200.000	0.043	-0.192
-514.858	-75.015	-0.226	0.081
-513.843	-133.107	0.096	-0.012
-512.829	-40.736	-0.293	0.152
-511.814	-200.000	-0.021	-0.316
-510.799	59.245	0.055	0.054
-509.785	44.848	0.225	0.206
-508.770	-56.181	-0.330	0.146
-507.756	-200.000	-0.002	-0.203
-506.741	-193.917	-0.314	0.003
-505.726	162.347	-0.040	0.056
-504.712	-200.000	-0.005	0.217
-503.697	-200.000	0.000	-0.238
-502.683	-140.594	0.388	-0.040
-501.668	444.215	-0.068	0.150
-500.653	160.679	-0.104	0.145
-499.639	-138.334	-0.123	-0.013
-498.624	-131.735	-0.217	-0.028
-497.610	-32.570	-0.168	0.093
-496.595	-115.665	-0.160	-0.030
-495.581	9.745	0.250	-0.189
-494.566	-174.919	-0.209	-0.006
-493.551	-200.000	-0.061	0.304
-492.537	60.162	0.170	0.168
-491.522	26.029	0.119	0.099
-490.508	800.000	-0.071	-0.219
-489.493	470.401	-0.043	0.096
-488.478	-49.380	0.313	-0.149
-487.464	-200.000	-0.027	0.182
-486.449	-58.944	-0.182	-0.078
-485.435	481.968	-0.055	-0.124
-484.420	-51.254	-0.233	-0.109
-483.405	143.241	0.137	0.182
-482.391	-24.419	-0.193	0.114
-481.376	-115.914	0.126	-0.023
-480.362	-39.238	-0.263	0.138
-479.347	54.411	-0.164	0.158
-478.332	34.373	-0.408	0.355
-477.318	-200.000	0.051	-0.287
-476.303	-105.730	0.410	0.092
-475.289	800.000	0.080	0.273
-474.274	62.846	0.212	-0.211
-473.259	-182.601	-0.457	0.008
-472.245	107.892	-0.215	0.255
-471.230	10.433	0.135	0.102
-470.216	-200.000	0.068	0.311
-469.201	32.253	-0.138	0.119
-468.186	-88.490	-0.279	0.083
-467.172	-119.392	0.360	0.062
-466.157	13.866	0.163	0.126
-465.143	254.070	-0.048	0.081
-464.128	126.222	-0.201	-0.253
-463.113	-114.736	-0.180	-0.034
-462.099	-15.187	0.176	0.112
-461.084	-166.994	0.441	-0.018
-460.070	-200.000	0.054	0.234
-459.055	-101.170	-0.204	0.050
-458.040	205.033	-0.112	0.172
-457.026	186.585	0.246	0.365
-456.011	31.620	-0.060	-0.052
-454.997	-22.991	0.152	0.091
-453.982	256.765	-0.168	0.287
-452.968	-200.000	0.043	-0.216
-451.953	-15.626	-0.163	0.104
-450.938	134.928	0.093	-0.121
-449.924	-66.449	0.046	0.018
-448.909	-133.977	0.238	0.029
-447.895	-8.931	0.135	-0.090
-446.880	68.077	-0.220	-0.224
-445.865	-122.306	0.153	-0.025
-444.851	778.291	-0.068	0.186
-443.836	91.715	0.228	0.255
-442.822	-27.643	-0.386	-0.223
-441.807	265.746	0.241	0.418
-440.792	529.757	0.064	0.151
-439.778	-200.000	-0.003	0.229
-438.763	800.000	-0.081	0.245
-437.749	159.934	0.141	0.195
-436.734	-76.433	-0.093	-0.033
-435.719	800.000	0.049	-0.159
-434.705	379.652	-0.081	0.164
-433.690	66.937	-0.090	0.092
-432.676	-200.000	-0.064	0.313
-431.661	800.000	-0.128	-0.353
-430.646	-55.111	-0.255	0.114
-429.632	702.439	-0.084	-0.219
-428.617	-29.560	-0.216	0.123
-427.603	20.575	0.146	0.118
-426.588	-200.000	0.014	-0.436
-425.573	683.401	0.058	0.149
-424.559	-72.531	0.194	0.071
-423.544	-37.219	-0.134	-0.071
-422.530	-200.000	-0.046	-0.229
-421.515	259.678	0.101	-0.173
-420.500	641.870	0.044	0.112
-419.486	236.823	0.095	-0.157
-418.471	-121.845	-0.201	-0.033
-417.457	-31.163	0.198	0.111
-416.442	-82.111	-0.201	-0.065
-415.428	-200.000	0.000	-0.073
-414.413	-200.000	0.023	-0.159
-413.398	39.164	-0.075	-0.067
-412.384	90.265	0.025	-0.028
-411.369	-30.245	-0.224	-0.127
-410.355	233.217	0.097	-0.159
-409.340	-21.509	-0.299	-0.181
-408.325	552.556	-0.022	-0.053
-407.311	-200.000	-0.019	-0.236
-406.296	136.001	0.135	-0.174
-405.282	65.583	0.207	-0.208
-404.267	296.772	0.035	-0.063
-403.252	800.000	-0.071	-0.233
-402.238	-64.725	0.445	0.179
-401.223	-200.000	0.003	0.317
-400.209	-152.162	-0.255	-0.018
-399.194	-57.686	-0.086	0.038
-398.179	-200.000	0.037	0.312
-397.165	-27.526	0.176	-0.101
-396.150	-32.464	0.056	-0.031
-395.136	-129.154	-0.159	0.022
-394.121	800.000	-0.060	0.260
-393.106	-200.000	0.036	0.276
-392.092	289.001	-0.106	-0.190
-391.077	-40.062	-0.108	0.056
-390.063	-152.346	0.079	-0.006
-389.048	-200.000	-0.024	-0.462
-388.033	-76.773	-0.252	0.087
-387.019	-80.928	0.432	-0.142
-386.004	-200.000	-0.013	-0.109
-384.990	309.123	0.073	-0.135
-383.975	54.776	0.138	-0.132
-382.960	217.344	-0.075	0.118
-381.946	788.593	0.135	0.369
-380.931	-200.000	0.049	0.234
-379.917	641.195	-0.120	-0.303
-378.902	302.067	0.215	-0.395
-377.888	-200.000	-0.003	-0.127
-376.873	661.143	-0.011	0.028
-375.858	-149.446	-0.090	-0.007
-374.844	94.408	0.039	-0.044
-373.829	-99.950	0.186	-0.046
-372.815	168.280	-0.143	-0.202
-371.800	-46.251	-0.068	-0.033
-370.785	-175.876	-0.092	-0.002
-369.771	-136.419	0.238	-0.027
-368.756	-200.000	-0.012	0.272
-367.742	-162.171	-0.248	0.012
-366.727	-54.033	0.470	0.212
-365.712	51.368	0.100	0.094
-364.698	5.424	0.222	0.162
-363.683	80.449	0.226	-0.242
-362.669	243.974	-0.064	-0.107
-361.654	140.626	-0.120	-0.158
-360.639	342.842	-0.092	-0.178
-359.625	-200.000	-0.007	-0.049
-358.610	-200.000	-0.019	-0.318
-357.596	-200.000	0.006	0.086
-356.581	-120.003	0.047	0.008
-355.566	800.000	-0.011	0.034
-354.552	-94.477	-0.342	-0.093
-353.537	800.000	0.037	-0.128
-352.523	566.400	0.094	0.226
-351.508	-200.000	-0.069	0.322
-350.493	-119.849	0.381	-0.065
-349.479	184.303	0.077	0.114
-348.464	-68.060	-0.184	0.071
-347.450	-200.000	-0.012	-0.354
-346.435	-55.046	0.129	0.057
-345.420	-200.000	-0.037	-0.328
-344.406	607.119	-0.119	-0.293
-343.391	-155.399	0.113	-0.007
-342.377	116.226	-0.147	-0.178
-341.362	-56.415	0.264	0.116
-340.348	332.506	0.036	-0.069
-339.333	666.038	-0.107	0.275
-338.318	56.040	0.111	-0.107
-337.304	-200.000	0.009	0.042
-336.289	659.834	0.120	0.306
-335.275	-87.365	0.127	-0.038
-334.260	143.204	-0.094	-0.124
-333.245	14.063	-0.141	0.109
-332.231	106.549	-0.151	0.177
-331.216	800.000	0.096	0.291
-330.202	-102.304	-0.019	-0.005
-329.187	-180.779	0.139	-0.003
-328.172	-72.630	0.334	-0.122
-327.158	-89.480	0.392	0.114
-326.143	-103.929	-0.077	-0.018
-325.129	59.464	0.075	0.073
-324.114	210.644	-0.190	-0.295
-323.099	350.651	-0.030	0.060
-322.085	-39.551	-0.310	0.161
-321.070	-90.105	0.334	-0.096
-320.056	-200.000	0.048	-0.449
-319.041	-200.000	-0.028	0.354
-318.026	24.196	0.220	-0.180
-317.012	88.970	-0.147	-0.162
-315.997	602.707	-0.155	0.382
-314.983	-136.659	0.083	0.010
-313.968	-115.976	-0.242	-0.045
-312.953	342.293	0.164	0.318
-311.939	80.113	0.127	-0.135
-310.924	-5.717	0.153	-0.104
-309.910	208.955	-0.163	-0.253
-308.895	800.000	0.042	-0.150
-307.880	-200.000	-0.030	0.209
-306.866	157.953	-0.127	0.174
-305.851	800.000	0.088	-0.338
-304.837	-42.717	0.128	-0.064
-303.822	-22.076	-0.141	-0.085
-302.807	-31.962	-0.098	0.054
-301.793	-86.011	-0.163	-0.050
-300.778	16.131	0.179	0.139
-299.764	-33.291	0.316	-0.173
-298.749	-200.000	0.024	0.140
-297.735	-21.133	-0.104	0.063
-296.720	99.634	0.118	-0.136
-295.705	-4.775	-0.270	-0.184
-294.691	208.340	0.073	0.113
-293.676	-88.122	-0.098	-0.029
-292.662	333.642	0.186	0.356
-291.647	-200.000	-0.014	-0.207
-290.632	300.949	-0.184	-0.337
-289.618	800.000	-0.110	-0.306
-288.603	-148.572	-0.305	0.025
-287.589	-90.208	0.140	-0.040
-286.574	-21.612	-0.390	-0.235
-285.559	800.000	0.043	-0.171
-284.545	-141.198	0.267	0.027
-283.530	383.674	0.140	-0.284
-282.516	3.576	0.050	-0.036
-281.501	6.627	0.115	0.085
-280.486	-200.000	0.045	-0.289
-279.472	-76.827	-0.095	0.033
-278.457	691.999	0.081	0.210
-277.443	-7.573	-0.115	0.077
-276.428	-145.114	0.124	-0.011
-275.413	323.304	0.190	0.358
-274.399	-200.000	-0.005	-0.099
-273.384	346.668	0.080	0.155
-272.370	452.107	-0.071	-0.155
-271.355	31.643	0.258	0.219
-270.340	-39.844	0.137	-0.071
-269.326	800.000	-0.084	-0.285
-268.311	-200.000	0.030	0.179
-267.297	-118.989	0.074	0.013
-266.282	14.187	0.043	-0.033
-265.267	554.388	0.059	0.140
-264.253	140.859	-0.109	0.142
-263.238	98.173	-0.102	-0.116
-262.224	-16.933	0.068	-0.042
-261.209	-126.992	-0.227	0.033
-260.195	-200.000	0.018	0.101
-259.180	-11.390	0.162	-0.105
-258.165	-107.043	-0.075	-0.016
-257.151	-48.031	0.206	-0.098
-256.136	23.551	-0.140	-0.114
-255.122	91.663	0.171	-0.190
-254.107	-51.205	-0.341	-0.158
-253.092	300.207	-0.201	0.367
-252.078	-56.675	0.116	-0.051
-251.063	430.057	-0.050	0.107
-250.049	-146.361	0.242	0.021
-249.034	-200.000	-0.096	0.448
-248.019	-83.959	0.236	0.074
-247.005	68.215	0.124	-0.125
-245.990	40.172	-0.499	-0.443
-244.976	160.710	0.156	0.214
-243.961	-133.055	0.343	0.043
-242.946	364.860	0.112	0.223
-241.932	52.465	0.024	-0.022
-240.917	-32.398	-0.074	0.041
-239.903	-164.936	0.418	0.018
-238.888	624.720	0.075	0.186
-237.873	800.000	-0.045	0.148
-236.859	11.446	-0.114	-0.086
-235.844	40.773	-0.136	-0.121
-234.830	35.313	-0.246	0.213
-233.815	-168.552	0.462	0.017
-232.800	335.675	0.218	0.417
-231.786	237.066	-0.106	0.174
-230.771	-200.000	-0.005	0.180
-229.757	479.640	0.031	0.068
-228.742	-11.528	0.252	0.163
-227.727	-194.367	-0.375	0.003
-226.713	89.258	0.162	0.178
-225.698	266.955	0.025	0.043
-224.684	-200.000	-0.006	-0.242
-223.669	-75.321	-0.270	-0.095
-222.655	126.215	0.182	-0.228
-221.640	800.000	0.107	0.296
-220.625	-32.656	0.081	-0.045
-219.611	-110.255	0.259	0.053
-218.596	-200.000	0.052	-0.328
-217.582	800.000	-0.099	-0.297
-216.567	-64.103	-0.218	0.088
-215.552	93.705	0.237	0.265
-214.538	-200.000	0.055	-0.305
-213.523	285.564	0.019	0.034
-212.509	-144.960	0.339	0.031
-211.494	-77.820	-0.275	-0.094
-210.479	281.815	-0.121	0.214
-209.465	-28.451	0.211	0.120
-208.450	201.157	0.033	0.050
-207.436	-200.000	0.063	0.431
-206.421	-132.454	-0.135	-0.017
-205.406	-200.000	-0.055	-0.260
-204.392	-200.000	0.028	0.191
-203.377	-12.401	-0.107	0.069
-202.363	-89.586	0.420	-0.121
-201.348	-75.987	0.182	0.064
-200.333	-27.269	0.214	0.123
-199.319	-200.000	-0.011	0.050
-198.304	-109.041	0.269	0.057
-197.290	686.568	0.037	-0.095
-196.275	-23.012	0.229	-0.136
-195.260	-184.751	-0.254	-0.004
-194.246	217.896	-0.036	-0.056
-193.231	-200.000	0.096	-0.608
-192.217	-107.358	0.048	-0.010
-191.202	-118.554	-0.274	0.048
-190.187	-143.263	0.116	0.011
-189.173	490.464	-0.048	-0.107
-188.158	107.347	0.118	0.138
-187.144	193.813	0.130	0.194
-186.129	284.695	-0.228	-0.404
-185.114	-95.239	0.468	-0.124
-184.100	-200.000	-0.022	-0.273
-183.085	-59.014	0.314	0.133
-182.071	20.270	-0.089	-0.071
-181.056	-131.808	0.239	-0.031
-180.042	800.000	-0.069	0.292
-179.027	-200.000	-0.034	-0.315
-178.012	2.273	0.147	-0.105
-176.998	800.000	0.031	-0.086
-175.983	18.791	-0.107	-0.084
-174.969	-9.189	-0.173	0.114
-173.954	43.510	0.164	0.148
-172.939	12.754	-0.377	-0.286
-171.925	-200.000	0.003	0.031
-170.910	246.566	0.124	0.206
-169.896	14.132	0.111	-0.085
-168.881	-105.659	0.329	-0.073
-167.866	-48.042	-0.045	0.021
-166.852	15.421	0.165	0.127
-165.837	-53.876	-0.152	0.068
-164.823	-56.461	0.228	0.100
-163.808	-12.433	0.319	-0.205
-162.793	13.179	-0.198	-0.151
-161.779	-54.927	0.138	-0.061
-160.764	-56.519	0.079	0.035
-159.750	-200.000	-0.016	-0.148
-158.735	112.904	0.222	0.265
-157.720	-200.000	0.003	0.194
-156.706	-44.531	-0.263	0.129
-155.691	335.482	0.065	0.125
-154.677	-5.774	-0.172	0.116
-153.662	140.623	0.107	0.139
-152.647	106.544	0.254	0.296
-151.633	-155.844	-0.190	-0.012
-150.618	-39.353	-0.399	-0.206
-149.604	-51.549	-0.294	-0.135
-148.589	-82.071	-0.364	0.117
-147.574	74.165	0.285	0.295
-146.560	-49.392	0.370	-0.174
-145.545	-152.053	-0.144	0.010
-144.531	-14.290	-0.179	0.113
-143.516	522.278	-0.062	0.142
-142.502	-112.087	0.279	-0.055
-141.487	438.046	-0.077	0.166
-140.472	13.875	0.186	-0.142
-139.458	-73.894	-0.253	0.090
-138.443	-122.608	-0.314	-0.050
-137.429	-42.180	-0.176	-0.089
-136.414	15.515	0.156	0.121
-135.399	82.859	-0.244	-0.260
-134.385	18.662	0.109	-0.086
-133.370	800.000	-0.143	-0.423
-132.356	-157.133	0.151	-0.009
-131.341	82.094	-0.202	-0.215
-130.326	-200.000	0.072	0.369
-129.312	-200.000	-0.038	-0.216
-128.297	-42.684	0.215	0.107
-127.283	50.199	0.183	0.169
-126.268	14.414	-0.356	-0.273
-125.253	-63.755	-0.168	-0.067
-124.239	160.628	0.095	0.131
-123.224	-27.168	-0.172	-0.098
-122.210	564.889	0.205	-0.489
-121.195	16.405	-0.116	-0.090
-120.180	-103.950	0.354	-0.081
-119.166	-89.609	-0.066	0.019
-118.151	-129.710	-0.453	-0.061
-117.137	138.019	0.059	-0.076
-116.122	800.000	0.103	0.346
-115.107	800.000	0.035	0.096
-114.093	800.000	0.116	-0.406
-113.078	-14.334	0.149	0.094
-112.064	54.311	-0.212	0.200
-111.049	74.319	-0.247	-0.255
-110.034	-154.427	-0.336	-0.022
-109.020	800.000	-0.195	-0.556
-108.005	-54.206	0.189	-0.084
-106.991	-28.213	-0.232	0.132
-105.976	-135.193	-0.310	-0.037
-104.962	300.910	0.063	0.114
-103.947	-62.364	-0.132	-0.054
-102.932	184.228	-0.256	0.372
-101.918	-28.524	0.106	-0.060
-100.903	27.543	-0.267	0.220
-99.889	11.894	-0.182	0.137
-98.874	-5.876	-0.044	-0.030
-97.859	-146.636	-0.110	0.009
-96.845	-85.495	-0.247	-0.075
-95.830	163.258	0.036	0.050
-94.816	-169.421	-0.080	-0.003
-93.801	-66.784	0.317	-0.123
-92.786	64.931	0.143	-0.142
-91.772	32.001	0.184	-0.156
-90.757	59.191	0.369	0.356
-89.743	-66.759	-0.257	-0.100
-88.728	11.535	-0.150	-0.113
-87.713	-97.491	-0.037	-0.009
-86.699	124.244	-0.176	0.217
-85.684	146.477	0.139	0.183
-84.670	-175.271	-0.196	0.005
-83.655	-112.832	0.190	0.037
-82.640	-61.580	0.070	0.029
-81.626	-200.000	0.028	-0.128
-80.611	800.000	0.027	-0.111
-79.597	-126.501	-0.121	0.018
-78.582	-200.000	-0.016	-0.469
-77.567	18.095	-0.103	-0.081
-76.553	-200.000	-0.072	0.506
-75.538	-173.319	0.124	-0.004
-74.524	-200.000	0.013	-0.265
-73.509	-136.193	0.373	-0.043
-72.494	-88.320	-0.236	-0.069
-71.480	-200.000	-0.002	-0.102
-70.465	800.000	-0.179	0.523
-69.451	37.060	-0.254	0.221
-68.436	800.000	-0.074	-0.274
-67.422	-79.602	0.272	0.090
-66.407	-144.759	0.288	0.026
-65.392	1.604	-0.154	0.109
-64.378	308.527	-0.048	-0.088
-63.363	-44.910	-0.138	0.067
-62.349	-200.000	-0.015	0.210
-61.334	110.527	-0.912	-1.075
-60.319	17.640	0.459	0.358
-59.305	469.677	-0.443	-0.976
-58.290	142.530	0.751	0.978
-57.276	800.000	0.336	1.287
-56.261	-200.000	105.438	609.906
-55.246	499.518	1507.954	3406.229
-54.232	176.398	2701.038	3845.282
-53.217	111.468	2165.577	2558.741
-52.203	41.559	1597.991	1417.564
-51.188	33.004	1331.408	1130.125
-50.173	29.867	1290.230	1076.906
-49.159	54.111	1344.256	1266.666
-48.144	54.798	1359.436	1284.994
-47.130	33.273	1314.348	1117.055
-46.115	29.700	1297.010	1081.421
-45.100	29.567	1291.449	1075.966
-44.086	29.384	1289.570	1073.288
-43.071	29.394	1287.027	1071.188
-42.057	29.402	1285.016	1069.521
-41.042	29.415	1283.299	1068.121
-40.027	29.453	1281.447	1066.761
-39.013	29.328	1280.203	1064.962
-37.998	29.465	1278.044	1063.911
-36.984	29.581	1276.175	1062.980
-35.969	29.537	1274.037	1060.904
-34.954	29.562	1272.849	1060.016
-33.940	29.652	1271.452	1059.327
-32.925	29.632	1270.244	1058.165
-31.911	29.673	1268.609	1056.995
-30.896	29.743	1267.175	1056.160
-29.881	29.680	1265.905	1054.697
-28.867	29.695	1264.262	1053.376
-27.852	29.668	1262.800	1051.963
-26.838	29.729	1261.276	1050.997
-25.823	29.633	1261.006	1050.182
-24.809	29.663	1259.075	1048.705
-23.794	29.650	1257.484	1047.263
-22.779	29.648	1256.330	1046.249
-21.765	29.690	1255.130	1045.448
-20.750	29.655	1253.695	1044.014
-19.736	29.615	1252.418	1042.684
-18.721	29.468	1251.376	1040.941
-17.706	29.485	1250.541	1040.305
-16.692	29.499	1249.208	1039.230
-15.677	29.534	1248.328	1038.656
-14.663	29.467	1247.053	1037.180
-13.648	29.537	1246.117	1036.749
-12.633	29.551	1245.224	1036.044
-11.619	29.515	1244.296	1035.032
-10.604	29.564	1243.177	1034.334
-9.590	29.457	1242.451	1033.087
-8.575	29.414	1241.651	1032.142
-7.560	29.529	1240.408	1031.707
-6.546	29.383	1240.403	1030.849
-5.531	29.442	1238.942	1029.923
-4.517	29.533	1237.681	1029.341
-3.502	29.526	1237.597	1029.193
-2.487	29.530	1236.280	1028.076
-1.473	29.519	1232.352	1024.709
-0.458	28.188	1217.504	1005.017
0.556	22.494	1200.580	969.527
1.571	19.006	1206.197	954.654
2.586	18.310	1220.671	962.112
3.600	18.131	1210.071	952.675
4.615	13.580	1138.990	872.715
5.629	4.588	1065.183	771.626
6.644	0.202	1044.509	735.197
7.659	-0.263	1042.145	731.207
8.673	-0.333	1040.842	729.887
9.688	-0.425	1039.467	728.411
10.702	0.143	1037.898	730.002
11.717	6.147	1047.007	765.651
12.731	15.074	1059.155	818.280
13.746	19.564	1065.015	844.748
14.761	20.845	1065.775	851.543
15.775	20.793	1065.625	851.096
16.790	20.528	1064.782	849.054
17.804	20.494	1064.330	848.452
18.819	20.567	1063.835	848.339
19.834	20.762	1063.447	848.902
20.848	20.729	1063.278	848.532
21.863	20.712	1062.584	847.822
22.877	20.701	1061.822	847.085
23.892	20.700	1060.746	846.146
24.907	20.737	1060.395	845.972
25.921	20.779	1059.192	845.140
26.936	20.712	1057.956	843.756
27.950	20.609	1056.310	841.867
28.965	20.581	1054.152	839.941
29.980	20.571	1053.123	838.996
30.994	20.731	1051.836	838.669
32.009	20.745	1050.650	837.715
33.023	20.499	1049.616	835.635
34.038	20.638	1048.738	835.527
35.053	20.751	1048.659	835.936
36.067	20.675	1047.589	834.643
37.082	20.813	1046.301	834.205
38.096	21.074	1045.831	835.003
39.111	21.012	1044.964	833.944
40.126	20.845	1043.654	832.024
41.140	20.462	1042.184	828.952
42.155	20.299	1040.596	826.839
43.169	20.351	1039.906	826.466
44.184	20.409	1039.022	825.965
45.199	20.358	1037.608	824.526
46.213	20.356	1036.830	823.825
47.228	20.531	1036.031	823.948
48.242	20.530	1035.301	823.291
49.257	20.697	1034.570	823.426
50.271	20.926	1033.257	823.389
51.286	20.805	1032.626	822.243
52.301	20.776	1032.471	821.912
53.315	20.702	1031.489	820.707
54.330	20.768	1030.557	820.203
55.344	20.693	1029.437	818.889
56.359	20.694	1028.406	817.998
57.374	20.560	1027.346	816.457
58.388	20.556	1026.618	815.784
59.403	20.489	1025.884	814.816
60.417	20.283	1025.315	813.325
61.432	20.454	1024.860	813.692
62.447	20.620	1023.731	813.504
63.461	20.647	1022.917	812.910
64.476	20.629	1021.902	811.948
65.490	20.335	1021.325	810.044
66.505	20.503	1020.044	809.742
67.520	20.643	1019.469	809.862
68.534	20.284	1018.850	807.628
69.549	19.967	1017.358	804.902
70.563	20.174	1016.702	805.275
71.578	20.003	1015.994	803.848
72.593	19.937	1014.716	802.461
73.607	20.084	1014.127	802.605
74.622	20.344	1013.847	803.517
75.636	20.276	1013.548	802.894
76.651	20.243	1012.282	801.665
77.666	20.214	1011.229	800.626
78.680	20.296	1010.865	800.645
79.695	20.377	1010.039	800.294
80.709	20.403	1009.595	799.993
81.724	20.288	1008.911	798.852
82.739	20.505	1008.207	799.219
83.753	20.671	1007.730	799.532
84.768	21.012	1006.935	800.397
85.782	20.954	1005.754	799.122
86.797	21.056	1004.485	798.511
87.812	20.883	1003.734	797.053
88.826	20.905	1002.962	796.469
89.841	21.022	1002.111	796.255
90.855	21.026	1000.553	794.965
91.870	20.842	1000.171	793.755
92.884	20.851	998.740	792.587
93.899	20.855	997.736	791.741
94.914	20.989	997.519	792.105
95.928	20.853	996.046	790.251
96.943	20.540	995.216	788.106
97.957	20.522	993.349	786.475
98.972	20.278	992.928	784.967
99.987	20.420	992.424	785.141
101.001	20.663	991.538	785.467
102.016	20.735	990.635	785.007
103.030	20.692	989.451	783.807
104.045	20.549	988.175	782.082
105.060	20.264	987.531	780.222
106.074	20.447	987.510	780.961
107.089	20.905	986.409	782.076
108.103	20.673	985.666	780.376
109.118	20.482	984.271	778.348
110.133	20.477	983.218	777.425
111.147	20.519	981.821	776.439
112.162	20.226	981.043	774.445
113.176	20.522	980.395	775.186
114.191	20.391	979.320	773.687
115.206	19.988	978.190	770.929
116.220	20.147	977.510	771.032
117.235	20.152	976.550	770.230
118.249	20.217	975.544	769.656
119.264	20.232	974.663	768.962
120.279	20.102	974.577	768.249
121.293	20.151	973.777	767.768
122.308	20.298	972.273	767.161
123.322	20.227	971.447	766.129
124.337	20.006	970.322	764.201
125.352	19.596	968.090	760.571
126.366	19.582	967.339	759.852
127.381	20.441	967.193	763.446
128.395	20.665	966.881	764.115
129.410	20.812	965.645	763.714
130.424	20.695	964.946	762.584
131.439	20.649	964.280	761.786
132.454	20.605	963.260	760.722
133.468	20.527	962.474	759.693
134.483	20.781	961.489	759.957
135.497	20.866	961.093	759.948
136.512	20.983	959.569	759.186
137.527	21.008	958.607	758.465
138.541	20.961	958.074	757.771
139.556	20.955	957.279	757.050
140.570	20.942	956.710	756.475
141.585	20.900	955.624	755.368
142.600	20.881	955.029	754.751
143.614	21.315	953.882	755.652
144.629	21.222	953.196	754.644
145.643	20.932	952.043	752.412
146.658	20.979	950.575	751.387
147.673	20.841	949.615	749.966
148.687	20.871	948.289	748.980
149.702	20.638	947.436	747.239
150.716	20.669	946.874	746.867
151.731	20.917	945.986	747.162
152.746	20.955	945.545	746.910
153.760	20.974	944.898	746.413
154.775	21.096	944.303	746.400
155.789	21.054	943.338	745.392
156.804	21.046	942.176	744.374
157.819	21.108	941.761	744.245
158.833	21.215	940.708	743.802
159.848	21.060	940.184	742.664
160.862	21.012	938.807	741.303
161.877	21.128	937.546	740.737
162.892	21.120	936.724	739.989
163.906	21.033	936.060	739.029
164.921	21.046	935.002	738.184
165.935	21.142	934.031	737.757
166.950	21.211	932.910	737.098
167.964	21.095	932.257	736.028
168.979	21.092	930.609	734.648
169.994	21.010	930.222	733.935
171.008	21.137	929.654	733.953
172.023	21.190	928.821	733.453
173.037	20.880	927.527	731.065
174.052	20.697	927.062	729.867
175.067	20.890	926.256	729.978
176.081	20.949	925.832	729.824
177.096	20.862	925.353	729.021
178.110	20.621	924.119	726.974
179.125	20.620	923.006	726.031
180.140	20.645	922.862	725.960
181.154	20.770	922.347	726.010
182.169	20.934	922.331	726.615
183.183	21.083	921.832	726.782
184.198	21.023	921.256	726.011
185.213	21.004	920.201	725.036
186.227	21.093	919.710	724.958
187.242	21.039	918.874	724.010
188.256	21.079	918.244	723.616
189.271	21.092	917.255	722.824
190.286	20.911	916.119	721.115
191.300	20.296	914.861	717.523
192.315	19.634	913.445	713.615
193.329	19.616	912.544	712.772
194.344	20.507	913.389	717.048
195.359	20.931	913.307	718.668
196.373	21.114	912.421	718.662
197.388	20.896	911.636	717.080
198.402	20.938	911.354	716.968
199.417	20.898	910.824	716.325
200.432	20.716	909.598	714.549
201.446	20.500	909.124	713.230
202.461	20.590	908.413	712.974
203.475	19.642	906.548	707.569
204.490	19.098	904.971	704.052
205.504	19.999	905.834	708.345
206.519	20.456	906.001	710.282
207.534	20.817	904.825	710.772
208.548	21.021	904.847	711.561
209.563	20.876	903.652	709.964
210.577	20.870	903.520	709.775
211.592	21.271	903.144	711.051
212.607	21.020	902.260	709.269
213.621	21.168	901.470	709.188
214.636	21.099	901.194	708.627
215.650	21.051	900.081	707.494
216.665	21.226	899.542	707.718
217.680	21.179	898.473	706.622
218.694	20.641	898.096	704.088
219.709	20.567	896.678	702.615
220.723	20.882	896.330	703.550
221.738	20.929	895.952	703.383
222.753	20.966	895.447	703.072
223.767	21.150	894.877	703.303
224.782	21.322	894.500	703.638
225.796	21.221	893.565	702.436
226.811	20.623	892.314	698.987
227.826	20.044	890.870	695.469
228.840	20.164	890.878	695.897
229.855	20.321	889.804	695.625
230.869	19.929	888.951	693.329
231.884	20.301	889.175	694.932
232.899	21.040	889.102	697.770
233.913	20.904	888.296	696.530
234.928	20.981	887.478	696.137
235.942	21.073	886.734	695.856
236.957	20.633	886.070	693.521
237.972	20.579	885.617	692.890
238.986	20.707	884.810	692.707
240.001	20.784	884.508	692.716
241.015	21.033	883.465	692.825
242.030	20.923	883.819	692.607
243.045	21.082	882.765	692.350
244.059	21.162	882.569	692.452
245.074	20.880	881.680	690.575
246.088	20.632	880.558	688.653
247.103	20.935	880.669	689.880
248.117	21.345	880.486	691.299
249.132	21.543	879.878	691.542
250.147	21.647	879.409	691.520
251.161	21.950	878.678	692.080
252.176	21.803	877.935	690.854
253.190	21.798	877.802	690.670
254.205	21.838	877.216	690.305
255.220	21.995	876.505	690.303
256.234	21.885	875.636	689.126
257.249	21.753	874.798	687.886
258.263	21.828	874.157	687.615
259.278	21.780	873.732	687.033
260.293	21.941	873.111	687.112
261.307	21.672	872.724	685.696
262.322	21.568	871.671	684.401
263.336	20.849	869.196	679.591
264.351	19.633	867.711	673.632
265.366	19.895	867.627	674.527
266.380	21.110	868.176	679.631
267.395	21.615	867.717	681.178
268.409	21.705	866.615	680.602
269.424	21.764	865.879	680.190
270.439	21.685	866.021	679.938
271.453	21.719	865.491	679.592
272.468	21.881	864.946	679.731
273.482	21.981	864.270	679.529
274.497	21.464	863.143	676.584
275.512	21.231	862.369	675.014
276.526	21.619	862.374	676.461
277.541	21.804	862.071	676.875
278.555	21.535	861.098	675.014
279.570	21.355	860.389	673.705
280.585	21.406	859.825	673.399
281.599	21.567	858.607	673.007
282.614	20.934	857.542	669.679
283.628	20.942	857.106	669.309
284.643	21.291	856.940	670.463
285.657	20.883	855.787	667.936
286.672	20.723	855.078	666.710
287.687	21.250	854.840	668.484
288.701	21.396	854.119	668.418
289.716	20.958	853.823	666.455
290.730	20.883	852.889	665.381
291.745	20.522	852.426	663.581
292.760	20.866	852.168	664.636
293.774	21.883	852.518	668.727
294.789	22.167	852.292	669.572
295.803	22.325	851.344	669.372
296.818	22.361	850.741	668.976
297.833	21.786	849.954	666.113
298.847	21.705	849.005	665.003
299.862	22.076	848.608	666.039
300.876	22.189	848.165	666.060
301.891	22.044	847.703	665.092
302.906	21.640	846.569	662.612
303.920	21.894	846.280	663.288
304.935	22.279	845.915	664.398
305.949	21.980	845.598	662.963
306.964	21.767	844.783	661.462
307.979	22.130	844.072	662.214
308.993	22.362	844.300	663.209
310.008	22.376	843.168	662.312
311.022	22.038	842.589	660.530
312.037	21.976	841.937	659.726
313.052	21.848	840.779	658.279
314.066	20.820	839.657	653.488
315.081	20.494	838.985	651.683
316.095	21.509	839.231	655.625
317.110	21.842	839.224	656.809
318.125	21.026	837.207	652.123
319.139	20.139	835.839	647.687
320.154	20.291	835.613	648.020
321.168	21.043	836.027	651.090
322.183	21.641	836.450	653.596
323.197	21.613	836.123	653.180
324.212	22.027	835.563	654.225
325.227	22.037	834.838	653.640
326.241	21.803	834.382	652.354
327.256	21.830	833.238	651.502
328.270	21.797	832.825	651.000
329.285	21.593	832.051	649.579
330.300	21.500	831.265	648.562
331.314	21.646	831.150	648.956
332.329	21.978	831.142	650.124
333.343	22.102	830.351	649.905
334.358	22.042	829.786	649.185
335.373	22.080	830.084	649.501
336.387	22.331	830.028	650.324
337.402	22.510	829.846	650.787
338.416	22.388	828.953	649.578
339.431	22.433	828.751	649.528
340.446	22.775	828.028	650.165
341.460	22.515	827.835	649.000
342.475	22.290	827.486	647.838
343.489	22.365	827.283	647.900
344.504	22.711	826.621	648.594
345.519	22.898	826.109	648.825
346.533	22.864	825.798	648.399
347.548	22.845	825.454	647.998
348.562	22.904	824.962	647.774
349.577	22.711	824.037	646.282
350.592	22.682	823.776	645.912
351.606	22.808	822.906	645.634
352.621	22.796	821.701	644.588
353.635	22.716	821.060	643.737
354.650	21.926	819.575	639.638
355.665	20.920	818.482	635.065
356.679	21.395	818.139	636.470
357.694	21.963	817.707	638.146
358.708	21.738	817.351	636.994
359.723	22.103	817.491	638.372
360.738	22.433	816.893	639.047
361.752	22.576	816.209	638.975
362.767	22.926	815.894	639.939
363.781	22.989	815.734	639.983
364.796	23.149	815.640	640.433
365.810	23.285	814.674	640.111
366.825	23.177	814.812	639.771
367.840	22.884	813.363	637.519
368.854	22.466	812.538	635.310
369.869	22.545	812.337	635.379
370.883	22.534	812.027	635.041
371.898	22.221	811.583	633.511
372.913	22.478	811.387	634.229
373.927	22.643	810.869	634.359
374.942	22.825	810.379	634.576
375.956	22.895	810.050	634.511
376.971	22.984	810.044	634.772
377.986	23.012	809.621	634.483
379.000	23.040	808.946	633.999
380.015	23.011	808.236	633.284
381.029	23.021	807.933	633.027
382.044	23.073	807.187	632.569
383.059	23.106	806.818	632.345
384.073	23.171	806.125	631.975
385.088	23.178	805.718	631.627
386.102	22.863	804.772	629.708
387.117	22.868	803.911	628.995
388.132	22.623	803.032	627.380
389.146	22.096	802.303	624.882
390.161	22.519	802.040	626.126
391.175	22.868	802.125	627.374
392.190	22.625	800.828	625.445
393.205	21.424	798.353	619.204
394.219	19.896	796.791	612.537
395.234	20.025	796.786	612.932
396.248	21.567	798.057	619.316
397.263	22.655	799.110	623.933
398.278	22.577	798.898	623.433
399.292	22.566	798.217	622.810
400.307	22.472	797.673	621.997
401.321	22.659	797.059	622.123
402.336	22.944	797.450	623.379
403.350	23.341	797.124	624.470
404.365	23.428	797.134	624.730
405.380	23.759	796.771	625.555
406.394	23.786	795.896	624.907
407.409	23.803	795.007	624.214
408.423	23.590	795.147	623.520
409.438	23.902	794.857	624.333
410.453	23.825	794.328	623.592
411.467	23.835	793.566	622.972
412.482	23.848	793.194	622.672
413.496	23.954	792.873	622.735
414.511	23.789	792.695	621.962
415.526	23.896	792.156	621.860
416.540	23.774	791.022	620.488
417.555	23.415	790.707	618.933
418.569	23.568	790.144	618.973
419.584	23.479	789.631	618.204
420.599	23.323	789.255	617.311
421.613	157.558	1365.389	1799.079
422.628	136.402	1449.288	1799.138
