DTS Sentinel unit serial number:	SN413079Multiplexer serial number:	ORYXHardware model number:	OX4-SRSoftware version number:	ORYX F/W v4.00 Oryx Data Collector v3.7.2.0data status	okinstallation	princeton_trtdifferential loss correction	single-endedforward channel	channel 2reverse channel	N/Adate	2019/09/10time	18:09:10forward acquisition time	60.00reverse acquisition time	0.00gamma	496.2192k internal	0.2315k external	0.2315temperature offset calibration	0.9942default loss term (dB/km)	0.3790temperature slope calibration	1.0000multiplexer offset coefficient	1.0000multiplexer slope coefficient	1.0000fibre end	0.00T internal ref (°C)	36.78T ext. ref 1 (°C)	-0.31T ext. ref 2 (°C)	28.94length (m)	temperature (°C)	Stokes	anti-Stokes-747.200	800.000	0.057	0.180
-746.185	-33.478	0.123	0.069
-745.171	-142.046	-0.475	0.048
-744.156	-152.831	-0.435	0.031
-743.142	-200.000	0.068	0.329
-742.127	296.476	-0.228	0.423
-741.112	-41.130	0.222	0.116
-740.098	248.973	0.108	0.186
-739.083	207.158	0.143	0.225
-738.069	246.015	-0.145	0.247
-737.054	-125.677	0.293	-0.045
-736.039	145.338	-0.257	-0.348
-735.025	-155.443	-0.193	0.013
-734.010	-85.565	-0.332	-0.105
-732.996	227.016	-0.100	-0.165
-731.981	354.935	0.027	-0.054
-730.966	236.321	0.147	-0.246
-729.952	-145.914	-0.181	0.016
-728.937	-82.320	-0.112	-0.037
-727.923	-33.886	0.459	0.256
-726.908	800.000	-0.078	0.250
-725.894	-86.233	-0.204	-0.064
-724.879	152.610	0.112	0.155
-723.864	-57.668	-0.049	-0.022
-722.850	-200.000	-0.043	-0.367
-721.835	-135.096	0.117	-0.014
-720.821	-36.195	-0.154	-0.084
-719.806	86.235	-0.204	-0.227
-718.791	-84.814	0.369	-0.117
-717.777	-200.000	-0.028	0.130
-716.762	262.756	-0.184	-0.323
-715.748	800.000	0.051	0.164
-714.733	-150.969	-0.186	-0.014
-713.718	760.000	-0.052	-0.143
-712.704	-61.804	-0.098	-0.041
-711.689	115.866	-0.021	-0.026
-710.675	599.644	-0.081	-0.204
-709.660	-113.313	0.122	0.024
-708.645	-128.771	0.274	0.039
-707.631	-148.935	0.159	0.013
-706.616	-200.000	-0.030	0.249
-705.602	-187.331	-0.093	0.001
-704.587	800.000	-0.062	-0.251
-703.572	-200.000	0.006	-0.132
-702.558	149.843	0.154	-0.211
-701.543	399.671	0.009	-0.020
-700.529	-200.000	0.001	-0.086
-699.514	-80.750	-0.122	-0.041
-698.499	-82.065	-0.326	0.108
-697.485	-200.000	-0.007	-0.119
-696.470	-100.864	0.141	0.035
-695.456	20.683	0.106	0.087
-694.441	-2.747	0.249	-0.176
-693.426	568.574	-0.065	0.160
-692.412	161.373	0.132	0.187
-691.397	101.210	-0.078	0.092
-690.383	-36.084	-0.266	0.146
-689.368	3.207	-0.281	-0.207
-688.354	15.521	-0.230	-0.183
-687.339	236.412	-0.071	-0.119
-686.324	-185.108	0.327	-0.005
-685.310	-137.643	-0.220	0.025
-684.295	-200.000	0.012	-0.057
-683.281	-12.368	-0.265	-0.175
-682.266	-200.000	-0.001	0.163
-681.251	-200.000	0.012	0.339
-680.237	-86.746	-0.249	0.077
-679.222	59.594	0.091	-0.091
-678.208	-17.063	-0.139	-0.089
-677.193	-162.146	0.361	-0.018
-676.178	-26.652	-0.253	0.150
-675.164	-200.000	-0.015	-0.111
-674.149	-200.000	0.002	-0.087
-673.135	699.342	0.048	-0.127
-672.120	-51.042	-0.196	-0.093
-671.105	98.970	-0.088	-0.103
-670.091	454.872	-0.205	-0.459
-669.076	-156.545	-0.096	0.006
-668.062	-84.796	-0.251	-0.080
-667.047	-200.000	-0.049	0.229
-666.032	29.114	-0.099	-0.085
-665.018	-108.057	0.048	0.011
-664.003	-43.542	0.270	0.138
-662.989	-36.441	0.183	-0.100
-661.974	176.625	0.074	-0.108
-660.959	-56.021	-0.077	0.034
-659.945	-8.965	-0.295	-0.200
-658.930	396.235	0.114	-0.241
-657.916	-117.352	-0.465	0.085
-656.901	-84.152	-0.163	0.052
-655.886	277.745	-0.032	0.057
-654.872	16.589	0.355	0.283
-653.857	-200.000	-0.025	-0.122
-652.843	-200.000	0.048	-0.310
-651.828	-104.214	-0.251	-0.059
-650.814	-200.000	-0.266	0.001
-649.799	615.584	0.090	-0.227
-648.784	127.843	-0.041	0.052
-647.770	-5.876	-0.129	0.089
-646.755	800.000	0.013	-0.048
-645.741	-138.478	0.421	0.047
-644.726	-81.498	0.263	0.087
-643.711	46.164	0.334	-0.312
-642.697	105.205	0.197	-0.235
-641.682	-200.000	-0.008	0.170
-640.668	79.663	-0.157	-0.170
-639.653	546.777	-0.182	-0.439
-638.638	238.393	-0.170	-0.284
-637.624	800.000	-0.026	-0.090
-636.609	443.427	-0.105	0.231
-635.595	10.448	0.219	0.168
-634.580	800.000	-0.081	0.255
-633.565	-127.072	-0.258	-0.038
-632.551	54.335	0.135	-0.131
-631.536	-39.574	0.089	-0.047
-630.522	157.275	-0.052	0.073
-629.507	84.836	0.100	-0.111
-628.492	-28.628	0.186	-0.108
-627.478	-200.000	-0.051	-0.234
-626.463	485.581	0.076	-0.176
-625.449	-113.467	-0.311	0.061
-624.434	-85.273	0.242	0.076
-623.419	-5.120	-0.193	0.134
-622.405	-118.933	0.083	0.015
-621.390	196.602	0.186	0.286
-620.376	-200.000	-0.038	0.243
-619.361	73.671	-0.118	0.125
-618.346	0.199	-0.027	0.019
-617.332	355.866	0.037	0.075
-616.317	-200.000	-0.022	-0.179
-615.303	-66.976	-0.426	0.170
-614.288	800.000	-0.082	0.253
-613.273	-102.518	-0.187	-0.045
-612.259	789.175	0.024	0.065
-611.244	-200.000	-0.026	-0.201
-610.230	-16.610	-0.158	-0.101
-609.215	800.000	0.019	0.073
-608.201	370.526	0.068	-0.138
-607.186	800.000	0.093	-0.285
-606.171	215.862	0.079	0.127
-605.157	-61.786	-0.177	-0.075
-604.142	-145.815	-0.239	-0.021
-603.128	-200.000	0.005	0.171
-602.113	800.000	0.077	0.217
-601.098	-200.000	0.002	-0.103
-600.084	800.000	0.038	0.134
-599.069	31.138	0.268	0.232
-598.055	-69.242	0.185	-0.072
-597.040	284.840	-0.092	-0.167
-596.025	-121.847	-0.206	0.034
-595.011	179.892	-0.023	-0.033
-593.996	-200.000	0.043	0.476
-592.982	-33.924	0.190	0.105
-591.967	151.555	0.175	0.240
-590.952	-200.000	-0.019	0.157
-589.938	-129.958	0.184	0.025
-588.923	800.000	-0.044	0.129
-587.909	187.490	0.074	0.111
-586.894	-141.682	-0.069	-0.007
-585.879	35.140	0.343	0.302
-584.865	-120.061	-0.255	0.044
-583.850	113.936	0.128	-0.156
-582.836	80.275	-0.058	-0.063
-581.821	-101.124	-0.280	0.069
-580.806	800.000	0.102	0.289
-579.792	-111.604	-0.115	0.024
-578.777	492.891	0.198	0.458
-577.763	15.137	0.076	-0.060
-576.748	85.677	0.109	0.121
-575.733	170.675	-0.166	-0.240
-574.719	-150.242	0.214	0.017
-573.704	-60.925	-0.044	-0.019
-572.690	-48.726	0.093	-0.045
-571.675	241.245	-0.142	0.239
-570.661	-55.062	0.110	0.050
-569.646	-36.500	-0.280	-0.152
-568.631	800.000	-0.068	0.226
-567.617	150.393	-0.079	0.108
-566.602	455.171	0.070	0.156
-565.588	187.297	0.073	0.109
-564.573	-135.166	-0.317	0.038
-563.558	-200.000	-0.061	0.386
-562.544	150.807	-0.141	0.193
-561.529	75.694	0.146	0.156
-560.515	-200.000	0.048	-0.292
-559.500	102.500	-0.062	-0.073
-558.485	116.683	-0.215	0.265
-557.471	-60.698	-0.263	-0.112
-556.456	6.095	0.141	0.105
-555.442	-200.000	-0.019	-0.403
-554.427	573.936	0.115	0.283
-553.412	-65.522	-0.237	-0.096
-552.398	-113.941	-0.194	0.038
-551.383	191.487	0.054	0.083
-550.369	131.983	0.193	0.249
-549.354	800.000	0.056	-0.182
-548.339	-123.960	-0.219	0.035
-547.325	-68.515	-0.305	-0.119
-546.310	-200.000	0.040	-0.303
-545.296	-53.223	0.149	0.069
-544.281	-200.000	-0.035	0.161
-543.266	7.655	0.311	-0.234
-542.252	49.015	0.144	0.136
-541.237	-72.708	0.156	0.058
-540.223	107.675	0.037	-0.044
-539.208	-200.000	0.030	0.243
-538.193	-110.920	-0.078	-0.016
-537.179	182.545	-0.186	-0.275
-536.164	-16.411	-0.169	0.108
-535.150	57.380	0.245	0.240
-534.135	800.000	-0.036	0.142
-533.121	800.000	-0.046	0.159
-532.106	-83.936	0.161	-0.051
-531.091	55.817	-0.235	0.229
-530.077	-97.572	-0.093	-0.024
-529.062	16.272	0.187	0.148
-528.048	542.920	-0.082	-0.197
-527.033	444.635	0.059	-0.130
-526.018	53.203	-0.190	-0.183
-525.004	-76.748	-0.350	0.123
-523.989	107.852	0.232	-0.277
-522.975	-97.031	-0.210	0.055
-521.960	-129.538	-0.309	-0.043
-520.945	-122.370	0.006	-0.001
-519.931	333.637	0.094	-0.183
-518.916	63.052	0.127	-0.128
-517.902	28.523	-0.199	0.169
-516.887	-200.000	-0.048	0.402
-515.872	-200.000	0.028	-0.219
-514.858	-200.000	0.030	-0.200
-513.843	207.741	0.267	-0.419
-512.829	-69.212	-0.250	0.097
-511.814	-5.789	-0.057	0.039
-510.799	-200.000	0.046	-0.238
-509.785	27.578	-0.189	-0.159
-508.770	25.136	0.235	0.196
-507.756	-30.469	-0.209	-0.119
-506.741	152.670	0.186	-0.255
-505.726	-72.236	0.298	-0.111
-504.712	97.771	-0.115	0.133
-503.697	800.000	-0.045	0.156
-502.683	800.000	-0.025	-0.074
-501.668	244.816	0.297	-0.500
-500.653	-200.000	-0.072	-0.419
-499.639	-121.297	-0.113	0.019
-498.624	148.342	-0.335	-0.454
-497.610	-73.498	-0.218	0.080
-496.595	-71.782	0.120	0.045
-495.581	16.013	-0.248	0.196
-494.566	-6.489	-0.171	-0.117
-493.551	-51.996	0.136	-0.064
-492.537	-150.446	0.236	-0.018
-491.522	52.834	-0.427	0.409
-490.508	-98.073	-0.431	-0.111
-489.493	-200.000	-0.010	0.131
-488.478	105.319	-0.059	0.069
-487.464	84.740	0.149	-0.164
-486.449	-118.679	0.027	-0.005
-485.435	185.306	-0.104	0.155
-484.420	339.683	-0.069	-0.134
-483.405	-118.243	-0.302	0.054
-482.391	-200.000	0.005	-0.220
-481.376	-175.985	-0.361	-0.010
-480.362	-200.000	-0.011	0.052
-479.347	557.760	-0.094	-0.227
-478.332	33.175	0.210	-0.183
-477.318	33.582	0.203	-0.177
-476.303	-164.613	0.233	-0.011
-475.289	-189.299	-0.203	0.002
-474.274	321.440	-0.023	0.044
-473.259	800.000	0.045	0.154
-472.245	-200.000	-0.042	0.196
-471.230	-26.108	-0.102	-0.060
-470.216	172.618	0.076	-0.110
-469.201	-90.422	0.158	-0.046
-468.186	-101.976	0.258	0.063
-467.172	-19.473	0.093	-0.058
-466.157	-200.000	-0.033	0.227
-465.143	54.538	0.150	0.145
-464.128	-56.054	0.160	0.072
-463.113	171.935	0.091	0.131
-462.099	392.343	0.049	0.102
-461.084	-59.486	-0.168	-0.072
-460.070	131.961	-0.292	0.376
-459.055	112.965	0.163	-0.198
-458.040	-97.135	-0.304	0.080
-457.026	-17.254	0.119	0.075
-456.011	-79.417	-0.266	-0.090
-454.997	71.370	0.109	-0.113
-453.982	98.228	-0.099	-0.115
-452.968	141.597	-0.126	-0.167
-451.953	-14.888	-0.237	0.152
-450.938	490.464	0.160	-0.368
-449.924	-200.000	0.030	-0.139
-448.909	-87.236	-0.354	-0.108
-447.895	800.000	0.065	-0.202
-446.880	471.412	-0.130	0.292
-445.865	727.082	0.062	-0.165
-444.851	6.765	-0.049	0.037
-443.836	-140.601	-0.076	0.008
-442.822	191.549	0.120	0.181
-441.807	58.929	0.067	0.066
-440.792	-50.639	0.373	0.176
-439.778	-33.400	0.092	-0.051
-438.763	-39.176	0.414	-0.218
-437.749	-200.000	-0.015	0.324
-436.734	800.000	0.066	-0.222
-435.719	-113.304	0.229	-0.045
-434.705	634.151	0.064	-0.163
-433.690	220.313	0.181	-0.290
-432.676	67.237	0.187	-0.190
-431.661	67.655	0.026	-0.027
-430.646	66.495	-0.345	-0.351
-429.632	800.000	0.081	0.228
-428.617	222.416	-0.139	-0.223
-427.603	-10.705	0.204	-0.135
-426.588	5.136	0.355	0.262
-425.573	-200.000	-0.065	0.543
-424.559	-88.875	-0.155	-0.046
-423.544	12.042	0.183	-0.141
-422.530	-7.749	0.199	0.135
-421.515	800.000	-0.049	-0.199
-420.500	31.533	-0.384	-0.330
-419.486	671.002	0.064	-0.165
-418.471	-149.858	-0.540	0.042
-417.457	-157.889	-0.167	0.010
-416.442	-48.207	0.255	0.123
-415.428	40.904	-0.229	0.206
-414.413	800.000	0.045	-0.168
-413.398	70.330	-0.146	-0.151
-412.384	800.000	0.069	-0.195
-411.369	280.191	-0.137	-0.245
-410.355	41.081	-0.260	-0.235
-409.340	631.558	-0.085	0.215
-408.325	800.000	-0.084	-0.359
-407.311	167.266	-0.095	0.135
-406.296	-66.570	0.295	0.117
-405.282	800.000	0.102	-0.350
-404.267	-89.113	0.067	0.020
-403.252	-82.994	0.183	0.059
-402.238	21.725	-0.029	-0.024
-401.223	-190.908	0.402	-0.004
-400.209	-68.090	-0.130	0.050
-399.194	-61.463	-0.369	-0.155
-398.179	-100.136	0.123	0.031
-397.165	-141.754	0.089	0.009
-396.150	-115.497	-0.251	-0.047
-395.136	168.522	-0.072	-0.102
-394.121	-31.685	0.440	0.247
-393.106	-28.079	-0.007	-0.004
-392.092	-200.000	0.002	0.095
-391.077	89.051	0.178	-0.198
-390.063	167.746	0.100	0.142
-389.048	93.157	0.089	0.101
-388.033	84.264	-0.182	-0.199
-387.019	-170.888	-0.453	0.016
-386.004	348.165	0.118	0.233
-384.990	-19.011	-0.134	0.083
-383.975	345.822	0.043	-0.085
-382.960	-55.219	0.146	-0.066
-381.946	235.401	-0.079	-0.130
-380.931	21.998	0.164	-0.134
-379.917	-106.748	0.165	0.037
-378.902	671.812	-0.009	-0.022
-377.888	-31.186	0.350	-0.197
-376.873	-61.998	0.096	-0.040
-375.858	129.607	-0.169	-0.216
-374.844	186.978	0.034	0.051
-373.829	200.837	0.267	0.409
-372.815	419.839	-0.091	0.194
-371.800	800.000	0.055	0.186
-370.785	-200.000	0.018	0.093
-369.771	239.660	-0.093	-0.155
-368.756	-79.107	-0.095	0.032
-367.742	-179.524	-0.144	0.003
-366.727	-89.013	0.374	0.110
-365.712	78.766	0.225	-0.241
-364.698	515.674	-0.160	0.374
-363.683	-200.000	0.027	0.222
-362.669	64.518	0.219	-0.220
-361.654	-200.000	-0.011	0.100
-360.639	-200.000	0.031	-0.181
-359.625	0.417	-0.293	-0.209
-358.610	800.000	0.044	-0.144
-357.596	-93.265	-0.234	0.065
-356.581	-200.000	-0.022	-0.110
-355.566	-57.793	0.246	-0.107
-354.552	75.702	-0.046	0.049
-353.537	-200.000	0.004	0.058
-352.523	236.131	0.167	0.276
-351.508	800.000	0.032	-0.092
-350.493	-200.000	0.018	0.088
-349.479	-106.734	0.247	0.055
-348.464	11.536	-0.173	0.132
-347.450	800.000	-0.042	0.143
-346.435	307.704	0.055	-0.102
-345.420	-150.706	0.496	0.038
-344.406	-47.619	0.147	0.071
-343.391	-20.726	-0.197	-0.121
-342.377	119.793	-0.237	-0.293
-341.362	-200.000	0.005	0.098
-340.348	-200.000	0.001	0.037
-339.333	-63.285	-0.313	-0.129
-338.318	-200.000	0.033	-0.457
-337.304	772.128	0.063	0.170
-336.289	-181.313	-0.170	0.003
-335.275	98.188	0.018	0.021
-334.260	20.174	0.042	0.034
-333.245	-1.362	-0.164	0.115
-332.231	-164.955	-0.272	0.012
-331.216	-56.751	-0.235	-0.103
-330.202	-5.142	0.257	-0.176
-329.187	239.869	-0.197	0.327
-328.172	7.425	0.207	-0.154
-327.158	-19.542	-0.294	-0.181
-326.143	541.006	-0.145	0.344
-325.129	250.081	0.041	0.070
-324.114	-4.672	0.178	-0.123
-323.099	-138.344	0.098	-0.011
-322.085	-117.908	-0.279	-0.050
-321.070	465.124	0.049	-0.110
-320.056	-39.996	0.197	0.102
-319.041	-148.169	-0.214	-0.018
-318.026	89.132	0.108	-0.120
-317.012	123.781	-0.202	-0.253
-315.997	395.290	-0.052	-0.108
-314.983	-82.175	-0.248	-0.080
-313.968	800.000	-0.079	0.263
-312.953	197.932	0.048	-0.073
-311.939	800.000	0.006	0.018
-310.924	-169.050	-0.264	0.010
-309.910	222.272	-0.120	0.192
-308.895	800.000	0.098	0.368
-307.880	-15.699	0.111	-0.070
-306.866	-25.370	0.160	0.094
-305.851	196.076	0.102	0.155
-304.837	-20.152	-0.133	-0.082
-303.822	-138.427	-0.255	0.028
-302.807	-200.000	0.010	-0.251
-301.793	-21.645	0.093	-0.056
-300.778	183.636	0.249	0.366
-299.764	-58.355	-0.111	0.048
-298.749	709.640	-0.111	-0.292
-297.735	324.639	-0.061	-0.117
-296.720	-76.533	0.211	0.074
-295.705	-43.409	0.176	-0.089
-294.691	161.499	0.074	0.103
-293.676	464.589	0.166	0.369
-292.662	155.766	-0.194	0.267
-291.647	97.836	0.196	-0.224
-290.632	-88.955	-0.153	-0.045
-289.618	403.234	0.160	-0.335
-288.603	733.142	-0.073	0.196
-287.589	-125.379	-0.237	-0.036
-286.574	-200.000	-0.022	-0.232
-285.559	-110.400	0.376	0.078
-284.545	800.000	0.072	0.271
-283.530	-21.368	-0.079	0.048
-282.516	-180.978	-0.058	-0.001
-281.501	800.000	-0.039	-0.160
-280.486	240.734	0.155	-0.257
-279.472	-69.157	-0.240	-0.092
-278.457	800.000	-0.076	-0.254
-277.443	800.000	-0.089	0.289
-276.428	-59.124	-0.067	0.029
-275.413	712.271	-0.045	-0.120
-274.399	146.616	-0.116	0.155
-273.384	-200.000	-0.026	0.119
-272.370	800.000	-0.016	0.058
-271.355	-156.392	-0.307	0.019
-270.340	199.634	-0.187	-0.285
-269.326	-176.827	0.067	-0.002
-268.311	425.903	0.031	0.066
-267.297	65.242	-0.215	-0.216
-266.282	188.466	-0.100	-0.149
-265.267	-1.909	-0.095	0.066
-264.253	-173.518	0.189	0.006
-263.238	-11.750	0.126	0.082
-262.224	20.406	0.027	-0.022
-261.209	800.000	-0.013	-0.042
-260.195	800.000	-0.088	0.273
-259.180	-23.506	0.197	-0.118
-258.165	350.436	0.080	-0.157
-257.151	99.473	0.076	0.088
-256.136	-100.967	0.658	0.160
-255.122	571.953	-0.110	-0.266
-254.107	23.326	0.170	-0.139
-253.092	5.532	0.265	0.194
-252.078	-200.000	0.045	-0.387
-251.063	-133.800	-0.192	0.024
-250.049	-84.240	-0.142	-0.045
-249.034	10.403	0.191	-0.145
-248.019	-200.000	0.017	-0.145
-247.005	490.859	-0.048	0.110
-245.990	21.531	0.453	-0.366
-244.976	800.000	-0.137	0.388
-243.961	5.211	0.399	0.292
-242.946	247.059	0.095	-0.159
-241.932	800.000	-0.156	-0.482
-240.917	116.984	-0.154	0.188
-239.903	94.183	-0.227	0.256
-238.888	151.178	-0.117	-0.158
-237.873	355.329	0.022	-0.044
-236.859	-58.048	-0.105	-0.046
-235.844	800.000	-0.081	-0.250
-234.830	-8.106	-0.237	-0.158
-233.815	477.061	-0.013	-0.030
-232.800	129.407	0.141	-0.179
-231.786	800.000	0.143	0.502
-230.771	-169.842	0.334	-0.012
-229.757	-55.333	0.299	0.133
-228.742	-12.690	0.066	-0.042
-227.727	-60.912	0.159	0.067
-226.713	158.696	0.084	-0.116
-225.698	-59.336	0.113	-0.048
-224.684	-76.870	0.253	-0.088
-223.669	603.858	-0.075	-0.185
-222.655	162.762	0.114	-0.159
-221.640	-74.286	-0.300	0.108
-220.625	140.197	-0.108	0.142
-219.611	800.000	0.120	0.366
-218.596	-200.000	0.005	-0.235
-217.582	-156.544	-0.141	-0.009
-216.567	242.289	0.015	0.025
-215.552	-0.780	0.082	-0.058
-214.538	-17.163	-0.318	0.199
-213.523	-21.006	0.307	0.187
-212.509	-23.550	-0.048	-0.028
-211.494	-1.374	0.245	-0.172
-210.479	-183.250	-0.302	0.005
-209.465	-200.000	-0.017	0.218
-208.450	-73.489	0.106	-0.038
-207.436	791.134	0.037	-0.100
-206.421	285.367	-0.033	-0.058
-205.406	9.614	-0.194	0.146
-204.392	315.205	0.046	0.086
-203.377	167.278	0.139	-0.196
-202.363	-200.000	0.040	0.261
-201.348	-177.335	0.211	-0.005
-200.333	-4.538	0.319	-0.219
-199.319	171.474	0.199	0.283
-198.304	143.824	-0.094	0.124
-197.290	800.000	0.088	0.256
-196.275	647.727	-0.068	-0.173
-195.260	20.892	-0.055	-0.044
-194.246	603.079	0.054	-0.133
-193.231	-200.000	0.015	-0.163
-192.217	-86.842	0.217	0.066
-191.202	-19.246	-0.050	-0.031
-190.187	800.000	-0.039	0.161
-189.173	-54.405	-0.057	0.026
-188.158	-30.595	0.209	0.117
-187.144	-200.000	0.013	-0.083
-186.129	16.649	0.239	-0.188
-185.114	-102.087	0.316	-0.075
-184.100	-93.051	0.298	-0.082
-183.085	-200.000	0.012	-0.107
-182.071	-200.000	0.027	-0.229
-181.056	-200.000	-0.012	0.454
-180.042	291.925	-0.085	0.153
-179.027	105.108	-0.070	0.082
-178.012	-103.052	-0.153	0.036
-176.998	-154.843	0.141	0.009
-175.983	-89.082	0.185	0.054
-174.969	186.829	-0.130	0.191
-173.954	-166.221	0.150	-0.006
-172.939	-58.094	0.238	0.103
-171.925	10.750	-0.064	-0.048
-170.910	-88.102	-0.477	0.142
-169.896	18.501	-0.254	0.201
-168.881	800.000	-0.039	-0.123
-167.866	-200.000	-0.414	0.002
-166.852	-149.349	-0.108	0.008
-165.837	800.000	-0.085	0.261
-164.823	140.057	-0.086	0.113
-163.808	166.363	0.102	0.142
-162.793	172.340	0.077	-0.110
-161.779	43.284	0.157	-0.142
-160.764	-200.000	0.033	0.371
-159.750	800.000	-0.135	-0.375
-158.735	-200.000	-0.043	-0.234
-157.720	-102.502	0.134	0.032
-156.706	-144.530	-0.212	-0.019
-155.691	-115.443	0.269	0.050
-154.677	44.818	0.034	0.031
-153.662	516.600	-0.146	0.337
-152.647	-200.000	-0.066	0.293
-151.633	-52.255	-0.340	0.156
-150.618	-200.000	0.002	0.270
-149.604	-200.000	0.006	0.101
-148.589	-97.092	0.142	0.037
-147.574	-29.093	0.074	-0.042
-146.560	112.465	-0.034	-0.041
-145.545	-58.392	-0.074	-0.032
-144.531	-172.082	0.180	-0.006
-143.516	-118.199	0.089	0.016
-142.502	-98.307	-0.454	-0.115
-141.487	-200.000	0.017	0.185
-140.472	773.005	0.073	-0.198
-139.458	122.706	0.224	-0.277
-138.443	-154.529	-0.438	0.029
-137.429	800.000	0.102	0.354
-136.414	106.012	0.159	0.186
-135.399	-87.383	-0.122	0.037
-134.385	148.655	-0.206	0.275
-133.370	-200.000	-0.010	-0.292
-132.356	-61.381	0.347	0.144
-131.341	-144.038	-0.039	-0.004
-130.326	25.454	-0.019	0.016
-129.312	354.897	-0.043	-0.084
-128.297	158.563	0.276	0.379
-127.283	-200.000	0.069	0.394
-126.268	207.408	-0.160	-0.246
-125.253	-68.456	0.118	-0.045
-124.239	-16.733	-0.163	0.102
-123.224	-81.486	-0.074	0.024
-122.210	698.487	0.039	-0.102
-121.195	-84.542	0.072	-0.022
-120.180	106.249	0.171	-0.201
-119.166	-200.000	-0.026	-0.270
-118.151	-200.000	0.007	0.112
-117.137	-95.371	-0.281	-0.075
-116.122	-200.000	0.005	-0.129
-115.107	-21.383	-0.103	0.062
-114.093	-92.652	-0.150	-0.042
-113.078	-129.846	-0.216	-0.029
-112.064	210.946	-0.075	0.116
-111.049	349.513	-0.073	-0.142
-110.034	-154.647	0.137	-0.009
-109.020	-94.612	-0.150	-0.040
-108.005	-97.106	-0.419	0.108
-106.991	492.800	0.141	-0.318
-105.976	547.403	0.043	-0.101
-104.962	-200.000	0.018	-0.084
-103.947	594.767	0.079	0.192
-102.932	23.687	0.066	-0.054
-101.918	-36.144	0.238	0.127
-100.903	800.000	-0.041	0.145
-99.889	12.948	-0.350	0.268
-98.874	118.234	0.226	-0.276
-97.859	-126.640	-0.333	0.049
-96.845	800.000	0.062	-0.179
-95.830	139.609	0.052	0.068
-94.816	-99.512	0.437	-0.108
-93.801	15.247	-0.312	-0.242
-92.786	-95.669	0.332	0.088
-91.772	-200.000	-0.040	0.189
-90.757	98.402	-0.184	0.209
-89.743	-128.453	0.073	-0.010
-88.728	39.088	-0.230	-0.203
-87.713	-92.362	-0.053	0.015
-86.699	-84.925	-0.314	0.097
-85.684	-90.548	-0.128	-0.036
-84.670	334.083	-0.109	-0.208
-83.655	-34.028	0.218	-0.119
-82.640	179.227	0.268	0.387
-81.626	-200.000	0.008	0.208
-80.611	-99.416	-0.095	0.024
-79.597	143.777	-0.081	-0.106
-78.582	-37.654	0.230	-0.121
-77.567	-200.000	0.041	0.226
-76.553	111.823	-0.186	0.221
-75.538	-186.668	-0.194	0.003
-74.524	-34.225	0.089	0.048
-73.509	88.206	0.280	-0.307
-72.494	531.135	0.060	-0.140
-71.480	-200.000	-0.002	0.120
-70.465	-133.900	-0.330	-0.040
-69.451	86.867	-0.277	-0.302
-68.436	249.717	-0.138	-0.232
-67.422	800.000	-0.048	0.140
-66.407	-77.001	0.311	0.107
-65.392	-156.193	0.186	-0.012
-64.378	588.470	-0.019	-0.046
-63.363	-87.029	-0.391	0.118
-62.349	-140.370	-0.453	0.047
-61.334	83.975	-0.870	-0.937
-60.319	145.875	0.235	0.311
-59.305	800.000	-0.173	-0.648
-58.290	254.265	0.358	0.604
-57.276	153.738	0.830	1.121
-56.261	-200.000	90.450	503.859
-55.246	550.775	1378.321	3261.511
-54.232	183.013	2633.145	3834.029
-53.217	112.215	2347.642	2798.994
-52.203	45.778	1960.052	1787.006
-51.188	40.040	1744.342	1545.586
-50.173	37.224	1699.457	1484.266
-49.159	52.213	1745.461	1640.895
-48.144	55.796	1763.521	1685.581
-47.130	39.699	1720.914	1521.955
-46.115	36.878	1705.581	1486.721
-45.100	36.619	1701.134	1480.806
-44.086	36.665	1698.074	1478.435
-43.071	36.616	1695.199	1475.497
-42.057	36.588	1692.774	1473.115
-41.042	36.620	1690.864	1471.634
-40.027	36.698	1689.068	1470.609
-39.013	36.623	1687.030	1468.208
-37.998	36.586	1685.184	1466.257
-36.984	36.607	1683.649	1465.025
-35.969	36.744	1682.379	1464.901
-34.954	36.836	1680.627	1464.010
-33.940	36.734	1678.888	1461.665
-32.925	36.752	1676.674	1459.818
-31.911	36.837	1675.235	1459.153
-30.896	36.754	1673.589	1457.029
-29.881	36.701	1672.005	1455.194
-28.867	36.685	1670.354	1453.583
-27.852	36.886	1668.583	1453.492
-26.838	36.875	1666.832	1451.828
-25.823	36.870	1665.564	1450.625
-24.809	36.816	1664.551	1449.284
-23.794	36.840	1662.597	1447.702
-22.779	36.839	1661.288	1446.498
-21.765	36.842	1659.480	1444.891
-20.750	36.861	1657.604	1443.341
-19.736	36.852	1656.530	1442.278
-18.721	36.827	1655.051	1440.751
-17.706	36.893	1653.232	1439.600
-16.692	36.787	1652.058	1437.737
-15.677	36.772	1650.863	1436.524
-14.663	36.793	1649.407	1435.359
-13.648	36.874	1647.217	1433.991
-12.633	36.802	1646.409	1432.696
-11.619	36.885	1644.320	1431.442
-10.604	36.782	1642.842	1429.332
-9.590	36.760	1641.853	1428.258
-8.575	36.755	1640.291	1426.805
-7.560	36.728	1639.426	1425.794
-6.546	36.825	1637.706	1424.957
-5.531	36.793	1637.090	1424.131
-4.517	36.850	1635.526	1423.131
-3.502	36.845	1634.536	1422.178
-2.487	36.889	1632.824	1420.953
-1.473	36.428	1620.568	1406.876
-0.458	33.058	1598.499	1363.394
0.556	26.203	1596.745	1321.952
1.571	23.410	1620.354	1320.601
2.586	22.589	1634.853	1326.123
3.600	20.355	1581.797	1266.698
4.615	11.011	1466.545	1110.793
5.629	1.757	1395.460	996.528
6.644	-0.182	1386.032	977.098
7.659	-0.258	1384.155	975.195
8.673	-0.448	1383.673	973.533
9.688	-0.352	1381.430	972.492
10.702	-0.532	1378.525	969.194
11.717	2.727	1385.916	995.484
12.731	12.074	1403.339	1069.105
13.746	17.891	1412.760	1114.268
14.761	17.837	1411.765	1113.029
15.775	17.785	1410.776	1111.812
16.790	17.795	1410.034	1111.198
17.804	17.860	1409.288	1110.932
18.819	17.982	1409.450	1111.756
19.834	18.078	1408.707	1111.699
20.848	18.033	1407.879	1110.651
21.863	18.070	1406.778	1109.927
22.877	18.043	1406.101	1109.118
23.892	17.968	1405.367	1107.951
24.907	18.133	1403.880	1107.753
25.921	18.087	1403.212	1106.832
26.936	18.089	1402.383	1106.091
27.950	18.123	1400.778	1104.949
28.965	18.073	1399.739	1103.706
29.980	18.135	1397.968	1102.612
30.994	18.042	1397.400	1101.467
32.009	18.008	1396.273	1100.260
33.023	18.067	1395.082	1099.607
34.038	18.119	1393.555	1098.639
35.053	18.083	1392.777	1097.699
36.067	18.052	1391.656	1096.521
37.082	18.038	1390.908	1095.741
38.096	18.116	1389.224	1094.820
39.111	18.058	1388.642	1093.889
40.126	18.042	1387.984	1093.173
41.140	18.064	1387.405	1092.763
42.155	18.096	1387.163	1092.679
43.169	18.180	1386.519	1092.610
44.184	18.064	1386.481	1091.746
45.199	18.078	1386.148	1091.477
46.213	18.069	1385.181	1090.561
47.228	18.058	1384.333	1089.724
48.242	18.121	1382.784	1088.812
49.257	18.122	1381.474	1087.689
50.271	18.126	1379.986	1086.444
51.286	17.977	1379.176	1084.768
52.301	18.045	1377.629	1083.887
53.315	18.010	1376.695	1082.829
54.330	18.037	1375.970	1082.340
55.344	18.078	1374.941	1081.690
56.359	18.160	1373.385	1080.892
57.374	18.090	1372.470	1079.633
58.388	17.977	1372.215	1078.624
59.403	18.037	1371.572	1078.400
60.417	18.006	1370.882	1077.565
61.432	18.074	1369.928	1077.152
62.447	18.179	1369.056	1077.032
63.461	18.052	1367.536	1074.943
64.476	18.087	1366.431	1074.200
65.490	18.134	1365.196	1073.428
66.505	18.064	1363.234	1071.351
67.520	18.097	1362.367	1070.780
68.534	18.148	1361.147	1070.045
69.549	18.106	1360.135	1068.891
70.563	18.074	1359.247	1067.900
71.578	18.073	1358.423	1067.152
72.593	18.072	1357.465	1066.301
73.607	18.104	1356.310	1065.497
74.622	18.067	1356.070	1064.984
75.636	18.071	1355.036	1064.105
76.651	18.196	1353.670	1063.710
77.666	18.091	1353.544	1062.870
78.680	18.095	1352.949	1062.331
79.695	18.084	1352.076	1061.484
80.709	18.142	1351.324	1061.158
81.724	18.184	1350.126	1060.383
82.739	18.096	1349.151	1058.977
83.753	18.036	1348.234	1057.797
84.768	18.070	1347.029	1056.968
85.782	18.106	1345.313	1055.747
86.797	18.157	1344.280	1055.159
87.812	18.101	1343.263	1053.922
88.826	18.120	1341.822	1052.818
89.841	18.157	1340.736	1052.100
90.855	18.106	1339.688	1050.869
91.870	18.149	1339.154	1050.622
92.884	18.076	1338.202	1049.332
93.899	18.137	1337.471	1049.042
94.914	18.217	1336.327	1048.539
95.928	18.156	1335.455	1047.393
96.943	18.104	1335.065	1046.673
97.957	18.230	1334.020	1046.536
98.972	18.171	1332.926	1045.222
99.987	18.173	1331.933	1044.362
101.001	18.176	1330.972	1043.533
102.016	18.090	1330.214	1042.324
103.030	18.127	1328.830	1041.374
104.045	18.154	1327.666	1040.531
105.060	18.184	1326.555	1039.753
106.074	18.169	1325.494	1038.738
107.089	18.220	1324.134	1037.892
108.103	18.196	1322.616	1036.464
109.118	18.279	1321.548	1036.033
110.133	18.238	1320.511	1034.881
111.147	18.267	1319.251	1033.982
112.162	18.147	1318.332	1032.442
113.176	18.166	1316.957	1031.388
114.191	18.282	1315.347	1030.739
115.206	18.203	1314.699	1029.662
116.220	18.203	1313.373	1028.532
117.235	18.213	1312.380	1027.726
118.249	18.202	1311.294	1026.713
119.264	18.195	1310.454	1025.926
120.279	18.215	1309.478	1025.190
121.293	18.280	1308.227	1024.512
122.308	18.277	1307.320	1023.693
123.322	18.260	1306.012	1022.475
124.337	18.290	1305.195	1021.926
125.352	18.194	1304.171	1020.456
126.366	18.242	1302.977	1019.722
127.381	18.271	1302.036	1019.068
128.395	18.241	1300.797	1017.828
129.410	18.348	1299.887	1017.665
130.424	18.255	1299.674	1016.855
131.439	18.330	1298.152	1016.016
132.454	18.233	1297.000	1014.450
133.468	18.350	1296.435	1014.610
134.483	18.165	1295.850	1012.968
135.497	18.298	1294.560	1012.658
136.512	18.280	1293.391	1011.545
137.527	18.174	1292.486	1010.124
138.541	18.185	1290.923	1008.876
139.556	18.239	1289.181	1007.746
140.570	18.268	1287.872	1006.805
141.585	18.225	1286.557	1005.434
142.600	18.265	1285.755	1004.950
143.614	18.199	1284.481	1003.483
144.629	18.323	1283.163	1003.087
145.643	18.055	1282.701	1001.069
146.658	18.201	1281.399	1000.817
147.673	18.206	1280.178	999.807
148.687	18.176	1279.104	998.703
149.702	18.199	1277.834	997.760
150.716	18.213	1276.340	996.585
151.731	18.215	1275.450	995.810
152.746	18.213	1274.228	994.761
153.760	18.283	1273.029	994.142
154.775	18.290	1272.022	993.307
155.789	18.225	1270.918	991.984
156.804	18.132	1270.275	990.854
157.819	18.289	1269.283	990.901
158.833	18.242	1268.394	989.848
159.848	18.254	1267.268	988.951
160.862	18.355	1266.123	988.550
161.877	18.304	1265.495	987.680
162.892	18.220	1264.635	986.438
163.906	18.387	1263.331	986.292
164.921	18.287	1262.794	985.213
165.935	18.325	1262.174	984.862
166.950	18.406	1261.495	984.706
167.964	18.300	1260.875	983.530
168.979	18.249	1260.172	982.598
169.994	18.274	1259.692	982.282
171.008	18.464	1258.384	982.267
172.023	18.437	1257.509	981.337
173.037	18.377	1257.015	980.527
174.052	18.284	1256.538	979.535
175.067	18.346	1255.545	979.028
176.081	18.311	1254.834	978.185
177.096	18.321	1253.928	977.450
178.110	18.360	1252.556	976.518
179.125	18.259	1252.236	975.603
180.140	18.308	1250.905	974.760
181.154	18.337	1249.344	973.622
182.169	18.318	1248.666	972.903
183.183	18.350	1247.540	972.117
184.198	18.301	1246.516	970.955
185.213	18.390	1245.396	970.502
186.227	18.446	1244.006	969.652
187.242	18.374	1243.465	968.733
188.256	18.372	1242.590	967.956
189.271	18.416	1242.016	967.675
190.286	18.416	1240.959	966.766
191.300	18.342	1240.485	965.890
192.315	18.394	1240.066	965.775
193.329	18.405	1239.102	964.998
194.344	18.561	1238.689	965.471
195.359	18.498	1238.295	964.725
196.373	18.407	1237.491	963.497
197.388	18.343	1237.379	962.970
198.402	18.283	1236.846	962.128
199.417	18.447	1236.384	962.605
200.432	18.476	1235.443	961.954
201.446	18.465	1234.760	961.271
202.461	18.432	1233.747	960.213
203.475	18.337	1233.072	959.075
204.490	18.568	1231.331	958.924
205.504	18.551	1230.658	958.219
206.519	18.474	1230.145	957.306
207.534	18.464	1228.775	956.103
208.548	18.472	1227.908	955.384
209.563	18.399	1227.455	954.543
210.577	18.449	1226.448	953.950
211.592	18.526	1225.452	953.520
212.607	18.502	1224.602	952.643
213.621	18.473	1224.301	952.162
214.636	18.621	1222.910	951.818
215.650	18.575	1222.192	950.922
216.665	18.526	1221.357	949.916
217.680	18.505	1220.516	949.060
218.694	18.648	1219.678	949.114
219.709	18.509	1219.278	947.953
220.723	18.631	1218.509	947.943
221.738	18.549	1217.782	946.842
222.753	18.503	1216.701	945.666
223.767	18.592	1216.250	945.723
224.782	18.699	1215.105	945.337
225.796	18.609	1215.020	944.689
226.811	18.472	1214.628	943.546
227.826	18.577	1214.151	943.673
228.840	18.625	1213.120	943.049
229.855	18.692	1212.442	942.807
230.869	18.618	1211.941	941.930
231.884	18.533	1211.622	941.133
232.899	18.475	1210.540	939.888
233.913	18.602	1210.286	940.304
234.928	18.646	1209.662	939.979
235.942	18.696	1208.997	939.652
236.957	18.704	1207.981	938.822
237.972	18.622	1207.225	937.702
238.986	18.617	1206.879	937.326
240.001	18.700	1206.166	937.142
241.015	18.773	1204.907	936.478
242.030	18.762	1204.243	935.820
243.045	18.709	1203.718	935.042
244.059	18.750	1202.909	934.553
245.074	18.808	1201.655	933.811
246.088	18.853	1200.906	933.393
247.103	18.819	1200.342	932.683
248.117	18.815	1199.341	931.802
249.132	18.869	1198.518	931.375
250.147	18.943	1197.911	931.219
251.161	18.861	1197.100	930.066
252.176	18.826	1196.331	929.194
253.190	18.825	1195.858	928.739
254.205	18.861	1195.065	928.238
255.220	18.751	1194.852	927.395
256.234	18.871	1194.391	927.602
257.249	18.908	1193.640	927.136
258.263	18.860	1192.951	926.259
259.278	18.834	1192.918	926.014
260.293	18.898	1192.060	925.611
261.307	18.782	1191.605	924.552
262.322	18.974	1190.559	924.691
263.336	18.944	1189.847	923.892
264.351	18.963	1189.378	923.550
265.366	18.841	1188.853	922.403
266.380	18.902	1187.880	921.894
267.395	18.922	1187.143	921.351
268.409	18.846	1186.755	920.560
269.424	18.890	1185.882	920.038
270.439	18.957	1185.299	919.860
271.453	18.873	1184.897	919.021
272.468	18.954	1183.956	918.641
273.482	18.886	1183.290	917.681
274.497	18.917	1182.804	917.386
275.512	18.874	1182.371	916.742
276.526	18.987	1181.235	916.381
277.541	19.003	1180.599	915.889
278.555	19.000	1179.984	915.315
279.570	19.088	1179.170	915.071
280.585	18.923	1178.165	913.334
281.599	19.010	1177.310	913.051
282.614	18.940	1176.744	912.163
283.628	19.006	1175.496	911.464
284.643	19.155	1174.569	911.451
285.657	19.050	1173.831	910.245
286.672	19.024	1173.395	909.688
287.687	18.957	1172.521	908.574
288.701	19.056	1171.645	908.339
289.716	19.119	1170.912	908.025
290.730	19.188	1170.174	907.735
291.745	19.068	1169.496	906.496
292.760	19.152	1169.448	906.821
293.774	19.092	1168.687	905.833
294.789	19.183	1167.842	905.577
295.803	19.101	1167.478	904.782
296.818	19.113	1166.567	904.063
297.833	19.259	1165.694	904.072
298.847	19.202	1164.965	903.126
299.862	19.236	1164.018	902.490
300.876	19.234	1163.178	901.751
301.891	19.267	1162.746	901.509
302.906	19.270	1162.211	901.028
303.920	19.331	1161.412	900.649
304.935	19.377	1160.674	900.237
305.949	19.198	1160.406	899.014
306.964	19.244	1159.489	898.463
307.979	19.131	1159.380	897.709
308.993	19.321	1158.334	897.809
310.008	19.279	1157.639	896.976
311.022	19.346	1156.974	896.728
312.037	19.294	1155.851	895.509
313.052	19.263	1154.967	894.582
314.066	19.257	1154.119	893.818
315.081	19.399	1153.501	893.993
316.095	19.345	1152.631	892.961
317.110	19.504	1152.210	893.379
318.125	19.317	1151.657	891.905
319.139	19.352	1150.649	891.225
320.154	19.319	1150.542	890.892
321.168	19.463	1149.431	890.698
322.183	19.303	1149.001	889.459
323.197	19.416	1148.444	889.532
324.212	19.403	1147.662	888.780
325.227	19.324	1147.679	888.309
326.241	19.425	1146.797	888.068
327.256	19.513	1145.797	887.668
328.270	19.509	1144.792	886.787
329.285	19.383	1144.341	885.714
330.300	19.440	1143.346	885.159
331.314	19.485	1142.334	884.530
332.329	19.507	1141.343	883.796
333.343	19.452	1140.988	883.158
334.358	19.511	1140.256	882.819
335.373	19.435	1139.826	882.018
336.387	19.586	1138.305	881.534
337.402	19.594	1138.045	881.294
338.416	19.561	1137.171	880.373
339.431	19.569	1136.483	879.801
340.446	19.554	1136.179	879.410
341.460	19.542	1135.426	878.690
342.475	19.623	1134.051	877.959
343.489	19.667	1133.517	877.694
344.504	19.575	1132.669	876.493
345.519	19.691	1131.456	876.061
346.533	19.493	1131.244	874.817
347.548	19.614	1130.281	874.608
348.562	19.614	1129.323	873.791
349.577	19.769	1128.670	873.992
350.592	19.713	1127.896	873.030
351.606	19.678	1127.288	872.308
352.621	19.621	1127.080	871.780
353.635	19.674	1126.235	871.319
354.650	19.646	1125.648	870.645
355.665	19.729	1124.642	870.208
356.679	19.758	1124.370	870.066
357.694	19.665	1124.106	869.318
358.708	19.701	1123.193	868.717
359.723	19.741	1122.213	868.083
360.738	19.811	1121.168	867.549
361.752	19.792	1120.754	867.055
362.767	19.827	1120.726	867.133
363.781	19.746	1120.216	866.255
364.796	19.844	1119.524	866.134
365.810	19.749	1118.901	865.098
366.825	19.870	1118.081	864.994
367.840	19.921	1117.764	864.928
368.854	19.948	1116.809	864.246
369.869	19.995	1116.057	863.824
370.883	19.965	1115.364	863.063
371.898	19.936	1114.723	862.342
372.913	19.897	1113.940	861.465
373.927	19.951	1113.884	861.617
374.942	19.936	1113.485	861.156
375.956	19.867	1112.646	860.088
376.971	19.912	1112.238	859.920
377.986	19.926	1112.055	859.773
379.000	19.926	1111.361	859.158
380.015	19.993	1110.810	858.993
381.029	19.956	1109.360	857.609
382.044	20.033	1108.657	857.374
383.059	19.995	1108.474	856.966
384.073	20.059	1107.914	856.775
385.088	20.060	1106.755	855.808
386.102	20.051	1105.856	854.992
387.117	20.103	1105.021	854.527
388.132	19.969	1104.614	853.474
389.146	20.075	1103.641	853.170
390.161	20.104	1102.878	852.651
391.175	20.130	1102.118	852.114
392.190	20.080	1101.682	851.455
393.205	20.016	1100.613	850.241
394.219	20.095	1099.912	850.012
395.234	20.210	1098.934	849.740
396.248	20.169	1098.233	848.924
397.263	20.181	1097.371	848.241
398.278	20.058	1096.850	847.165
399.292	20.269	1095.843	847.341
400.307	20.262	1095.144	846.692
401.321	20.258	1094.672	846.229
402.336	20.153	1094.076	845.183
403.350	20.316	1092.883	844.983
404.365	20.312	1092.377	844.496
405.380	20.298	1091.548	843.715
406.394	20.347	1091.064	843.503
407.409	20.299	1090.399	842.679
408.423	20.292	1089.516	841.890
409.438	20.384	1088.741	841.661
410.453	20.249	1088.277	840.574
411.467	20.320	1087.122	839.950
412.482	20.465	1086.300	839.944
413.496	20.286	1085.823	838.636
414.511	20.378	1085.193	838.520
415.526	20.357	1084.851	838.077
416.540	20.458	1084.239	838.020
417.555	20.418	1083.530	837.204
418.569	20.328	1083.605	836.754
419.584	20.398	1083.099	836.625
420.599	20.429	1082.654	836.359
421.613	145.700	1395.359	1786.878
422.628	134.693	1440.916	1786.997
