DTS Sentinel unit serial number:	SN413079Multiplexer serial number:	ORYXHardware model number:	OX4-SRSoftware version number:	ORYX F/W v4.00 Oryx Data Collector v3.7.2.0data status	okinstallation	princeton_trtdifferential loss correction	single-endedforward channel	channel 2reverse channel	N/Adate	2019/09/16time	05:59:35forward acquisition time	60.00reverse acquisition time	0.00gamma	496.2192k internal	0.2334k external	0.2334temperature offset calibration	0.9976default loss term (dB/km)	0.3790temperature slope calibration	1.0000multiplexer offset coefficient	1.0000multiplexer slope coefficient	1.0000fibre end	0.00T internal ref (°C)	27.44T ext. ref 1 (°C)	11.25T ext. ref 2 (°C)	22.13length (m)	temperature (°C)	Stokes	anti-Stokes-747.200	-48.620	-0.172	0.083
-746.185	153.594	-0.187	0.258
-745.171	-200.000	0.039	0.190
-744.156	77.117	-0.122	-0.131
-743.142	-97.595	0.276	-0.072
-742.127	800.000	-0.174	0.672
-741.112	-91.655	0.053	0.015
-740.098	-4.075	0.193	0.134
-739.083	-30.306	-0.309	-0.176
-738.069	160.521	-0.045	-0.063
-737.054	-200.000	0.040	0.444
-736.039	28.230	-0.278	-0.236
-735.025	-100.783	0.071	-0.018
-734.010	-33.366	-0.094	0.052
-732.996	-147.939	-0.143	-0.012
-731.981	-200.000	-0.039	-0.213
-730.966	92.477	-0.099	0.112
-729.952	-200.000	-0.005	-0.154
-728.937	-47.767	-0.119	-0.058
-727.923	-20.551	-0.341	-0.210
-726.908	66.440	0.147	0.150
-725.894	16.253	-0.086	0.068
-724.879	66.275	-0.240	0.245
-723.864	161.161	-0.081	-0.114
-722.850	-131.411	-0.213	0.028
-721.835	124.193	0.091	0.115
-720.821	108.664	0.060	0.072
-719.806	-41.887	0.031	-0.016
-718.791	-27.582	0.393	-0.229
-717.777	37.696	0.201	-0.179
-716.762	-75.319	-0.222	0.080
-715.748	49.872	0.136	-0.129
-714.733	-81.676	0.275	0.091
-713.718	208.547	0.125	-0.196
-712.704	-94.428	0.190	-0.052
-711.689	478.120	-0.063	0.144
-710.675	358.261	-0.113	-0.227
-709.660	-32.583	0.192	-0.108
-708.645	-84.618	-0.177	-0.056
-707.631	-36.446	0.050	-0.027
-706.616	54.612	-0.062	-0.060
-705.602	115.777	-0.186	-0.228
-704.587	113.164	0.089	-0.108
-703.572	-115.158	0.143	0.027
-702.558	-200.000	0.003	0.317
-701.543	-172.320	0.407	0.013
-700.529	-52.124	0.036	0.017
-699.514	-200.000	0.020	-0.142
-698.499	29.343	0.173	0.148
-697.485	126.910	0.310	0.394
-696.470	800.000	-0.018	-0.057
-695.456	-200.000	0.050	0.243
-694.441	433.680	0.062	-0.135
-693.426	-113.640	-0.077	-0.015
-692.412	264.185	0.092	0.160
-691.397	-110.432	-0.085	0.018
-690.383	-158.051	0.087	-0.005
-689.368	-139.031	0.401	0.044
-688.354	-200.000	0.044	-0.343
-687.339	-142.882	-0.145	-0.014
-686.324	-200.000	-0.020	-0.101
-685.310	28.905	-0.119	0.101
-684.295	800.000	0.119	-0.409
-683.281	-16.981	-0.211	-0.134
-682.266	-18.325	-0.145	0.091
-681.251	-33.211	0.371	-0.206
-680.237	800.000	-0.075	0.238
-679.222	-145.923	-0.125	0.011
-678.208	800.000	-0.044	-0.131
-677.193	66.704	-0.259	0.265
-676.178	-67.186	0.292	0.115
-675.164	149.942	0.147	-0.200
-674.149	-40.401	0.054	0.028
-673.135	287.322	0.046	-0.083
-672.120	93.838	-0.054	-0.061
-671.105	17.011	-0.224	0.178
-670.091	-200.000	-0.057	0.417
-669.076	-110.817	0.382	-0.079
-668.062	-41.074	-0.291	-0.151
-667.047	320.361	-0.058	-0.110
-666.032	-138.156	0.089	-0.010
-665.018	-200.000	0.015	0.135
-664.003	311.263	-0.117	0.219
-662.989	31.445	-0.274	0.236
-661.974	-135.401	-0.097	0.012
-660.959	-200.000	-0.027	-0.130
-659.945	203.762	0.169	-0.261
-658.930	-67.316	-0.243	-0.096
-657.916	800.000	-0.017	0.051
-656.901	-8.489	-0.078	-0.053
-655.886	-200.000	-0.001	-0.093
-654.872	800.000	-0.072	-0.283
-653.857	64.359	0.146	0.147
-652.843	-116.111	0.100	-0.019
-651.828	61.037	0.235	-0.234
-650.814	-200.000	0.087	-0.453
-649.799	-81.881	-0.067	0.022
-648.784	98.350	-0.261	-0.301
-647.770	-146.728	0.158	-0.014
-646.755	15.403	-0.011	0.009
-645.741	36.440	0.087	-0.077
-644.726	27.678	-0.011	-0.010
-643.711	800.000	-0.047	-0.189
-642.697	-200.000	0.052	-0.243
-641.682	496.740	0.110	-0.254
-640.668	-153.216	0.360	0.025
-639.653	-133.218	0.216	0.027
-638.638	-200.000	0.037	0.191
-637.624	-200.000	-0.007	-0.206
-636.609	259.639	0.153	-0.264
-635.595	-3.478	0.071	0.049
-634.580	-200.000	-0.006	-0.042
-633.565	537.954	0.199	-0.474
-632.551	7.675	-0.219	0.164
-631.536	2.032	0.164	-0.118
-630.522	559.813	-0.024	-0.058
-629.507	-6.699	0.048	0.032
-628.492	800.000	-0.048	0.179
-627.478	115.074	-0.039	-0.048
-626.463	3.116	-0.165	-0.120
-625.449	-33.205	-0.309	-0.171
-624.434	420.926	0.072	-0.154
-623.419	800.000	-0.030	-0.124
-622.405	-105.573	-0.144	-0.033
-621.390	-48.302	-0.147	0.071
-620.376	-60.782	-0.199	-0.084
-619.361	332.235	0.039	-0.076
-618.346	-200.000	0.046	-0.588
-617.332	192.704	0.152	-0.229
-616.317	162.060	0.017	0.024
-615.303	-91.994	-0.205	0.058
-614.288	-37.967	-0.028	0.015
-613.273	25.167	0.124	0.103
-612.259	367.383	0.085	0.172
-611.244	-200.000	-0.000	0.113
-610.230	47.328	0.175	0.163
-609.215	688.275	-0.021	0.055
-608.201	-200.000	-0.019	-0.177
-607.186	-200.000	0.003	-0.068
-606.171	111.576	0.041	-0.050
-605.157	47.942	-0.120	0.112
-604.142	-171.253	-0.296	-0.010
-603.128	160.043	-0.103	0.143
-602.113	-81.576	0.294	-0.096
-601.098	800.000	-0.097	-0.328
-600.084	35.632	0.229	-0.201
-599.069	587.311	-0.162	-0.399
-598.055	-200.000	-0.016	-0.166
-597.040	-200.000	-0.035	-0.191
-596.025	-200.000	0.044	0.249
-595.011	636.643	-0.011	-0.028
-593.996	-200.000	0.027	-0.161
-592.982	-200.000	-0.012	0.093
-591.967	-61.985	-0.201	0.084
-590.952	800.000	-0.085	-0.288
-589.938	-200.000	-0.026	0.280
-588.923	-200.000	-0.006	0.031
-587.909	800.000	0.025	-0.082
-586.894	-200.000	-0.036	0.161
-585.879	693.151	0.032	0.085
-584.865	58.962	-0.156	-0.153
-583.850	135.952	-0.265	0.345
-582.836	-200.000	-0.018	-0.129
-581.821	-86.766	-0.208	-0.064
-580.806	184.909	-0.139	0.205
-579.792	-109.224	-0.099	-0.021
-578.777	164.589	0.174	-0.245
-577.763	-78.275	0.161	-0.055
-576.748	-200.000	0.000	-0.051
-575.733	-73.472	0.188	0.069
-574.719	-29.372	0.172	-0.098
-573.704	-46.506	-0.412	0.202
-572.690	432.572	-0.046	0.100
-571.675	-200.000	0.024	0.256
-570.661	21.610	0.162	0.132
-569.646	-45.002	-0.389	0.193
-568.631	800.000	-0.019	-0.066
-567.617	-9.034	-0.267	-0.178
-566.602	800.000	0.055	0.166
-565.588	-178.670	0.130	-0.003
-564.573	144.188	0.186	0.248
-563.558	98.171	0.172	0.198
-562.544	-149.999	0.127	-0.010
-561.529	-200.000	0.023	0.111
-560.515	274.058	-0.081	-0.144
-559.500	-152.164	0.308	-0.022
-558.485	-72.442	-0.240	0.088
-557.471	-111.931	0.169	0.034
-556.456	-200.000	0.021	-0.129
-555.442	-130.494	0.230	0.031
-554.427	-29.504	0.077	0.044
-553.412	-93.099	-0.228	0.063
-552.398	6.434	-0.316	0.234
-551.383	-111.613	-0.239	-0.048
-550.369	-200.000	-0.019	0.259
-549.354	36.641	0.091	-0.080
-548.339	-200.000	-0.061	0.385
-547.325	72.785	-0.087	-0.090
-546.310	-184.379	-0.486	0.008
-545.296	-57.277	0.062	-0.027
-544.281	-72.147	-0.167	-0.062
-543.266	-200.000	-0.013	0.292
-542.252	-36.926	-0.104	-0.056
-541.237	-156.766	0.526	0.032
-540.223	234.885	0.057	-0.094
-539.208	374.697	0.038	0.077
-538.193	571.968	-0.088	-0.213
-537.179	36.474	0.058	0.051
-536.164	6.398	-0.253	-0.188
-535.150	-127.057	0.301	0.044
-534.135	245.879	0.128	0.215
-533.121	800.000	-0.066	-0.210
-532.106	-58.442	-0.234	0.101
-531.091	-34.963	-0.195	0.106
-530.077	-89.935	0.515	-0.150
-529.062	525.388	0.158	-0.370
-528.048	-132.976	-0.372	0.047
-527.033	-96.768	-0.243	0.064
-526.018	137.749	0.211	0.275
-525.004	-200.000	0.047	-0.317
-523.989	-200.000	-0.032	0.195
-522.975	80.773	-0.127	0.137
-521.960	-119.897	0.123	0.021
-520.945	-160.643	0.409	-0.022
-519.931	-38.662	-0.291	-0.153
-518.916	-200.000	0.060	-0.320
-517.902	-200.000	-0.030	-0.409
-516.887	-200.000	0.002	-0.043
-515.872	35.885	0.269	0.236
-514.858	-200.000	-0.006	0.229
-513.843	243.037	-0.133	0.223
-512.829	-26.452	0.079	-0.046
-511.814	-200.000	0.043	0.389
-510.799	354.139	0.110	-0.217
-509.785	152.524	-0.057	0.078
-508.770	-126.518	0.077	0.011
-507.756	-38.856	-0.098	-0.052
-506.741	-1.343	-0.241	-0.170
-505.726	-23.300	-0.140	-0.084
-504.712	42.641	-0.070	0.063
-503.697	42.789	-0.110	0.099
-502.683	10.953	0.138	0.105
-501.668	800.000	-0.068	-0.210
-500.653	259.007	-0.159	-0.273
-499.639	75.243	0.055	-0.058
-498.624	-200.000	0.022	0.097
-497.610	318.527	-0.005	0.009
-496.595	-200.000	0.029	0.350
-495.581	100.295	0.127	-0.147
-494.566	-200.000	0.006	0.097
-493.551	-120.332	-0.253	-0.043
-492.537	660.018	0.043	0.110
-491.522	-196.206	-0.097	0.001
-490.508	108.316	-0.165	0.196
-489.493	-200.000	0.006	0.051
-488.478	-111.804	0.191	-0.038
-487.464	-106.341	0.244	0.054
-486.449	-200.000	0.024	-0.163
-485.435	125.318	-0.088	0.110
-484.420	-55.247	-0.077	-0.034
-483.405	-147.504	0.149	-0.013
-482.391	130.760	-0.254	0.324
-481.376	271.002	-0.070	-0.123
-480.362	-56.463	0.105	0.046
-479.347	90.813	-0.211	-0.235
-478.332	-47.906	0.193	0.093
-477.318	-200.000	-0.055	0.252
-476.303	800.000	-0.017	-0.066
-475.289	206.975	0.073	0.113
-474.274	-200.000	-0.026	-0.236
-473.259	58.750	-0.224	-0.219
-472.245	800.000	0.029	-0.081
-471.230	-200.000	0.002	-0.210
-470.216	-90.147	0.066	0.019
-469.201	114.214	0.091	-0.110
-468.186	613.158	-0.093	-0.230
-467.172	-159.532	-0.189	0.010
-466.157	-61.167	0.131	-0.055
-465.143	-72.005	0.231	0.086
-464.128	-32.062	0.152	-0.085
-463.113	-156.821	0.147	-0.009
-462.099	1.963	0.290	0.208
-461.084	800.000	0.018	0.063
-460.070	800.000	-0.092	-0.308
-459.055	-41.423	-0.183	-0.094
-458.040	-200.000	-0.025	-0.364
-457.026	-124.350	0.392	0.061
-456.011	800.000	0.093	-0.361
-454.997	-164.587	-0.380	0.017
-453.982	269.106	0.094	-0.164
-452.968	-105.688	-0.296	-0.067
-451.953	19.191	-0.288	-0.230
-450.938	-200.000	-0.026	-0.314
-449.924	800.000	-0.046	-0.165
-448.909	800.000	0.072	-0.281
-447.895	36.726	0.168	0.147
-446.880	-52.424	0.318	-0.146
-445.865	576.295	-0.019	0.047
-444.851	-117.624	0.161	-0.029
-443.836	434.157	0.053	0.113
-442.822	-26.425	-0.067	-0.039
-441.807	-24.545	0.081	-0.048
-440.792	800.000	0.026	0.114
-439.778	-200.000	0.011	-0.175
-438.763	138.995	0.288	-0.376
-437.749	-79.846	0.368	-0.123
-436.734	-139.433	-0.209	0.022
-435.719	160.770	0.087	0.121
-434.705	351.886	-0.115	0.227
-433.690	-142.887	-0.285	0.027
-432.676	440.363	0.117	-0.255
-431.661	129.381	-0.246	-0.312
-430.646	-86.726	0.484	0.147
-429.632	-200.000	-0.024	-0.126
-428.617	800.000	-0.052	0.163
-427.603	-88.385	0.230	0.068
-426.588	-126.300	0.157	0.023
-425.573	800.000	0.101	0.285
-424.559	50.054	0.290	-0.271
-423.544	-154.822	-0.145	-0.010
-422.530	698.965	0.140	-0.366
-421.515	-200.000	0.003	0.226
-420.500	-80.331	-0.400	0.133
-419.486	800.000	-0.115	0.406
-418.471	-200.000	0.003	-0.079
-417.457	-132.334	0.275	0.035
-416.442	35.158	-0.154	0.134
-415.428	-200.000	0.022	0.162
-414.413	-136.060	0.198	-0.023
-413.398	-200.000	-0.003	0.113
-412.384	90.900	0.206	-0.229
-411.369	-200.000	-0.010	-0.195
-410.355	134.967	0.054	0.070
-409.340	-72.278	-0.285	0.105
-408.325	-152.968	0.198	-0.014
-407.311	8.123	0.112	0.084
-406.296	69.965	0.048	-0.049
-405.282	-77.070	-0.074	0.026
-404.267	-161.777	0.404	-0.020
-403.252	-200.000	0.026	0.118
-402.238	128.538	0.035	0.044
-401.223	1.649	0.064	0.046
-400.209	404.569	-0.108	0.227
-399.194	155.724	0.156	-0.213
-398.179	-138.454	0.255	0.028
-397.165	800.000	0.170	-0.496
-396.150	-118.821	0.164	0.029
-395.136	-171.736	-0.328	-0.011
-394.121	-90.237	-0.054	0.016
-393.106	800.000	0.080	0.228
-392.092	68.156	0.155	-0.157
-391.077	-200.000	-0.003	-0.246
-390.063	449.386	-0.034	0.074
-389.048	94.661	0.275	0.310
-388.033	-120.096	-0.168	-0.029
-387.019	-131.853	-0.050	-0.007
-386.004	-152.093	-0.100	-0.007
-384.990	589.611	0.083	-0.204
-383.975	305.264	-0.064	-0.118
-382.960	-41.752	0.378	0.192
-381.946	347.298	-0.103	0.201
-380.931	-68.071	-0.309	0.119
-379.917	65.162	0.057	-0.057
-378.902	-200.000	0.007	-0.037
-377.888	-2.657	-0.081	0.056
-376.873	-200.000	-0.038	0.392
-375.858	-200.000	-0.084	-0.390
-374.844	259.359	-0.077	0.132
-373.829	-92.750	0.109	0.030
-372.815	-61.179	-0.268	0.112
-371.800	-73.857	0.361	-0.130
-370.785	72.344	-0.166	-0.172
-369.771	800.000	0.045	0.148
-368.756	602.054	0.111	0.272
-367.742	377.051	-0.215	-0.434
-366.727	-111.986	0.274	0.055
-365.712	289.852	-0.105	-0.189
-364.698	196.950	0.306	-0.462
-363.683	655.815	-0.068	0.173
-362.669	-141.870	-0.163	0.016
-361.654	-140.995	0.289	-0.029
-360.639	-115.602	-0.079	0.015
-359.625	-200.000	-0.029	0.280
-358.610	-72.389	0.249	0.091
-357.596	-182.703	0.293	0.005
-356.581	56.687	0.110	0.106
-355.566	270.105	0.057	0.099
-354.552	-106.901	-0.230	-0.050
-353.537	-191.280	-0.374	-0.004
-352.523	538.931	0.072	-0.170
-351.508	-200.000	0.026	-0.416
-350.493	-44.632	-0.374	0.185
-349.479	-2.961	-0.227	-0.157
-348.464	-170.803	-0.379	0.013
-347.450	-118.850	0.088	-0.015
-346.435	800.000	-0.079	0.266
-345.420	-162.011	0.144	-0.007
-344.406	565.565	0.064	0.154
-343.391	-75.727	-0.071	0.025
-342.377	-200.000	0.004	-0.038
-341.362	-146.608	-0.303	-0.026
-340.348	-122.745	-0.332	0.053
-339.333	-132.465	0.110	0.014
-338.318	152.666	-0.103	-0.140
-337.304	-33.137	-0.276	-0.151
-336.289	117.775	0.072	0.088
-335.275	60.431	-0.125	0.123
-334.260	213.495	0.071	0.112
-333.245	-113.633	0.344	-0.066
-332.231	135.791	0.096	0.123
-331.216	119.450	-0.167	0.204
-330.202	-69.829	-0.206	-0.078
-329.187	-30.336	0.243	-0.136
-328.172	41.464	-0.244	-0.219
-327.158	151.871	-0.024	0.032
-326.143	800.000	0.089	0.281
-325.129	79.883	-0.196	0.208
-324.114	800.000	-0.051	-0.164
-323.099	-105.118	0.099	0.022
-322.085	-192.622	0.294	-0.003
-321.070	800.000	0.042	0.175
-320.056	-23.443	0.472	0.280
-319.041	138.677	-0.138	0.179
-318.026	-170.672	-0.226	0.008
-317.012	800.000	0.072	0.214
-315.997	-70.100	-0.297	-0.112
-314.983	186.998	-0.075	-0.111
-313.968	-135.410	-0.023	0.003
-312.953	166.717	-0.100	0.140
-311.939	395.361	0.112	-0.230
-310.924	-51.085	-0.349	0.162
-309.910	-11.886	-0.212	-0.137
-308.895	145.023	-0.062	0.083
-307.880	800.000	-0.024	0.085
-306.866	-161.568	0.157	-0.008
-305.851	-200.000	-0.008	-0.215
-304.837	-94.318	0.054	0.015
-303.822	-78.804	0.276	0.093
-302.807	-135.448	-0.109	0.013
-301.793	224.419	0.059	-0.095
-300.778	-135.116	-0.137	-0.016
-299.764	-101.951	0.117	0.028
-298.749	-16.958	0.040	0.025
-297.735	-28.813	-0.183	-0.104
-296.720	-160.967	-0.224	-0.012
-295.705	769.843	-0.066	0.177
-294.691	800.000	-0.027	0.111
-293.676	374.095	-0.058	0.116
-292.662	-75.569	-0.176	0.062
-291.647	-200.000	-0.019	0.086
-290.632	59.754	0.090	0.087
-289.618	-125.400	0.315	-0.047
-288.603	65.869	0.088	-0.088
-287.589	-14.570	-0.227	0.144
-286.574	800.000	0.085	0.311
-285.559	-73.818	0.049	-0.018
-284.545	-147.118	0.464	0.039
-283.530	-200.000	0.028	0.161
-282.516	-200.000	-0.070	0.370
-281.501	800.000	0.032	0.128
-280.486	82.777	0.111	0.120
-279.472	-57.411	-0.190	-0.082
-278.457	-200.000	-0.092	0.517
-277.443	295.288	0.097	0.176
-276.428	-200.000	0.066	0.422
-275.413	-200.000	0.000	0.052
-274.399	70.010	0.110	-0.112
-273.384	87.374	-0.042	0.046
-272.370	406.266	-0.051	-0.106
-271.355	-77.542	-0.245	-0.084
-270.340	-99.711	-0.292	-0.072
-269.326	-200.000	0.037	0.159
-268.311	800.000	-0.034	0.103
-267.297	-153.843	-0.105	0.007
-266.282	-7.383	-0.355	-0.237
-265.267	71.584	0.247	0.253
-264.253	800.000	-0.101	0.397
-263.238	168.353	-0.118	-0.166
-262.224	-150.738	-0.268	-0.020
-261.209	-193.169	-0.171	-0.001
-260.195	-10.800	0.363	0.236
-259.180	-178.766	0.449	-0.010
-258.165	70.695	0.127	0.130
-257.151	-188.462	0.096	0.001
-256.136	328.916	0.225	0.427
-255.122	473.271	0.057	0.126
-254.107	-114.143	-0.132	-0.025
-253.092	89.642	0.231	0.254
-252.078	400.878	0.191	-0.395
-251.063	800.000	-0.053	0.184
-250.049	142.501	0.116	0.152
-249.034	126.606	0.140	0.175
-248.019	-178.108	0.143	0.003
-247.005	546.198	-0.171	-0.404
-245.990	-200.000	-0.029	-0.156
-244.976	800.000	0.061	0.248
-243.961	-200.000	0.031	-0.201
-242.946	-200.000	0.054	0.428
-241.932	-124.204	0.092	0.014
-240.917	4.841	-0.053	0.038
-239.903	-200.000	-0.043	-0.244
-238.888	463.706	0.149	-0.327
-237.873	33.869	0.215	0.185
-236.859	-25.863	-0.148	0.086
-235.844	92.158	0.210	-0.233
-234.830	100.848	0.120	0.138
-233.815	18.169	0.153	-0.120
-232.800	671.068	-0.067	0.170
-231.786	-200.000	-0.019	0.096
-230.771	-73.363	0.179	0.064
-229.757	-62.060	0.159	-0.065
-228.742	-72.364	-0.077	0.028
-227.727	-40.557	-0.166	0.085
-226.713	-91.052	0.131	-0.037
-225.698	-46.680	0.257	0.124
-224.684	368.822	0.263	-0.525
-223.669	115.873	-0.336	0.405
-222.655	800.000	0.038	0.136
-221.640	-47.456	0.269	-0.129
-220.625	-200.000	-0.003	-0.182
-219.611	255.342	0.034	0.057
-218.596	117.353	-0.125	-0.152
-217.582	-57.595	0.357	-0.154
-216.567	-53.457	-0.101	-0.045
-215.552	-46.417	-0.274	0.133
-214.538	800.000	-0.021	-0.075
-213.523	-200.000	-0.007	0.061
-212.509	557.881	0.085	0.202
-211.494	212.111	0.135	0.209
-210.479	241.924	-0.173	-0.284
-209.465	113.541	0.161	0.192
-208.450	-48.390	0.137	-0.065
-207.436	-200.000	0.112	0.000
-206.421	-139.057	-0.150	0.016
-205.406	-59.394	-0.093	0.039
-204.392	151.670	0.045	0.060
-203.377	800.000	0.063	0.223
-202.363	-200.000	0.026	-0.174
-201.348	-200.000	0.008	0.159
-200.333	800.000	-0.025	0.095
-199.319	272.938	-0.121	0.211
-198.304	266.225	0.169	0.291
-197.290	-130.052	0.318	0.043
-196.275	136.247	0.238	-0.306
-195.260	42.102	-0.274	-0.245
-194.246	-4.504	0.309	-0.210
-193.231	-121.947	-0.456	-0.074
-192.217	-85.130	-0.119	0.036
-191.202	151.635	0.154	0.207
-190.187	-157.575	-0.254	0.015
-189.173	27.518	-0.223	-0.185
-188.158	323.816	0.116	0.217
-187.144	50.088	-0.103	0.095
-186.129	537.542	0.053	-0.124
-185.114	-26.709	0.132	0.076
-184.100	119.855	-0.231	-0.282
-183.085	-200.000	0.048	-0.000
-182.071	155.488	0.093	-0.126
-181.056	128.654	0.108	0.135
-180.042	-103.051	0.309	-0.072
-179.027	108.705	0.134	0.157
-178.012	331.240	-0.054	-0.102
-176.998	80.475	-0.036	-0.039
-175.983	-200.000	-0.146	0.000
-174.969	100.002	-0.085	0.096
-173.954	-62.874	-0.304	0.124
-172.939	-40.658	-0.333	-0.170
-171.925	11.111	-0.248	0.186
-170.910	-43.670	0.211	-0.104
-169.896	-43.210	-0.340	0.169
-168.881	10.642	0.102	-0.076
-167.866	37.003	0.302	0.263
-166.852	577.091	0.159	-0.383
-165.837	-99.976	-0.406	0.100
-164.823	-84.065	-0.162	0.051
-163.808	-200.000	0.017	0.098
-162.793	-135.617	-0.199	-0.023
-161.779	73.891	-0.191	-0.197
-160.764	-195.674	0.261	0.002
-159.750	105.923	-0.189	-0.220
-158.735	75.963	0.116	-0.121
-157.720	-0.905	-0.218	-0.152
-156.706	-66.885	-0.155	-0.060
-155.691	800.000	-0.090	-0.324
-154.677	-88.801	-0.457	0.133
-153.662	130.002	-0.092	0.115
-152.647	85.613	-0.091	-0.098
-151.633	-5.433	0.041	-0.027
-150.618	1.027	0.303	-0.214
-149.604	101.280	0.145	-0.166
-148.589	-56.484	-0.095	0.041
-147.574	800.000	-0.028	-0.112
-146.560	602.009	-0.045	0.110
-145.545	800.000	-0.127	-0.395
-144.531	-200.000	0.064	0.350
-143.516	800.000	-0.044	-0.168
-142.502	494.391	0.117	-0.263
-141.487	-77.612	0.053	-0.018
-140.472	800.000	0.058	0.248
-139.458	165.643	0.111	0.154
-138.443	-136.858	0.065	0.007
-137.429	385.643	0.078	-0.157
-136.414	-1.931	0.172	-0.119
-135.399	800.000	-0.084	0.336
-134.385	421.991	-0.010	0.022
-133.370	800.000	-0.047	0.130
-132.356	-45.563	-0.164	-0.079
-131.341	160.752	0.184	-0.253
-130.326	175.045	0.060	0.085
-129.312	-156.634	-0.346	0.021
-128.297	4.630	0.107	-0.077
-127.283	-200.000	0.053	0.230
-126.268	466.024	0.078	0.172
-125.253	-43.221	-0.330	-0.164
-124.239	112.720	-0.101	0.120
-123.224	-196.398	0.334	-0.002
-122.210	289.034	-0.145	0.258
-121.195	800.000	-0.085	-0.263
-120.180	-44.049	0.233	-0.115
-119.166	425.833	-0.004	0.008
-118.151	-92.725	0.161	0.044
-117.137	77.735	-0.063	-0.066
-116.122	-64.648	0.160	0.063
-115.107	-1.739	-0.072	0.050
-114.093	51.683	0.329	0.307
-113.078	-42.758	0.202	-0.101
-112.064	59.702	-0.076	0.073
-111.049	-200.000	-0.043	0.253
-110.034	131.360	0.111	-0.140
-109.020	-200.000	-0.010	-0.088
-108.005	187.146	-0.169	-0.247
-106.991	-108.436	0.129	0.027
-105.976	107.732	0.065	0.076
-104.962	-36.237	-0.316	0.167
-103.947	-11.911	-0.055	0.035
-102.932	-78.475	-0.143	0.048
-101.918	133.514	-0.245	0.311
-100.903	-15.425	0.267	0.167
-99.889	800.000	0.004	-0.012
-98.874	64.868	0.264	0.261
-97.859	-148.361	-0.309	-0.025
-96.845	-200.000	0.003	0.151
-95.830	800.000	0.077	0.315
-94.816	35.882	0.163	0.141
-93.801	-200.000	0.002	0.037
-92.786	-115.669	-0.207	0.038
-91.772	-5.115	0.071	0.048
-90.757	-200.000	-0.016	0.166
-89.743	-200.000	0.049	0.329
-88.728	367.355	-0.163	0.322
-87.713	419.752	0.062	-0.130
-86.699	245.189	-0.139	0.230
-85.684	-60.384	0.429	0.179
-84.670	800.000	0.006	-0.018
-83.655	-76.663	0.273	0.094
-82.640	-200.000	-0.016	0.234
-81.626	-105.874	-0.112	-0.025
-80.611	800.000	-0.113	-0.342
-79.597	103.637	-0.354	-0.407
-78.582	25.047	-0.370	-0.301
-77.567	-67.623	0.075	-0.029
-76.553	800.000	0.084	0.337
-75.538	-150.371	0.223	0.017
-74.524	800.000	0.013	0.046
-73.509	-51.516	0.210	0.096
-72.494	16.285	-0.214	-0.165
-71.480	800.000	-0.212	0.621
-70.465	-66.036	0.219	0.085
-69.451	-17.515	0.081	-0.050
-68.436	-200.000	0.015	-0.140
-67.422	267.370	-0.057	-0.098
-66.407	73.533	0.185	-0.189
-65.392	-50.294	-0.199	0.092
-64.378	103.536	0.156	-0.179
-63.363	-68.503	-0.217	-0.082
-62.349	102.068	-0.135	0.154
-61.334	52.279	-1.227	-1.145
-60.319	409.130	0.353	0.731
-59.305	-200.000	-0.278	-1.265
-58.290	353.905	0.645	1.253
-57.276	294.338	0.660	1.181
-56.261	-200.000	113.209	640.865
-55.246	468.405	1508.166	3311.082
-54.232	146.035	2685.514	3524.019
-53.217	97.124	2295.318	2575.886
-52.203	36.563	1905.325	1645.237
-51.188	30.555	1696.685	1419.310
-50.173	28.161	1654.830	1366.391
-49.159	50.234	1709.668	1579.558
-48.144	49.094	1723.451	1583.604
-47.130	30.276	1682.431	1405.055
-46.115	27.518	1667.812	1372.048
-45.100	27.293	1663.040	1366.379
-44.086	27.333	1660.400	1364.460
-43.071	27.356	1657.617	1362.292
-42.057	27.203	1656.340	1360.040
-41.042	27.287	1653.554	1358.326
-40.027	27.378	1651.302	1357.101
-39.013	27.249	1649.554	1354.650
-37.998	27.362	1647.466	1353.724
-36.984	27.341	1646.361	1352.603
-35.969	27.370	1645.108	1351.735
-34.954	27.428	1643.615	1350.888
-33.940	27.426	1641.914	1349.424
-32.925	27.388	1640.057	1347.560
-31.911	27.409	1637.901	1345.890
-30.896	27.382	1636.406	1344.406
-29.881	27.462	1634.583	1343.446
-28.867	27.414	1632.929	1341.679
-27.852	27.411	1631.649	1340.554
-26.838	27.440	1629.971	1339.334
-25.823	27.441	1628.806	1338.329
-24.809	27.466	1627.814	1337.647
-23.794	27.473	1626.037	1336.184
-22.779	27.468	1624.641	1334.949
-21.765	27.507	1622.716	1333.598
-20.750	27.389	1621.763	1331.897
-19.736	27.378	1620.394	1330.645
-18.721	27.529	1618.589	1330.211
-17.706	27.421	1617.334	1328.337
-16.692	27.497	1615.634	1327.446
-15.677	27.579	1614.355	1326.935
-14.663	27.572	1612.567	1325.362
-13.648	27.428	1611.528	1323.411
-12.633	27.533	1609.751	1322.659
-11.619	27.462	1608.292	1320.894
-10.604	27.403	1607.152	1319.482
-9.590	27.466	1605.799	1318.770
-8.575	27.484	1604.629	1317.891
-7.560	27.513	1603.292	1316.944
-6.546	27.553	1602.344	1316.410
-5.531	27.465	1601.663	1315.161
-4.517	27.493	1599.817	1313.794
-3.502	27.444	1599.405	1313.049
-2.487	27.489	1597.124	1311.450
-1.473	27.249	1585.745	1300.337
-0.458	24.602	1566.209	1265.543
0.556	19.417	1568.184	1235.118
1.571	17.360	1591.993	1238.792
2.586	16.995	1604.460	1245.698
3.600	16.649	1554.533	1204.365
4.615	14.232	1456.607	1112.265
5.629	11.750	1402.127	1054.584
6.644	11.303	1395.061	1046.313
7.659	11.271	1394.187	1045.358
8.673	11.206	1393.074	1044.012
9.688	11.221	1390.308	1041.943
10.702	11.162	1387.614	1039.457
11.717	12.304	1388.537	1047.345
12.731	15.004	1393.687	1068.396
13.746	17.322	1396.788	1085.494
14.761	17.720	1396.074	1087.382
15.775	16.671	1393.606	1078.681
16.790	15.652	1390.761	1069.900
17.804	14.840	1388.433	1062.854
18.819	14.471	1386.657	1059.059
19.834	14.024	1386.109	1055.705
20.848	13.795	1384.740	1053.117
21.863	13.535	1383.464	1050.407
22.877	13.324	1382.898	1048.545
23.892	13.428	1381.086	1047.736
24.907	13.379	1380.312	1046.747
25.921	13.404	1379.648	1046.307
26.936	13.492	1378.690	1046.048
27.950	13.525	1377.155	1045.000
28.965	13.453	1376.827	1044.200
29.980	13.617	1375.301	1043.983
30.994	13.615	1374.132	1042.991
32.009	13.665	1373.114	1042.444
33.023	13.706	1371.612	1041.471
34.038	13.638	1370.472	1040.081
35.053	13.645	1369.193	1039.063
36.067	13.559	1368.105	1037.606
37.082	13.597	1367.159	1037.034
38.096	13.608	1366.252	1036.324
39.111	13.517	1365.744	1035.283
40.126	13.547	1363.876	1033.960
41.140	13.309	1363.879	1032.384
42.155	13.386	1362.798	1031.955
43.169	13.295	1363.181	1031.589
44.184	13.318	1362.431	1031.073
45.199	13.409	1361.726	1031.013
46.213	13.346	1361.554	1030.398
47.228	13.517	1360.191	1030.338
48.242	13.484	1358.871	1029.043
49.257	13.510	1357.793	1028.301
50.271	13.548	1355.846	1026.969
51.286	13.519	1354.531	1025.702
52.301	13.527	1353.056	1024.543
53.315	13.390	1352.631	1023.286
54.330	13.404	1351.217	1022.211
55.344	13.376	1350.476	1021.388
56.359	13.409	1349.431	1020.713
57.374	13.345	1348.812	1019.756
58.388	13.347	1347.634	1018.790
59.403	13.258	1347.005	1017.673
60.417	13.272	1346.798	1017.516
61.432	13.247	1346.052	1016.706
62.447	13.190	1344.703	1015.250
63.461	13.234	1343.356	1014.412
64.476	13.235	1342.106	1013.382
65.490	13.230	1341.108	1012.509
66.505	13.201	1339.673	1011.160
67.520	13.187	1338.671	1010.227
68.534	13.334	1337.363	1010.049
69.549	13.327	1336.162	1009.007
70.563	13.308	1335.375	1008.210
71.578	13.211	1334.365	1006.766
72.593	13.216	1333.545	1006.092
73.607	13.148	1332.790	1005.021
74.622	12.986	1332.515	1003.736
75.636	13.155	1331.320	1003.772
76.651	13.220	1330.386	1003.376
77.666	13.207	1329.865	1002.817
78.680	13.237	1329.750	1002.820
79.695	13.284	1328.446	1002.034
80.709	13.167	1328.304	1001.129
81.724	13.365	1327.009	1001.263
82.739	13.409	1326.083	1000.745
83.753	13.436	1325.088	1000.068
84.768	13.511	1324.011	999.618
85.782	13.568	1322.622	998.825
86.797	13.564	1321.311	997.723
87.812	13.467	1320.224	996.227
88.826	13.462	1319.364	995.461
89.841	13.450	1318.556	994.692
90.855	13.522	1317.618	994.331
91.870	13.522	1316.584	993.462
92.884	13.547	1315.566	992.757
93.899	13.546	1315.182	992.370
94.914	13.614	1314.520	992.192
95.928	13.657	1313.162	991.335
96.943	13.721	1311.934	990.702
97.957	13.574	1311.246	989.218
98.972	13.602	1309.910	988.291
99.987	13.565	1309.364	987.569
101.001	13.552	1308.135	986.479
102.016	13.472	1307.317	985.295
103.030	13.467	1306.488	984.555
104.045	13.575	1305.068	984.040
105.060	13.526	1303.589	982.547
106.074	13.413	1302.512	980.978
107.089	13.357	1301.074	979.478
108.103	13.275	1300.150	978.211
109.118	13.322	1298.913	977.470
110.133	13.377	1297.565	976.692
111.147	13.293	1296.581	975.369
112.162	13.325	1295.290	974.501
113.176	13.428	1293.746	973.861
114.191	13.451	1292.384	972.887
115.206	13.372	1291.727	971.838
116.220	13.347	1290.506	970.691
117.235	13.411	1289.163	969.969
118.249	13.330	1288.300	968.757
119.264	13.391	1286.662	967.797
120.279	13.399	1285.635	966.986
121.293	13.333	1284.908	965.968
122.308	13.386	1283.814	965.370
123.322	13.260	1283.040	963.966
124.337	13.302	1282.022	963.366
125.352	13.327	1280.987	962.647
126.366	13.336	1279.511	961.505
127.381	13.229	1279.074	960.468
128.395	13.333	1277.456	959.772
129.410	13.339	1276.319	958.870
130.424	13.358	1275.695	958.423
131.439	13.387	1274.712	957.768
132.454	13.402	1273.496	956.855
133.468	13.376	1272.536	955.898
134.483	13.380	1271.828	955.309
135.497	13.353	1270.898	954.368
136.512	13.342	1269.880	953.457
137.527	13.352	1268.226	952.187
138.541	13.384	1267.116	951.454
139.556	13.349	1265.869	950.233
140.570	13.496	1264.928	950.288
141.585	13.557	1263.611	949.563
142.600	13.565	1262.175	948.447
143.614	13.678	1261.598	948.572
144.629	13.587	1260.444	947.100
145.643	13.518	1259.457	945.881
146.658	13.560	1257.896	944.864
147.673	13.550	1256.311	943.535
148.687	13.448	1255.195	942.035
149.702	13.392	1254.374	941.014
150.716	13.389	1252.669	939.638
151.731	13.404	1251.310	938.619
152.746	13.524	1250.275	938.437
153.760	13.563	1249.185	937.756
154.775	13.608	1248.090	937.108
155.789	13.596	1247.062	936.184
156.804	13.542	1246.309	935.231
157.819	13.786	1244.841	935.423
158.833	13.759	1243.865	934.458
159.848	13.784	1243.107	933.942
160.862	13.787	1242.341	933.304
161.877	13.751	1240.751	931.822
162.892	13.549	1240.229	930.212
163.906	13.551	1239.342	929.480
164.921	13.661	1237.881	928.916
165.935	13.731	1237.263	928.763
166.950	13.645	1236.741	927.809
167.964	13.651	1235.788	927.042
168.979	13.695	1234.989	926.609
169.994	13.753	1234.201	926.258
171.008	13.684	1233.269	925.090
172.023	13.826	1232.621	925.316
173.037	13.890	1231.790	924.969
174.052	13.859	1230.983	924.108
175.067	13.841	1229.487	922.800
176.081	13.702	1228.655	921.323
177.096	13.656	1228.252	920.686
178.110	13.826	1227.043	920.638
179.125	13.767	1225.824	919.316
180.140	13.775	1224.689	918.430
181.154	13.776	1223.150	917.198
182.169	13.908	1221.759	916.805
183.183	13.900	1220.904	916.035
184.198	13.986	1219.748	915.560
185.213	14.039	1218.489	914.829
186.227	13.870	1217.896	913.372
187.242	13.991	1216.747	913.094
188.256	14.104	1215.206	912.480
189.271	13.994	1214.718	911.425
190.286	13.932	1213.984	910.453
191.300	13.790	1212.783	908.698
192.315	13.656	1212.272	907.501
193.329	13.775	1211.795	907.713
194.344	13.831	1210.527	906.990
195.359	13.877	1210.459	907.108
196.373	14.039	1209.799	907.419
197.388	14.058	1209.168	906.968
198.402	14.174	1208.891	907.313
199.417	14.121	1208.140	906.383
200.432	14.274	1207.471	906.635
201.446	14.219	1206.575	905.581
202.461	14.357	1205.268	905.268
203.475	14.338	1204.491	904.501
204.490	14.217	1202.899	902.570
205.504	14.093	1202.457	901.488
206.519	14.150	1201.168	900.750
207.534	14.244	1199.392	899.846
208.548	14.168	1198.693	898.832
209.563	14.142	1197.848	897.980
210.577	14.243	1196.607	897.515
211.592	14.315	1196.120	897.458
212.607	14.235	1195.414	896.414
213.621	14.475	1194.147	896.677
214.636	14.337	1193.595	895.442
215.650	14.374	1193.006	895.117
216.665	14.360	1192.038	894.237
217.680	14.430	1191.135	893.858
218.694	14.515	1189.985	893.369
219.709	14.389	1189.440	892.207
220.723	14.445	1188.807	891.956
221.738	14.482	1187.830	891.338
222.753	14.518	1186.959	890.798
223.767	14.447	1186.367	889.900
224.782	14.434	1186.080	889.536
225.796	14.569	1185.675	889.871
226.811	14.673	1184.186	889.229
227.826	14.624	1183.508	888.380
228.840	14.544	1183.059	887.538
229.855	14.533	1182.363	886.881
230.869	14.458	1181.662	885.878
231.884	14.566	1180.710	885.657
232.899	14.533	1179.865	884.774
233.913	14.530	1178.915	883.964
234.928	14.500	1178.293	883.264
235.942	14.465	1177.903	882.706
236.957	14.536	1176.881	882.236
237.972	14.562	1175.927	881.581
238.986	14.542	1175.159	880.824
240.001	14.489	1175.178	880.481
241.015	14.569	1173.995	879.936
242.030	14.588	1173.193	879.358
243.045	14.648	1172.236	878.877
244.059	14.606	1171.702	878.180
245.074	14.674	1170.497	877.557
246.088	14.692	1169.934	877.149
247.103	14.745	1169.196	876.798
248.117	14.864	1168.236	876.625
249.132	14.832	1168.170	876.329
250.147	14.938	1167.252	876.120
251.161	14.873	1166.890	875.429
252.176	14.912	1165.648	874.624
253.190	15.022	1165.501	875.013
254.205	15.139	1164.311	874.654
255.220	15.092	1163.873	874.000
256.234	15.161	1163.338	873.880
257.249	15.059	1162.414	872.577
258.263	15.101	1161.880	872.317
259.278	15.192	1161.034	872.080
260.293	15.115	1160.664	871.325
261.307	15.117	1160.554	871.174
262.322	15.154	1159.706	870.655
263.336	15.210	1158.738	870.140
264.351	15.186	1158.293	869.606
265.366	15.241	1157.047	868.879
266.380	15.225	1156.816	868.542
267.395	15.194	1155.937	867.645
268.409	15.232	1155.074	867.117
269.424	15.226	1154.460	866.551
270.439	15.226	1154.014	866.140
271.453	15.259	1153.239	865.652
272.468	15.333	1151.774	864.859
273.482	15.201	1151.425	863.836
274.497	15.163	1151.196	863.392
275.512	15.293	1149.938	863.043
276.526	15.217	1149.459	862.214
277.541	15.219	1148.627	861.523
278.555	15.318	1147.985	861.477
279.570	15.372	1147.402	861.239
280.585	15.415	1146.308	860.562
281.599	15.403	1145.544	859.853
282.614	15.437	1144.519	859.183
283.628	15.420	1143.228	858.047
284.643	15.424	1142.751	857.632
285.657	15.402	1141.631	856.604
286.672	15.453	1140.685	856.079
287.687	15.414	1139.637	855.018
288.701	15.402	1139.474	854.760
289.716	15.508	1138.342	854.376
290.730	15.375	1137.859	853.260
291.745	15.643	1136.468	853.505
292.760	15.613	1135.976	852.909
293.774	15.632	1135.635	852.673
294.789	15.524	1135.549	851.983
295.803	15.650	1134.706	851.914
296.818	15.551	1134.029	850.830
297.833	15.420	1133.439	849.649
298.847	15.600	1132.073	849.460
299.862	15.578	1131.701	848.994
300.876	15.692	1130.633	848.690
301.891	15.660	1130.244	848.163
302.906	15.710	1129.533	847.808
303.920	15.773	1128.847	847.536
304.935	15.799	1127.956	846.920
305.949	15.805	1127.381	846.445
306.964	15.873	1126.862	846.322
307.979	15.761	1126.138	845.139
308.993	15.880	1125.000	844.808
310.008	15.917	1124.376	844.450
311.022	15.860	1124.030	843.830
312.037	15.798	1123.103	842.749
313.052	15.787	1121.936	841.744
314.066	15.811	1121.210	841.244
315.081	15.764	1120.323	840.273
316.095	15.722	1119.519	839.385
317.110	15.880	1118.493	839.328
318.125	15.826	1118.118	838.703
319.139	15.774	1117.210	837.690
320.154	15.786	1116.581	837.204
321.168	15.952	1116.183	837.658
322.183	15.912	1115.369	836.775
323.197	15.849	1114.639	835.836
324.212	15.912	1113.592	835.293
325.227	15.869	1113.676	835.067
326.241	15.928	1112.972	834.758
327.256	15.892	1111.960	833.748
328.270	15.737	1111.211	832.342
329.285	16.004	1109.952	832.649
330.300	15.962	1109.023	831.670
331.314	15.994	1107.970	830.963
332.329	15.989	1107.003	830.139
333.343	15.923	1106.443	829.321
334.358	15.959	1105.432	828.666
335.373	16.065	1104.714	828.577
336.387	16.126	1103.923	828.208
337.402	15.991	1103.532	827.180
338.416	16.107	1103.054	827.320
339.431	16.105	1101.959	826.416
340.446	16.160	1101.475	826.246
341.460	16.301	1100.751	826.324
342.475	16.335	1099.720	825.644
343.489	16.266	1098.788	824.533
344.504	16.322	1098.156	824.258
345.519	16.407	1096.999	823.730
346.533	16.390	1096.512	823.211
347.548	16.489	1095.757	823.053
348.562	16.460	1095.145	822.376
349.577	16.432	1093.969	821.284
350.592	16.213	1093.503	819.800
351.606	16.349	1093.016	820.022
352.621	16.312	1091.904	818.938
353.635	16.319	1091.294	818.441
354.650	16.243	1090.625	817.499
355.665	16.272	1090.130	817.196
356.679	16.299	1088.984	816.396
357.694	16.438	1088.836	816.881
358.708	16.440	1088.162	816.315
359.723	16.509	1087.482	816.063
360.738	16.537	1086.619	815.480
361.752	16.424	1086.317	814.639
362.767	16.438	1085.835	814.271
363.781	16.470	1085.331	813.976
364.796	16.682	1084.458	814.268
365.810	16.599	1084.030	813.476
366.825	16.722	1083.315	813.457
367.840	16.764	1082.824	813.217
368.854	16.746	1082.201	812.591
369.869	16.798	1081.282	812.080
370.883	16.850	1080.312	811.527
371.898	16.624	1079.913	810.073
372.913	16.721	1079.183	809.920
373.927	16.750	1078.735	809.652
374.942	16.784	1078.439	809.517
375.956	16.771	1077.642	808.790
376.971	16.725	1077.530	808.412
377.986	16.896	1076.147	808.118
379.000	16.941	1076.088	808.215
380.015	16.897	1075.335	807.371
381.029	16.925	1074.948	807.143
382.044	16.944	1074.252	806.637
383.059	16.913	1073.739	806.036
384.073	16.934	1072.767	805.333
385.088	17.012	1071.710	804.839
386.102	16.971	1070.739	803.842
387.117	16.940	1069.724	802.863
388.132	16.927	1068.448	801.773
389.146	16.855	1068.226	801.197
390.161	16.922	1067.374	800.800
391.175	16.950	1066.775	800.414
392.190	17.055	1065.684	800.018
393.205	17.040	1065.392	799.660
394.219	17.080	1064.524	799.127
395.234	17.124	1063.521	798.506
396.248	17.042	1062.653	797.399
397.263	16.852	1061.845	795.833
398.278	16.945	1061.504	795.940
399.292	17.017	1060.314	795.317
400.307	16.968	1059.601	794.483
401.321	17.048	1059.064	794.384
402.336	17.002	1058.586	793.737
403.350	17.017	1057.799	793.150
404.365	17.038	1056.852	792.467
405.380	17.057	1056.375	792.130
406.394	17.110	1055.727	791.818
407.409	17.252	1054.775	791.694
408.423	17.246	1053.813	790.877
409.438	17.179	1053.484	790.247
410.453	17.255	1053.129	790.266
411.467	17.335	1052.041	789.748
412.482	17.349	1051.486	789.330
413.496	17.442	1050.609	789.030
414.511	17.522	1049.832	788.749
415.526	17.504	1049.730	788.521
416.540	17.624	1049.167	788.580
417.555	17.414	1048.658	787.158
418.569	17.491	1048.132	787.050
419.584	17.463	1047.510	786.383
420.599	17.404	1047.607	786.112
421.613	104.758	1325.743	1476.234
422.628	96.336	1366.222	1476.316
