DTS Sentinel unit serial number:	SN413079Multiplexer serial number:	ORYXHardware model number:	OX4-SRSoftware version number:	ORYX F/W v4.00 Oryx Data Collector v3.7.2.0data status	okinstallation	princeton_trtdifferential loss correction	single-endedforward channel	channel 2reverse channel	N/Adate	2019/09/15time	20:43:35forward acquisition time	60.00reverse acquisition time	0.00gamma	496.2192k internal	0.2332k external	0.2332temperature offset calibration	0.9937default loss term (dB/km)	0.3790temperature slope calibration	1.0000multiplexer offset coefficient	1.0000multiplexer slope coefficient	1.0000fibre end	0.00T internal ref (°C)	32.64T ext. ref 1 (°C)	7.93T ext. ref 2 (°C)	24.58length (m)	temperature (°C)	Stokes	anti-Stokes-747.200	-185.595	0.181	-0.003
-746.185	142.189	0.086	0.114
-745.171	396.183	-0.040	-0.084
-744.156	-34.847	-0.107	-0.059
-743.142	-130.026	-0.109	0.015
-742.127	-78.622	-0.240	-0.082
-741.112	25.027	0.420	0.350
-740.098	24.834	-0.212	0.177
-739.083	167.674	0.084	-0.120
-738.069	-50.639	0.036	-0.017
-737.054	249.866	-0.123	-0.210
-736.039	-78.390	-0.313	0.108
-735.025	164.040	0.147	-0.209
-734.010	-200.000	-0.017	-0.128
-732.996	84.006	0.178	0.195
-731.981	-200.000	-0.096	-0.443
-730.966	800.000	0.019	-0.066
-729.952	561.596	0.052	-0.126
-728.937	342.384	0.132	-0.260
-727.923	-40.374	-0.270	-0.141
-726.908	800.000	-0.016	0.068
-725.894	174.506	0.035	0.050
-724.879	-200.000	-0.006	-0.120
-723.864	800.000	-0.058	-0.199
-722.850	-184.685	0.179	0.003
-721.835	-200.000	-0.005	-0.035
-720.821	-200.000	0.053	0.268
-719.806	303.230	0.204	0.380
-718.791	223.628	-0.030	0.048
-717.777	-12.125	-0.141	-0.093
-716.762	67.669	-0.300	-0.308
-715.748	800.000	-0.034	0.143
-714.733	672.369	-0.065	-0.169
-713.718	29.952	0.231	0.198
-712.704	-14.543	-0.284	0.184
-711.689	-140.874	0.261	0.027
-710.675	-200.000	0.001	-0.081
-709.660	-56.542	0.092	0.041
-708.645	-124.670	0.302	-0.047
-707.631	-9.270	-0.169	-0.113
-706.616	-135.680	0.105	0.013
-705.602	61.900	0.039	0.039
-704.587	32.707	-0.099	-0.086
-703.572	-200.000	0.003	-0.114
-702.558	800.000	0.074	-0.269
-701.543	-200.000	0.008	0.072
-700.529	800.000	0.052	-0.158
-699.514	47.382	0.251	0.235
-698.499	800.000	-0.044	0.158
-697.485	-167.310	-0.298	0.012
-696.470	178.747	0.130	-0.191
-695.456	272.409	-0.112	-0.198
-694.441	622.796	0.187	-0.472
-693.426	193.671	-0.096	-0.146
-692.412	30.536	-0.172	-0.147
-691.397	-42.557	-0.145	-0.074
-690.383	-12.061	-0.244	-0.161
-689.368	154.856	-0.292	0.403
-688.354	-176.321	0.348	0.009
-687.339	30.607	-0.086	0.074
-686.324	-111.180	-0.578	0.119
-685.310	-76.356	-0.286	0.101
-684.295	-23.207	0.206	0.124
-683.281	50.877	0.371	0.353
-682.266	447.368	-0.096	-0.212
-681.251	43.824	-0.131	0.121
-680.237	-200.000	0.019	-0.212
-679.222	-101.620	-0.051	0.013
-678.208	800.000	-0.021	0.083
-677.193	-142.564	-0.354	-0.035
-676.178	-29.166	-0.233	0.134
-675.164	-23.005	0.170	0.103
-674.149	-94.898	0.264	-0.072
-673.135	364.877	0.094	-0.191
-672.120	25.646	-0.106	-0.088
-671.105	45.436	-0.144	0.133
-670.091	-3.251	-0.230	0.161
-669.076	-113.858	-0.260	0.051
-668.062	213.432	0.141	-0.223
-667.047	-48.086	0.114	-0.055
-666.032	128.452	-0.085	-0.109
-665.018	-9.082	-0.068	-0.045
-664.003	158.985	-0.032	0.045
-662.989	800.000	-0.042	-0.155
-661.974	-37.776	-0.305	0.163
-660.959	12.040	0.254	-0.196
-659.945	771.917	0.002	-0.006
-658.930	210.501	-0.161	-0.253
-657.916	-200.000	0.108	-0.479
-656.901	-200.000	0.018	-0.233
-655.886	65.554	0.165	-0.168
-654.872	29.014	-0.239	0.204
-653.857	-200.000	0.009	0.231
-652.843	225.934	0.133	-0.216
-651.828	-19.215	-0.203	0.127
-650.814	190.843	-0.195	-0.294
-649.799	-152.588	-0.183	0.013
-648.784	800.000	-0.045	-0.177
-647.770	-38.621	0.104	0.055
-646.755	-78.980	-0.116	0.039
-645.741	625.014	-0.116	-0.294
-644.726	745.156	-0.153	-0.413
-643.711	-200.000	0.062	0.316
-642.697	-175.940	0.065	-0.002
-641.682	-72.071	0.324	-0.121
-640.668	-140.358	0.176	0.018
-639.653	-8.161	-0.233	0.157
-638.638	69.948	0.228	-0.235
-637.624	-147.863	-0.118	0.010
-636.609	800.000	0.032	0.120
-635.595	97.652	-0.135	0.156
-634.580	-200.000	0.001	0.131
-633.565	310.858	-0.141	-0.264
-632.551	-71.915	-0.112	-0.042
-631.536	13.951	0.134	-0.104
-630.522	6.433	0.192	-0.143
-629.507	-93.693	-0.245	0.068
-628.492	-177.172	-0.194	-0.005
-627.478	54.437	0.039	-0.037
-626.463	195.829	-0.098	0.150
-625.449	-1.708	-0.235	-0.166
-624.434	-200.000	-0.044	0.473
-623.419	-60.576	-0.275	-0.117
-622.405	440.779	0.128	0.280
-621.390	135.427	-0.012	0.016
-620.376	-200.000	0.030	0.135
-619.361	-66.687	-0.146	-0.058
-618.346	16.714	-0.206	0.163
-617.332	-195.290	0.328	-0.002
-616.317	49.101	0.076	-0.071
-615.303	-94.575	-0.314	-0.086
-614.288	765.096	0.056	-0.152
-613.273	800.000	0.119	-0.381
-612.259	49.051	-0.026	0.025
-611.244	-75.240	-0.504	0.180
-610.230	9.513	0.165	0.125
-609.215	-200.000	0.048	0.264
-608.201	-200.000	0.025	0.247
-607.186	114.220	0.294	0.358
-606.171	20.646	-0.164	0.133
-605.157	201.796	-0.076	0.116
-604.142	-200.000	0.022	0.195
-603.128	129.965	0.037	-0.048
-602.113	-10.432	-0.150	-0.099
-601.098	-200.000	0.006	0.047
-600.084	800.000	0.074	0.229
-599.069	137.744	0.099	-0.130
-598.055	569.033	-0.114	0.278
-597.040	493.284	0.053	-0.123
-596.025	-200.000	0.065	0.000
-595.011	413.415	-0.048	-0.102
-593.996	58.013	-0.120	0.118
-592.982	441.517	-0.093	0.203
-591.967	-23.150	0.132	-0.079
-590.952	-200.000	-0.014	0.377
-589.938	-200.000	-0.011	0.585
-588.923	800.000	-0.023	0.067
-587.909	-9.165	-0.071	0.047
-586.894	800.000	-0.074	0.241
-585.879	-93.112	0.247	0.069
-584.865	-53.370	-0.095	0.043
-583.850	-47.089	-0.099	0.049
-582.836	-123.348	0.064	-0.010
-581.821	-39.976	-0.184	-0.096
-580.806	503.469	-0.133	-0.308
-579.792	-101.496	0.237	-0.058
-578.777	-200.000	0.268	0.001
-577.763	-85.353	0.115	0.036
-576.748	-200.000	0.049	-0.256
-575.733	-200.000	-0.017	0.152
-574.719	800.000	-0.040	0.163
-573.704	403.392	0.123	0.258
-572.690	52.607	0.106	0.101
-571.675	-66.274	-0.206	-0.082
-570.661	63.386	0.178	0.178
-569.646	-159.484	-0.147	0.008
-568.631	143.531	-0.179	-0.239
-567.617	-10.842	0.233	0.154
-566.602	-85.305	-0.310	-0.097
-565.588	-200.000	0.024	-0.379
-564.573	84.050	-0.100	-0.109
-563.558	-82.493	-0.086	-0.028
-562.544	56.702	0.228	0.221
-561.529	800.000	0.113	-0.348
-560.515	-95.326	-0.286	-0.077
-559.500	-71.325	0.049	-0.018
-558.485	800.000	-0.094	0.365
-557.471	-47.458	0.147	-0.071
-556.456	-78.698	-0.071	0.024
-555.442	-125.168	0.254	0.039
-554.427	23.844	0.251	0.206
-553.412	629.654	-0.048	-0.122
-552.398	210.898	-0.094	0.147
-551.383	3.740	0.176	0.128
-550.369	800.000	-0.029	-0.106
-549.354	-104.560	-0.306	0.070
-548.339	11.665	0.214	-0.164
-547.325	-200.000	-0.046	-0.233
-546.310	800.000	0.052	-0.167
-545.296	-77.169	-0.072	0.025
-544.281	319.593	0.121	-0.230
-543.266	16.617	0.168	-0.133
-542.252	532.362	0.066	-0.156
-541.237	229.281	-0.034	-0.055
-540.223	99.052	0.268	-0.309
-539.208	-32.433	0.225	-0.125
-538.193	562.869	0.069	0.167
-537.179	102.917	0.023	-0.026
-536.164	-73.914	0.222	-0.080
-535.150	-149.336	-0.193	0.015
-534.135	800.000	0.075	0.208
-533.121	-88.908	-0.219	0.065
-532.106	57.766	0.045	0.044
-531.091	-200.000	-0.055	-0.328
-530.077	-119.404	0.102	-0.018
-529.062	-200.000	-0.019	-0.379
-528.048	26.545	-0.242	0.202
-527.033	575.520	-0.066	0.161
-526.018	-200.000	-0.042	0.307
-525.004	-104.424	0.159	-0.037
-523.989	-80.232	-0.336	0.112
-522.975	193.963	-0.157	-0.237
-521.960	-200.000	-0.023	0.172
-520.945	-44.156	0.358	-0.179
-519.931	-200.000	-0.059	-0.260
-518.916	-118.184	0.375	-0.067
-517.902	800.000	0.075	-0.279
-516.887	-146.611	-0.262	-0.023
-515.872	-200.000	0.032	-0.267
-514.858	15.415	-0.141	-0.110
-513.843	529.796	0.079	-0.186
-512.829	9.733	0.185	0.140
-511.814	-63.881	-0.172	0.070
-510.799	-200.000	-0.063	0.355
-509.785	-199.062	-0.208	-0.001
-508.770	63.850	-0.108	0.108
-507.756	196.505	-0.090	-0.137
-506.741	265.579	0.185	-0.322
-505.726	-123.028	-0.401	-0.064
-504.712	-78.865	-0.125	0.043
-503.697	11.645	-0.055	0.042
-502.683	64.599	0.202	-0.203
-501.668	172.669	0.171	-0.245
-500.653	-91.300	-0.330	0.094
-499.639	302.229	-0.104	-0.192
-498.624	-31.136	-0.051	-0.029
-497.610	102.716	-0.188	-0.219
-496.595	-200.000	-0.057	0.424
-495.581	-86.122	-0.174	0.053
-494.566	-82.355	0.328	-0.106
-493.551	737.826	-0.061	-0.162
-492.537	676.655	-0.189	-0.489
-491.522	594.726	0.037	0.091
-490.508	-200.000	-0.032	0.398
-489.493	32.253	0.038	0.033
-488.478	-200.000	0.003	0.035
-487.464	507.624	-0.168	-0.388
-486.449	800.000	0.039	-0.122
-485.435	393.435	0.142	-0.295
-484.420	183.846	0.077	0.113
-483.405	16.703	0.240	0.189
-482.391	-200.000	0.008	0.040
-481.376	-200.000	-0.040	-0.208
-480.362	-134.004	-0.293	0.036
-479.347	-83.563	-0.135	-0.043
-478.332	800.000	-0.031	-0.106
-477.318	-118.111	0.415	-0.074
-476.303	0.942	-0.291	-0.207
-475.289	-37.055	0.163	0.087
-474.274	-192.711	0.352	-0.003
-473.259	-9.262	-0.101	-0.067
-472.245	-25.268	0.164	-0.097
-471.230	800.000	-0.045	-0.163
-470.216	800.000	-0.059	-0.201
-469.201	-31.847	-0.140	0.078
-468.186	-200.000	0.020	0.155
-467.172	9.579	0.104	-0.078
-466.157	800.000	-0.048	-0.148
-465.143	-133.299	0.225	-0.028
-464.128	-200.000	-0.005	0.061
-463.113	-200.000	0.008	0.038
-462.099	36.502	-0.253	-0.222
-461.084	-200.000	-0.036	-0.261
-460.070	452.152	-0.124	0.274
-459.055	800.000	0.102	0.386
-458.040	94.006	0.127	-0.143
-457.026	800.000	0.081	-0.222
-456.011	-180.698	-0.192	0.004
-454.997	201.466	-0.086	-0.132
-453.982	-48.321	-0.063	0.030
-452.968	-200.000	0.023	-0.128
-451.953	63.735	0.058	-0.058
-450.938	-200.000	-0.021	0.298
-449.924	-30.672	-0.022	0.012
-448.909	-19.502	0.271	0.167
-447.895	-200.000	0.010	0.143
-446.880	-28.694	0.093	-0.053
-445.865	180.288	0.069	-0.101
-444.851	646.363	-0.085	-0.216
-443.836	-200.000	0.010	0.104
-442.822	800.000	-0.070	0.251
-441.807	206.951	-0.150	0.233
-440.792	-15.269	-0.181	0.115
-439.778	-200.000	-0.021	0.104
-438.763	-91.631	0.242	0.069
-437.749	107.175	-0.032	-0.038
-436.734	-24.286	0.416	-0.247
-435.719	-22.491	0.309	-0.186
-434.705	-72.413	0.179	-0.066
-433.690	237.130	-0.120	0.198
-432.676	-200.000	0.023	0.099
-431.661	-117.048	0.421	0.076
-430.646	-200.000	0.001	-0.068
-429.632	-19.071	0.328	0.203
-428.617	-110.221	-0.316	0.065
-427.603	-136.441	-0.282	0.033
-426.588	-136.979	-0.253	-0.029
-425.573	174.783	0.071	0.102
-424.559	-109.910	-0.307	0.064
-423.544	800.000	-0.075	0.285
-422.530	-75.501	0.254	-0.090
-421.515	-72.128	-0.272	0.100
-420.500	13.823	-0.164	0.127
-419.486	-72.462	-0.218	-0.080
-418.471	-106.689	0.359	0.079
-417.457	14.920	0.146	0.114
-416.442	12.057	-0.177	0.135
-415.428	-140.436	0.179	-0.018
-414.413	-200.000	-0.098	-0.586
-413.398	-85.759	0.342	-0.105
-412.384	125.199	0.087	0.109
-411.369	-50.412	-0.218	-0.102
-410.355	-200.000	0.005	-0.064
-409.340	-125.657	-0.609	0.092
-408.325	-7.942	0.121	0.081
-407.311	-169.394	-0.174	-0.006
-406.296	-200.000	-0.050	0.304
-405.282	71.517	0.116	0.120
-404.267	99.301	-0.161	0.184
-403.252	44.873	-0.343	0.314
-402.238	39.146	0.039	0.034
-401.223	106.849	-0.171	0.202
-400.209	-158.956	0.117	0.007
-399.194	-134.714	0.360	-0.043
-398.179	-200.000	0.038	0.280
-397.165	103.660	-0.181	-0.211
-396.150	-172.662	0.306	0.010
-395.136	-40.780	0.274	0.141
-394.121	-7.704	0.216	-0.145
-393.106	-17.495	-0.129	-0.081
-392.092	292.304	-0.178	-0.322
-391.077	-98.101	-0.151	-0.039
-390.063	-50.502	-0.219	-0.102
-389.048	208.036	0.147	0.228
-388.033	-200.000	0.272	-0.001
-387.019	-200.000	0.067	0.369
-386.004	-87.251	-0.112	0.034
-384.990	-139.887	-0.120	-0.013
-383.975	60.447	0.201	0.198
-382.960	-95.995	0.315	0.083
-381.946	-135.159	-0.227	-0.027
-380.931	-5.628	0.074	-0.050
-379.917	-17.490	0.074	-0.046
-378.902	52.034	0.204	0.192
-377.888	341.977	0.047	0.091
-376.873	779.268	-0.079	0.214
-375.858	-200.000	-0.029	0.153
-374.844	-139.869	-0.167	0.018
-373.829	294.106	-0.146	-0.265
-372.815	-41.334	-0.249	0.127
-371.800	-200.000	0.041	0.228
-370.785	-81.859	-0.357	0.116
-369.771	-169.706	-0.102	-0.004
-368.756	159.791	-0.138	-0.190
-367.742	324.194	0.126	0.239
-366.727	339.306	-0.180	0.348
-365.712	-159.678	0.161	0.009
-364.698	-36.775	-0.185	0.099
-363.683	75.930	-0.130	-0.136
-362.669	210.066	-0.072	-0.112
-361.654	64.324	0.255	-0.254
-360.639	138.484	0.095	0.123
-359.625	-26.655	0.386	-0.224
-358.610	-124.103	-0.458	0.071
-357.596	266.115	0.152	0.263
-356.581	-200.000	0.009	0.230
-355.566	-26.580	-0.322	0.187
-354.552	800.000	0.034	-0.144
-353.537	-200.000	0.036	-0.182
-352.523	-200.000	-0.046	-0.244
-351.508	-65.946	-0.191	-0.076
-350.493	-200.000	-0.027	-0.150
-349.479	97.678	0.124	0.141
-348.464	-12.836	0.226	0.146
-347.450	-30.649	0.231	-0.129
-346.435	-145.552	0.223	-0.020
-345.420	-110.800	-0.321	-0.065
-344.406	287.942	0.019	-0.034
-343.391	32.465	-0.051	-0.044
-342.377	350.951	0.130	-0.254
-341.362	-60.431	-0.267	0.112
-340.348	493.434	-0.067	0.152
-339.333	-200.000	-0.036	0.292
-338.318	-174.142	0.233	0.007
-337.304	-200.000	-0.001	-0.166
-336.289	21.638	0.307	-0.247
-335.275	-60.213	-0.050	-0.021
-334.260	-6.142	-0.046	0.031
-333.245	541.650	-0.192	0.454
-332.231	693.313	0.052	-0.135
-331.216	-113.827	0.415	0.080
-330.202	-10.296	0.215	0.141
-329.187	48.190	-0.090	0.083
-328.172	275.999	-0.108	0.190
-327.158	-200.000	0.029	0.147
-326.143	-200.000	-0.024	-0.386
-325.129	-49.729	0.110	0.052
-324.114	19.206	0.182	-0.145
-323.099	-49.158	0.284	-0.134
-322.085	40.580	0.121	0.108
-321.070	340.183	-0.163	-0.314
-320.056	800.000	-0.093	-0.307
-319.041	-12.082	0.358	0.232
-318.026	-89.796	-0.078	-0.022
-317.012	6.484	0.052	-0.038
-315.997	-80.176	-0.070	-0.023
-314.983	-177.916	0.141	0.003
-313.968	-200.000	-0.076	-0.336
-312.953	-137.867	0.273	-0.030
-311.939	717.446	0.068	-0.179
-310.924	172.408	-0.095	0.136
-309.910	-200.000	0.004	-0.094
-308.895	-200.000	-0.002	-0.018
-307.880	147.753	-0.187	0.249
-306.866	279.823	0.020	-0.036
-305.851	-200.000	-0.002	0.405
-304.837	728.680	0.069	-0.182
-303.822	122.241	-0.208	-0.258
-302.807	-149.916	0.218	-0.017
-301.793	-1.390	-0.350	0.244
-300.778	-58.594	0.343	0.147
-299.764	32.001	0.123	0.105
-298.749	128.476	0.155	0.196
-297.735	236.328	0.230	0.377
-296.720	-26.846	0.289	-0.167
-295.705	-40.208	-0.316	-0.163
-294.691	6.085	0.189	0.138
-293.676	-109.401	-0.118	0.025
-292.662	58.852	0.121	-0.118
-291.647	-57.014	0.107	-0.047
-290.632	-147.191	0.320	-0.027
-289.618	-200.000	0.029	-0.181
-288.603	96.090	-0.321	0.362
-287.589	-129.482	-0.092	0.013
-286.574	553.430	0.206	-0.490
-285.559	382.330	0.044	0.089
-284.545	800.000	-0.042	0.148
-283.530	-200.000	0.019	-0.170
-282.516	222.543	-0.206	-0.327
-281.501	94.520	0.245	-0.275
-280.486	-200.000	-0.004	0.155
-279.472	712.657	0.076	-0.198
-278.457	800.000	-0.029	0.100
-277.443	-35.190	-0.263	-0.141
-276.428	51.922	0.193	0.181
-275.413	-140.336	-0.181	-0.019
-274.399	48.728	-0.134	-0.124
-273.384	-46.798	0.211	-0.102
-272.370	-37.111	0.187	-0.099
-271.355	10.891	-0.194	0.146
-270.340	215.376	0.089	0.140
-269.326	-70.070	0.243	0.091
-268.311	-127.903	0.232	-0.033
-267.297	134.428	0.165	-0.212
-266.282	154.961	-0.075	-0.102
-265.267	93.205	0.083	-0.093
-264.253	-38.758	-0.363	-0.189
-263.238	-37.318	0.044	0.023
-262.224	424.796	-0.083	0.177
-261.209	-73.920	0.205	-0.074
-260.195	141.407	-0.075	-0.098
-259.180	-39.493	0.242	-0.125
-258.165	-162.080	-0.195	0.010
-257.151	-200.000	-0.046	0.217
-256.136	-200.000	0.017	-0.198
-255.122	228.281	0.047	0.076
-254.107	712.616	-0.039	-0.102
-253.092	800.000	-0.070	-0.250
-252.078	-200.000	-0.037	-0.303
-251.063	800.000	0.137	-0.484
-250.049	-144.247	-0.272	-0.025
-249.034	-200.000	-0.012	-0.112
-248.019	-94.022	0.128	0.035
-247.005	-102.804	0.092	0.022
-245.990	-200.000	-0.005	0.025
-244.976	-13.623	-0.062	0.040
-243.961	449.182	-0.136	0.297
-242.946	800.000	0.148	0.433
-241.932	-57.327	-0.174	-0.075
-240.917	-128.921	0.138	-0.019
-239.903	800.000	0.035	0.122
-238.888	-115.415	-0.255	0.047
-237.873	75.557	-0.122	0.127
-236.859	428.671	-0.117	0.249
-235.844	-141.780	-0.169	-0.017
-234.830	-200.000	-0.020	-0.275
-233.815	800.000	-0.054	0.167
-232.800	-32.123	-0.197	-0.109
-231.786	-200.000	-0.059	-0.302
-230.771	-200.000	0.019	-0.137
-229.757	137.713	-0.041	0.053
-228.742	45.037	-0.322	-0.293
-227.727	-80.507	0.262	0.086
-226.713	-112.105	0.393	-0.078
-225.698	430.699	0.059	-0.125
-224.684	-93.774	0.289	0.079
-223.669	-60.363	-0.312	0.131
-222.655	-57.377	0.138	0.060
-221.640	149.257	-0.190	0.253
-220.625	-200.000	-0.025	0.208
-219.611	-119.829	0.134	-0.023
-218.596	-40.009	-0.483	-0.248
-217.582	-126.990	-0.168	-0.024
-216.567	56.535	-0.216	-0.207
-215.552	118.104	-0.128	0.155
-214.538	-147.655	-0.217	0.018
-213.523	-2.942	-0.135	0.093
-212.509	-200.000	-0.007	-0.141
-211.494	800.000	-0.048	-0.152
-210.479	116.227	0.226	-0.273
-209.465	-46.418	0.188	0.091
-208.450	-92.369	0.211	0.059
-207.436	140.961	-0.216	-0.282
-206.421	-78.457	-0.228	-0.077
-205.406	414.117	0.155	0.324
-204.392	800.000	0.114	-0.360
-203.377	234.494	0.212	-0.344
-202.363	115.160	0.156	0.188
-201.348	-191.238	-0.126	-0.001
-200.333	-200.000	-0.031	-0.174
-199.319	273.453	0.079	0.138
-198.304	525.791	0.090	0.208
-197.290	-200.000	0.025	-0.149
-196.275	213.369	0.145	0.225
-195.260	10.086	-0.208	-0.155
-194.246	168.546	-0.171	0.240
-193.231	77.976	0.133	0.139
-192.217	-26.867	-0.111	-0.064
-191.202	-101.256	0.154	-0.037
-190.187	-133.486	-0.375	-0.046
-189.173	-156.421	-0.201	0.012
-188.158	479.165	0.149	0.333
-187.144	-95.487	-0.216	0.057
-186.129	-134.794	-0.358	-0.043
-185.114	-200.000	-0.027	0.127
-184.100	105.505	0.262	0.305
-183.085	110.902	0.199	-0.236
-182.071	223.269	0.094	0.149
-181.056	-190.932	0.121	0.001
-180.042	-87.801	-0.067	-0.020
-179.027	-87.970	-0.233	-0.069
-178.012	88.702	0.173	-0.189
-176.998	-66.963	-0.415	0.161
-175.983	38.210	0.393	-0.344
-174.969	138.068	-0.060	0.077
-173.954	-80.741	0.265	-0.087
-172.939	103.907	0.143	0.165
-171.925	3.283	0.105	0.075
-170.910	-200.000	-0.006	-0.287
-169.896	-25.494	0.513	0.298
-168.881	-109.499	-0.197	0.041
-167.866	-200.000	0.033	-0.250
-166.852	119.274	0.294	0.357
-165.837	-129.948	-0.094	-0.013
-164.823	-167.196	-0.106	0.004
-163.808	25.609	-0.065	-0.053
-162.793	175.837	0.220	0.314
-161.779	-164.896	-0.073	-0.003
-160.764	-200.000	-0.002	0.022
-159.750	-101.380	-0.140	0.034
-158.735	-200.000	0.007	0.176
-157.720	-200.000	0.026	-0.158
-156.706	78.415	0.176	0.185
-155.691	-26.291	-0.222	-0.128
-154.677	32.366	-0.076	-0.065
-153.662	-125.523	0.119	0.018
-152.647	800.000	-0.029	-0.082
-151.633	81.476	-0.143	-0.152
-150.618	-44.570	0.256	0.126
-149.604	-29.894	-0.140	-0.078
-148.589	264.729	0.074	0.126
-147.574	63.906	-0.169	0.167
-146.560	-52.132	-0.355	-0.162
-145.545	-200.000	0.067	-0.434
-144.531	800.000	0.033	-0.094
-143.516	499.225	-0.051	0.116
-142.502	-124.966	0.535	0.081
-141.487	127.847	-0.130	-0.162
-140.472	-9.216	-0.217	-0.142
-139.458	800.000	0.125	-0.493
-138.443	328.972	0.055	0.103
-137.429	-112.993	0.344	0.067
-136.414	583.583	-0.127	0.306
-135.399	-115.969	0.165	-0.030
-134.385	287.812	-0.088	-0.156
-133.370	800.000	0.148	0.427
-132.356	-59.450	0.175	-0.074
-131.341	67.539	-0.066	0.066
-130.326	52.584	0.164	0.154
-129.312	54.220	0.143	0.135
-128.297	-2.115	0.175	0.121
-127.283	800.000	0.077	0.273
-126.268	67.863	0.311	-0.313
-125.253	-22.478	0.119	0.071
-124.239	472.734	-0.049	-0.108
-123.224	-107.452	-0.229	-0.049
-122.210	-200.000	0.069	-0.321
-121.195	-72.966	0.302	-0.109
-120.180	484.155	-0.222	-0.495
-119.166	-82.872	-0.169	-0.054
-118.151	238.309	0.138	-0.224
-117.137	196.907	0.081	0.122
-116.122	800.000	0.037	0.116
-115.107	800.000	0.060	-0.239
-114.093	-200.000	-0.041	-0.187
-113.078	800.000	-0.048	0.141
-112.064	-126.970	0.062	-0.009
-111.049	-133.934	0.266	-0.032
-110.034	-81.112	0.186	-0.060
-109.020	88.140	0.026	-0.028
-108.005	-108.045	-0.199	-0.042
-106.991	-117.630	0.314	-0.056
-105.976	-176.087	0.180	0.005
-104.962	-200.000	-0.011	0.332
-103.947	36.043	0.324	0.280
-102.932	800.000	0.033	0.100
-101.918	108.675	-0.200	0.235
-100.903	800.000	0.091	0.278
-99.889	-200.000	-0.003	-0.047
-98.874	-80.696	0.238	0.078
-97.859	-186.956	0.465	-0.006
-96.845	79.769	-0.314	0.331
-95.830	72.386	0.377	0.385
-94.816	48.247	-0.198	0.181
-93.801	-200.000	-0.025	0.161
-92.786	271.167	-0.071	-0.122
-91.772	-200.000	-0.046	-0.334
-90.757	103.930	-0.278	-0.320
-89.743	-200.000	0.006	0.029
-88.728	77.686	0.142	-0.149
-87.713	800.000	0.111	-0.347
-86.699	19.579	-0.077	0.061
-85.684	-116.638	0.384	-0.069
-84.670	-200.000	-0.069	0.337
-83.655	-40.863	0.055	-0.028
-82.640	-45.184	-0.239	0.117
-81.626	800.000	-0.028	-0.099
-80.611	-200.000	0.017	0.378
-79.597	-93.609	-0.149	0.040
-78.582	-134.534	-0.174	-0.021
-77.567	469.326	0.040	0.089
-76.553	-200.000	-0.083	0.395
-75.538	-98.138	-0.250	-0.063
-74.524	633.505	-0.062	0.155
-73.509	-106.684	-0.179	0.039
-72.494	91.248	0.208	0.228
-71.480	-74.465	0.138	-0.049
-70.465	800.000	-0.058	-0.193
-69.451	-200.000	0.037	0.266
-68.436	656.055	-0.082	0.208
-67.422	-200.000	0.024	-0.419
-66.407	26.782	-0.126	0.104
-65.392	38.954	0.119	0.105
-64.378	12.504	-0.121	0.092
-63.363	-85.635	-0.265	0.081
-62.349	-200.000	0.074	-0.356
-61.334	27.230	-1.042	-0.857
-60.319	800.000	0.211	0.823
-59.305	800.000	-0.369	-1.021
-58.290	136.818	0.707	0.904
-57.276	-200.000	0.429	1.873
-56.261	-200.000	94.091	575.080
-55.246	558.827	1357.435	3208.207
-54.232	166.082	2528.931	3506.304
-53.217	106.496	2254.529	2617.849
-52.203	41.828	1888.996	1677.103
-51.188	35.962	1681.652	1448.979
-50.173	33.164	1638.943	1391.573
-49.159	50.721	1684.912	1561.851
-48.144	52.286	1701.964	1589.265
-47.130	35.543	1663.744	1430.205
-46.115	32.756	1650.135	1397.829
-45.100	32.610	1645.047	1392.385
-44.086	32.534	1642.832	1389.891
-43.071	32.561	1639.829	1387.498
-42.057	32.501	1637.777	1385.263
-41.042	32.620	1635.338	1384.022
-40.027	32.448	1633.992	1381.565
-39.013	32.521	1631.979	1380.343
-37.998	32.482	1630.474	1378.731
-36.984	32.512	1628.873	1377.536
-35.969	32.595	1627.981	1377.338
-34.954	32.600	1625.351	1375.095
-33.940	32.560	1624.397	1373.936
-32.925	32.683	1622.347	1373.044
-31.911	32.491	1621.333	1370.735
-30.896	32.631	1619.277	1369.960
-29.881	32.691	1617.610	1368.933
-28.867	32.610	1616.284	1367.169
-27.852	32.621	1614.643	1365.810
-26.838	32.647	1613.226	1364.743
-25.823	32.619	1612.420	1363.799
-24.809	32.654	1610.608	1362.469
-23.794	32.624	1609.160	1360.975
-22.779	32.684	1607.469	1359.920
-21.765	32.691	1605.841	1358.539
-20.750	32.632	1604.235	1356.708
-19.736	32.673	1603.032	1355.926
-18.721	32.764	1601.449	1355.188
-17.706	32.691	1600.358	1353.690
-16.692	32.612	1598.919	1351.849
-15.677	32.676	1597.207	1350.810
-14.663	32.730	1595.628	1349.807
-13.648	32.722	1594.475	1348.721
-12.633	32.738	1592.970	1347.510
-11.619	32.738	1590.782	1345.605
-10.604	32.668	1589.547	1344.002
-9.590	32.738	1588.612	1343.663
-8.575	32.736	1587.096	1342.314
-7.560	32.646	1586.128	1340.801
-6.546	32.682	1584.883	1339.946
-5.531	32.673	1584.342	1339.377
-4.517	32.662	1583.277	1338.346
-3.502	32.770	1581.763	1337.776
-2.487	32.700	1579.711	1335.490
-1.473	32.112	1567.922	1321.336
-0.458	28.494	1546.510	1278.076
0.556	21.670	1545.219	1238.908
1.571	18.784	1567.626	1236.024
2.586	18.078	1579.745	1240.346
3.600	16.856	1530.106	1192.669
4.615	12.731	1431.389	1088.419
5.629	8.876	1373.039	1019.482
6.644	8.043	1365.255	1008.342
7.659	8.015	1363.865	1007.050
8.673	7.886	1363.387	1005.793
9.688	7.756	1361.171	1003.249
10.702	7.614	1358.223	1000.095
11.717	9.559	1360.929	1014.257
12.731	13.826	1369.080	1047.214
13.746	16.899	1373.070	1069.591
14.761	16.940	1372.140	1069.032
15.775	15.977	1369.758	1061.018
16.790	14.947	1366.939	1052.264
17.804	14.091	1365.197	1045.448
18.819	13.615	1363.739	1041.251
19.834	13.388	1362.037	1038.433
20.848	13.053	1361.069	1035.507
21.863	12.835	1359.710	1033.012
22.877	12.757	1358.163	1031.255
23.892	12.735	1357.182	1030.286
24.907	12.677	1356.858	1029.584
25.921	12.716	1355.758	1028.899
26.936	12.864	1354.578	1028.837
27.950	12.834	1354.170	1028.250
28.965	12.812	1353.068	1027.186
29.980	12.943	1351.689	1026.866
30.994	12.957	1350.400	1025.879
32.009	13.069	1349.203	1025.575
33.023	13.033	1348.240	1024.530
34.038	12.976	1346.828	1023.010
35.053	12.925	1345.392	1021.517
36.067	13.024	1344.347	1021.245
37.082	12.986	1342.875	1019.801
38.096	12.806	1342.705	1018.470
39.111	13.030	1341.490	1018.844
40.126	12.848	1341.000	1017.254
41.140	12.699	1340.073	1015.543
42.155	12.703	1339.381	1014.956
43.169	12.700	1339.604	1015.017
44.184	12.706	1339.053	1014.547
45.199	12.603	1339.040	1013.809
46.213	12.682	1338.294	1013.644
47.228	12.890	1336.356	1013.361
48.242	12.929	1335.239	1012.668
49.257	12.928	1334.014	1011.640
50.271	12.799	1333.197	1010.144
51.286	12.854	1331.902	1009.406
52.301	12.842	1330.617	1008.272
53.315	12.858	1329.064	1007.103
54.330	12.766	1328.463	1005.996
55.344	12.788	1327.073	1004.990
56.359	12.743	1325.813	1003.669
57.374	12.846	1324.845	1003.478
58.388	12.719	1324.681	1002.493
59.403	12.649	1323.997	1001.456
60.417	12.709	1323.480	1001.341
61.432	12.651	1322.668	1000.289
62.447	12.537	1322.138	999.108
63.461	12.623	1320.669	998.429
64.476	12.569	1319.549	997.166
65.490	12.525	1318.429	995.969
66.505	12.624	1316.894	995.316
67.520	12.555	1315.477	993.742
68.534	12.541	1315.123	993.301
69.549	12.613	1313.646	992.532
70.563	12.613	1312.816	991.817
71.578	12.561	1311.520	990.436
72.593	12.502	1310.736	989.404
73.607	12.513	1309.788	988.665
74.622	12.455	1308.932	987.586
75.636	12.554	1308.529	987.786
76.651	12.471	1308.254	986.991
77.666	12.516	1307.216	986.393
78.680	12.472	1307.263	986.075
79.695	12.586	1306.172	985.853
80.709	12.630	1305.129	985.240
81.724	12.607	1304.464	984.510
82.739	12.606	1303.758	983.885
83.753	12.811	1302.543	984.106
84.768	12.928	1301.554	983.968
85.782	12.988	1299.764	982.886
86.797	12.861	1298.989	981.460
87.812	12.885	1298.014	980.777
88.826	12.947	1296.580	979.975
89.841	12.846	1295.666	978.600
90.855	12.845	1295.072	978.060
91.870	12.880	1293.894	977.291
92.884	12.963	1292.610	976.726
93.899	12.881	1292.718	976.232
94.914	13.018	1291.462	976.008
95.928	12.972	1290.790	975.143
96.943	12.989	1289.325	974.048
97.957	12.906	1288.725	973.022
98.972	12.847	1287.765	971.864
99.987	12.996	1286.412	971.636
101.001	12.889	1285.613	970.317
102.016	12.982	1284.675	970.066
103.030	12.936	1283.673	968.954
104.045	12.840	1283.215	967.961
105.060	12.767	1282.001	966.530
106.074	12.731	1280.263	964.921
107.089	12.635	1279.123	963.418
108.103	12.662	1277.923	962.584
109.118	12.649	1276.461	961.325
110.133	12.615	1275.126	960.036
111.147	12.654	1273.894	959.250
112.162	12.686	1272.623	958.391
113.176	12.747	1271.407	957.747
114.191	12.629	1270.985	956.658
115.206	12.716	1269.343	955.842
116.220	12.760	1267.649	954.739
117.235	12.650	1267.624	953.994
118.249	12.710	1266.480	953.398
119.264	12.707	1265.023	952.200
120.279	12.584	1264.034	950.664
121.293	12.650	1263.103	950.260
122.308	12.641	1262.169	949.421
123.322	12.611	1261.060	948.327
124.337	12.636	1259.900	947.518
125.352	12.671	1259.131	947.055
126.366	12.573	1258.148	945.671
127.381	12.741	1256.636	945.415
128.395	12.729	1255.597	944.480
129.410	12.698	1254.791	943.612
130.424	12.722	1253.999	943.067
131.439	12.756	1252.878	942.337
132.454	12.756	1252.511	941.979
133.468	12.832	1251.413	941.502
134.483	12.799	1250.889	940.840
135.497	12.822	1249.604	939.920
136.512	12.892	1247.980	939.012
137.527	12.778	1246.811	937.404
138.541	12.872	1245.507	936.874
139.556	12.852	1244.700	936.071
140.570	12.822	1243.817	935.155
141.585	12.910	1242.321	934.440
142.600	12.941	1241.331	933.794
143.614	13.016	1240.142	933.238
144.629	13.016	1239.125	932.392
145.643	13.066	1238.008	931.753
146.658	12.893	1236.723	929.725
147.673	12.825	1235.654	928.454
148.687	12.870	1234.247	927.572
149.702	12.826	1232.752	926.116
150.716	12.727	1232.019	924.929
151.731	12.809	1230.771	924.372
152.746	12.854	1229.721	923.752
153.760	12.932	1228.695	923.337
154.775	13.006	1227.211	922.553
155.789	13.060	1226.299	922.090
156.804	13.054	1225.228	921.168
157.819	12.993	1224.222	919.991
158.833	13.085	1223.368	919.781
159.848	13.036	1222.780	918.981
160.862	13.153	1221.390	918.506
161.877	13.037	1220.583	917.177
162.892	12.968	1219.668	916.021
163.906	12.987	1218.395	915.091
164.921	13.037	1217.436	914.565
165.935	12.999	1216.676	913.705
166.950	13.139	1215.616	913.602
167.964	12.988	1215.395	912.519
168.979	13.024	1214.702	912.116
169.994	13.099	1213.951	911.886
171.008	13.081	1213.343	911.251
172.023	13.143	1212.040	910.533
173.037	13.203	1211.184	910.137
174.052	13.142	1210.553	909.252
175.067	13.207	1209.166	908.482
176.081	12.978	1208.363	906.541
177.096	13.091	1207.843	906.690
178.110	13.124	1206.589	905.854
179.125	13.140	1205.364	904.941
180.140	13.144	1204.144	903.963
181.154	13.060	1203.194	902.713
182.169	13.184	1201.615	902.128
183.183	13.172	1201.224	901.690
184.198	13.413	1199.405	901.554
185.213	13.175	1198.880	899.786
186.227	13.346	1197.496	899.597
187.242	13.265	1197.045	898.738
188.256	13.378	1195.530	898.132
189.271	13.296	1194.821	897.077
190.286	13.352	1193.183	896.070
191.300	13.130	1192.684	894.418
192.315	13.078	1192.129	893.640
193.329	13.138	1191.293	893.258
194.344	13.083	1190.989	892.651
195.359	13.131	1190.566	892.518
196.373	13.266	1189.841	892.625
197.388	13.475	1188.907	892.970
198.402	13.374	1189.061	892.465
199.417	13.487	1188.143	892.305
200.432	13.657	1186.900	892.206
201.446	13.461	1186.535	890.796
202.461	13.509	1185.270	890.027
203.475	13.617	1184.622	890.045
204.490	13.636	1183.199	888.999
205.504	13.543	1182.070	887.572
206.519	13.474	1181.092	886.391
207.534	13.425	1179.679	884.989
208.548	13.556	1178.519	884.742
209.563	13.485	1178.034	883.920
210.577	13.577	1177.238	883.734
211.592	13.537	1176.551	882.927
212.607	13.626	1175.214	882.317
213.621	13.639	1174.597	881.848
214.636	13.646	1173.432	880.928
215.650	13.742	1172.946	880.996
216.665	13.692	1171.849	879.831
217.680	13.694	1170.960	879.098
218.694	13.766	1170.136	878.781
219.709	13.750	1169.329	878.011
220.723	13.753	1168.482	877.314
221.738	13.769	1167.725	876.752
222.753	13.709	1166.786	875.654
223.767	13.807	1166.436	875.831
224.782	13.909	1165.682	875.726
225.796	13.964	1164.775	875.254
226.811	13.922	1164.282	874.588
227.826	13.888	1163.450	873.705
228.840	13.867	1162.790	873.021
229.855	13.866	1161.919	872.288
230.869	13.860	1161.220	871.650
231.884	13.765	1161.013	870.919
232.899	13.793	1159.581	869.918
233.913	13.737	1159.325	869.356
234.928	13.796	1158.554	869.010
235.942	13.741	1157.772	868.056
236.957	13.813	1156.831	867.650
237.972	13.799	1156.403	867.180
238.986	13.849	1155.358	866.578
240.001	13.856	1154.999	866.273
241.015	13.938	1153.809	865.727
242.030	14.025	1152.868	865.401
243.045	13.954	1152.531	864.700
244.059	13.896	1151.919	863.863
245.074	13.961	1150.910	863.368
246.088	14.090	1149.957	863.249
247.103	14.007	1149.285	862.236
248.117	14.086	1148.680	862.117
249.132	14.124	1148.207	861.879
250.147	14.301	1147.241	861.994
251.161	14.328	1146.480	861.485
252.176	14.489	1145.428	861.452
253.190	14.408	1145.122	860.729
254.205	14.457	1144.927	860.757
255.220	14.352	1144.510	859.823
256.234	14.446	1143.541	859.509
257.249	14.404	1142.791	858.650
258.263	14.408	1142.129	858.098
259.278	14.490	1141.304	857.826
260.293	14.500	1140.950	857.532
261.307	14.606	1140.430	857.613
262.322	14.543	1139.727	856.684
263.336	14.542	1139.292	856.277
264.351	14.632	1138.470	856.045
265.366	14.527	1137.813	854.935
266.380	14.609	1136.896	854.592
267.395	14.619	1136.089	853.960
268.409	14.543	1135.797	853.276
269.424	14.529	1134.732	852.330
270.439	14.516	1134.553	852.055
271.453	14.543	1133.243	851.129
272.468	14.429	1132.935	850.241
273.482	14.455	1132.337	849.850
274.497	14.561	1131.278	849.519
275.512	14.616	1130.743	849.324
276.526	14.499	1129.634	847.819
277.541	14.550	1129.213	847.692
278.555	14.617	1128.400	847.346
279.570	14.603	1127.997	846.895
280.585	14.781	1126.583	846.662
281.599	14.677	1125.778	845.453
282.614	14.778	1124.685	845.068
283.628	14.659	1124.483	844.244
284.643	14.599	1123.291	842.968
285.657	14.754	1121.907	842.640
286.672	14.735	1121.023	841.801
287.687	14.793	1120.440	841.582
288.701	14.871	1119.599	841.271
289.716	14.782	1119.149	840.410
290.730	14.740	1118.599	839.709
291.745	14.774	1117.897	839.281
292.760	14.834	1116.907	838.766
293.774	14.923	1116.425	838.774
294.789	14.833	1116.134	838.031
295.803	14.841	1115.420	837.461
296.818	14.889	1114.692	837.080
297.833	14.962	1113.523	836.491
298.847	14.989	1112.904	836.091
299.862	14.784	1112.453	834.651
300.876	14.921	1111.340	834.426
301.891	15.135	1110.737	834.964
302.906	15.017	1110.367	834.025
303.920	15.122	1109.361	833.719
304.935	15.183	1109.002	833.681
305.949	15.145	1108.197	832.812
306.964	15.079	1107.909	832.196
307.979	15.013	1107.265	831.308
308.993	15.144	1106.317	831.173
310.008	15.156	1105.568	830.595
311.022	15.188	1104.727	830.052
312.037	15.211	1103.621	829.260
313.052	15.171	1102.836	828.397
314.066	15.056	1101.772	826.960
315.081	15.032	1101.167	826.315
316.095	15.102	1100.337	825.961
317.110	15.207	1099.535	825.806
318.125	15.086	1098.626	824.455
319.139	15.125	1098.050	824.141
320.154	15.171	1097.291	823.724
321.168	15.099	1096.891	822.996
322.183	15.152	1096.595	822.963
323.197	15.134	1096.048	822.390
324.212	15.140	1095.572	821.990
325.227	15.320	1094.563	822.043
326.241	15.208	1093.814	820.858
327.256	15.187	1093.508	820.452
328.270	15.213	1092.441	819.707
329.285	15.329	1091.184	819.259
330.300	15.207	1090.496	818.074
331.314	15.292	1089.444	817.625
332.329	15.352	1088.311	816.994
333.343	15.254	1087.784	816.052
334.358	15.337	1086.681	815.553
335.373	15.241	1086.748	815.066
336.387	15.495	1085.370	815.194
337.402	15.442	1085.126	814.681
338.416	15.447	1084.326	814.030
339.431	15.523	1083.730	813.882
340.446	15.509	1083.341	813.451
341.460	15.584	1082.550	813.148
342.475	15.739	1081.519	813.048
343.489	15.662	1080.674	811.969
344.504	15.596	1079.804	810.927
345.519	15.606	1079.316	810.538
346.533	15.692	1077.835	809.769
347.548	15.803	1077.364	809.875
348.562	15.854	1076.302	809.252
349.577	15.644	1076.001	807.944
350.592	15.659	1074.935	807.144
351.606	15.606	1074.470	806.466
352.621	15.581	1073.633	805.650
353.635	15.502	1073.223	804.891
354.650	15.661	1072.191	804.806
355.665	15.845	1071.353	804.986
356.679	15.636	1070.567	803.327
357.694	15.756	1070.287	803.621
358.708	15.772	1069.708	803.188
359.723	15.789	1069.078	802.726
360.738	15.719	1068.560	801.932
361.752	15.843	1067.588	801.726
362.767	15.739	1067.465	801.063
363.781	15.819	1066.958	800.996
364.796	15.883	1066.289	800.724
365.810	16.022	1065.676	800.854
366.825	15.960	1065.134	800.080
367.840	16.016	1064.653	799.916
368.854	16.163	1064.118	800.138
369.869	16.060	1063.221	798.905
370.883	16.065	1062.247	798.126
371.898	15.996	1061.596	797.243
372.913	16.085	1060.929	797.090
373.927	16.020	1060.790	796.610
374.942	16.107	1060.239	796.534
375.956	16.036	1059.793	795.795
376.971	16.063	1058.826	795.126
377.986	16.147	1058.290	795.047
379.000	16.236	1057.726	794.975
380.015	16.212	1057.306	794.477
381.029	16.356	1056.714	794.636
382.044	16.214	1055.981	793.347
383.059	16.154	1055.195	792.404
384.073	16.283	1054.361	792.313
385.088	16.331	1053.549	791.858
386.102	16.186	1053.017	790.708
387.117	16.291	1051.881	790.276
388.132	16.263	1050.853	789.305
389.146	16.278	1049.753	788.479
390.161	16.236	1049.134	787.751
391.175	16.286	1048.556	787.478
392.190	16.290	1048.014	787.021
393.205	16.331	1047.541	786.787
394.219	16.330	1046.699	786.078
395.234	16.263	1045.980	785.160
396.248	16.260	1044.950	784.303
397.263	16.134	1044.070	782.986
398.278	16.208	1043.084	782.522
399.292	16.231	1042.238	781.926
400.307	16.279	1041.785	781.736
401.321	16.217	1040.851	780.680
402.336	16.256	1040.476	780.510
403.350	16.228	1040.040	779.984
404.365	16.308	1039.070	779.558
405.380	16.288	1038.738	779.149
406.394	16.354	1037.793	778.673
407.409	16.362	1037.126	778.142
408.423	16.566	1036.189	778.307
409.438	16.648	1035.648	778.212
410.453	16.645	1034.791	777.482
411.467	16.586	1034.425	776.871
412.482	16.628	1033.795	776.520
413.496	16.657	1033.268	776.190
414.511	16.736	1032.418	775.845
415.526	16.626	1032.335	775.208
416.540	16.756	1031.987	775.473
417.555	16.770	1031.174	774.859
418.569	16.701	1030.814	774.205
419.584	16.700	1030.311	773.753
420.599	16.882	1029.406	773.836
421.613	101.477	1318.394	1458.327
422.628	92.841	1360.489	1458.454
