DTS Sentinel unit serial number:	SN413079Multiplexer serial number:	ORYXHardware model number:	OX4-SRSoftware version number:	ORYX F/W v4.00 Oryx Data Collector v3.7.2.0data status	okinstallation	princeton_trtdifferential loss correction	single-endedforward channel	channel 2reverse channel	N/Adate	2019/09/13time	22:15:35forward acquisition time	60.00reverse acquisition time	0.00gamma	496.2192k internal	0.2336k external	0.2336temperature offset calibration	1.0134default loss term (dB/km)	0.3790temperature slope calibration	1.0000multiplexer offset coefficient	1.0000multiplexer slope coefficient	1.0000fibre end	0.00T internal ref (°C)	27.89T ext. ref 1 (°C)	3.24T ext. ref 2 (°C)	22.60length (m)	temperature (°C)	Stokes	anti-Stokes-747.200	800.000	0.059	-0.175
-746.185	800.000	-0.069	0.250
-745.171	-107.358	-0.293	0.065
-744.156	-200.000	0.015	0.212
-743.142	213.611	-0.048	-0.076
-742.127	-12.054	-0.210	-0.138
-741.112	58.471	0.094	-0.092
-740.098	-112.119	-0.402	-0.081
-739.083	151.255	-0.207	-0.283
-738.069	-52.380	-0.349	0.162
-737.054	-145.290	-0.259	0.024
-736.039	-32.496	-0.149	-0.084
-735.025	-43.461	-0.164	-0.083
-734.010	-71.251	0.251	-0.095
-732.996	-200.000	0.060	-0.357
-731.981	119.084	-0.231	-0.287
-730.966	-43.169	-0.278	-0.142
-729.952	-200.000	-0.015	-0.201
-728.937	37.816	0.067	-0.060
-727.923	-3.768	0.178	-0.124
-726.908	92.582	0.104	0.118
-725.894	-65.418	-0.459	-0.185
-724.879	459.522	0.097	-0.217
-723.864	-21.058	0.121	0.074
-722.850	-157.138	-0.307	-0.019
-721.835	-200.000	0.023	-0.114
-720.821	41.930	0.063	-0.057
-719.806	264.947	0.095	-0.167
-718.791	313.203	-0.076	-0.143
-717.777	33.770	-0.024	-0.021
-716.762	-78.674	0.223	-0.076
-715.748	493.341	0.058	0.133
-714.733	-147.836	0.061	0.005
-713.718	-122.539	-0.070	0.011
-712.704	73.920	-0.141	-0.148
-711.689	800.000	0.041	-0.127
-710.675	284.896	-0.137	-0.248
-709.660	-46.019	0.329	-0.163
-708.645	98.518	-0.023	-0.027
-707.631	-95.661	-0.181	0.049
-706.616	35.933	0.268	0.237
-705.602	-65.045	0.114	-0.046
-704.587	-108.823	-0.207	0.044
-703.572	-200.000	0.014	0.157
-702.558	86.265	0.022	0.024
-701.543	-84.276	0.281	-0.089
-700.529	23.866	0.049	-0.040
-699.514	-200.000	-0.017	-0.161
-698.499	-60.448	-0.295	-0.126
-697.485	-63.953	-0.431	0.177
-696.470	115.407	0.071	-0.087
-695.456	-59.129	0.161	0.070
-694.441	-80.511	-0.256	0.086
-693.426	-6.785	0.233	0.159
-692.412	660.359	-0.021	-0.055
-691.397	-52.240	-0.366	0.170
-690.383	76.985	-0.135	-0.143
-689.368	-94.746	0.437	0.119
-688.354	473.394	-0.083	-0.187
-687.339	800.000	-0.077	-0.271
-686.324	100.572	-0.146	0.170
-685.310	-5.365	-0.181	0.125
-684.295	-119.145	0.142	-0.025
-683.281	78.457	-0.074	0.079
-682.266	-145.502	-0.159	-0.014
-681.251	73.483	0.069	-0.073
-680.237	-92.578	-0.232	-0.065
-679.222	-110.671	0.137	-0.028
-678.208	-43.094	-0.094	0.048
-677.193	11.015	0.110	-0.084
-676.178	-200.000	-0.009	-0.247
-675.164	-16.605	-0.371	-0.236
-674.149	800.000	-0.083	-0.322
-673.135	56.328	-0.097	-0.095
-672.120	152.111	-0.220	-0.301
-671.105	-96.287	0.493	0.131
-670.091	-11.183	-0.095	-0.063
-669.076	800.000	0.077	-0.233
-668.062	219.287	-0.219	-0.350
-667.047	-25.759	0.188	-0.111
-666.032	800.000	0.072	-0.221
-665.018	-200.000	0.012	-0.101
-664.003	612.290	-0.108	0.271
-662.989	-200.000	-0.072	0.400
-661.974	-200.000	-0.013	0.202
-660.959	-84.518	-0.189	-0.060
-659.945	-200.000	-0.036	0.177
-658.930	-200.000	0.011	-0.129
-657.916	-47.531	0.266	0.129
-656.901	-200.000	0.018	-0.105
-655.886	800.000	-0.055	-0.181
-654.872	-200.000	-0.031	0.251
-653.857	-200.000	-0.017	-0.201
-652.843	-104.188	-0.124	-0.029
-651.828	-200.000	-0.058	0.451
-650.814	198.132	-0.194	-0.297
-649.799	83.137	0.118	-0.128
-648.784	-200.000	0.000	0.029
-647.770	-79.318	0.148	0.050
-646.755	-200.000	-0.004	-0.133
-645.741	379.599	-0.096	0.198
-644.726	-135.552	-0.255	0.030
-643.711	800.000	-0.065	-0.242
-642.697	-200.000	-0.046	0.255
-641.682	100.181	-0.038	-0.044
-640.668	75.799	0.161	0.171
-639.653	-37.182	0.099	-0.053
-638.638	-24.509	0.347	-0.207
-637.624	-156.171	-0.135	-0.008
-636.609	16.381	0.114	-0.090
-635.595	22.200	-0.170	-0.139
-634.580	5.698	0.074	0.055
-633.565	-80.212	0.222	-0.074
-632.551	-124.628	-0.248	-0.039
-631.536	18.250	0.334	-0.267
-630.522	259.288	-0.156	0.268
-629.507	-171.591	-0.232	0.008
-628.492	-98.289	0.340	-0.087
-627.478	155.929	0.178	-0.246
-626.463	-162.695	-0.080	0.004
-625.449	662.595	0.096	0.247
-624.434	-108.097	-0.120	-0.026
-623.419	273.691	-0.066	0.117
-622.405	177.979	0.266	0.387
-621.390	-95.353	0.114	-0.031
-620.376	-7.319	-0.310	-0.210
-619.361	-200.000	0.007	0.168
-618.346	399.078	-0.169	-0.353
-617.332	-200.000	-0.027	-0.181
-616.317	165.086	-0.107	-0.151
-615.303	-25.517	0.088	0.052
-614.288	520.299	0.018	-0.042
-613.273	4.393	0.088	0.064
-612.259	154.566	0.161	0.222
-611.244	185.085	0.122	0.181
-610.230	-99.631	-0.369	0.092
-609.215	-134.169	-0.265	-0.033
-608.201	800.000	-0.026	0.074
-607.186	-39.793	-0.198	-0.103
-606.171	-70.902	0.393	-0.148
-605.157	143.678	-0.079	-0.105
-604.142	117.804	-0.210	-0.258
-603.128	218.297	0.016	-0.025
-602.113	6.794	-0.287	0.213
-601.098	71.754	-0.080	-0.083
-600.084	-89.440	-0.164	-0.048
-599.069	-200.000	0.024	0.151
-598.055	63.219	0.075	0.075
-597.040	-15.889	-0.410	-0.261
-596.025	-45.628	0.247	-0.122
-595.011	247.403	-0.153	0.258
-593.996	42.855	0.239	-0.218
-592.982	599.716	-0.110	-0.272
-591.967	228.372	0.081	-0.132
-590.952	-131.936	-0.156	-0.020
-589.938	346.268	-0.074	0.144
-588.923	-163.382	0.494	0.024
-587.909	-35.901	-0.284	-0.154
-586.894	-200.000	0.033	0.176
-585.879	431.234	-0.120	0.260
-584.865	-130.497	0.301	0.041
-583.850	-100.569	0.156	-0.039
-582.836	532.741	-0.216	-0.510
-581.821	-137.735	0.241	-0.027
-580.806	-147.443	-0.377	0.032
-579.792	66.330	-0.305	-0.310
-578.777	-59.655	0.352	0.150
-577.763	-143.202	-0.321	-0.031
-576.748	62.214	0.264	0.263
-575.733	-74.216	0.219	0.079
-574.719	800.000	0.075	-0.294
-573.704	800.000	0.082	-0.295
-572.690	-56.910	-0.249	0.110
-571.675	107.071	-0.166	0.196
-570.661	-200.000	-0.018	-0.262
-569.646	-81.148	-0.253	0.084
-568.631	800.000	-0.043	-0.164
-567.617	-121.228	-0.182	0.030
-566.602	427.823	-0.131	0.282
-565.588	-17.034	0.237	-0.149
-564.573	15.076	0.167	0.130
-563.558	11.882	-0.140	0.107
-562.544	-94.270	-0.147	-0.040
-561.529	-47.363	0.153	-0.074
-560.515	-58.710	0.123	0.053
-559.500	24.425	0.080	0.066
-558.485	151.920	-0.051	-0.070
-557.471	128.834	0.048	-0.061
-556.456	800.000	0.084	-0.263
-555.442	-110.161	0.087	-0.018
-554.427	568.848	0.096	-0.233
-553.412	285.467	-0.012	0.022
-552.398	-200.000	-0.026	0.168
-551.383	800.000	0.013	0.042
-550.369	-200.000	0.185	0.000
-549.354	283.925	0.192	0.345
-548.339	193.309	-0.067	-0.101
-547.325	-200.000	0.026	-0.141
-546.310	677.796	0.052	0.135
-545.296	800.000	-0.019	-0.052
-544.281	749.777	0.097	-0.260
-543.266	-46.650	0.230	0.112
-542.252	-93.554	0.304	-0.084
-541.237	-200.000	0.027	0.158
-540.223	800.000	-0.078	0.219
-539.208	-200.000	0.001	-0.204
-538.193	762.081	-0.046	-0.124
-537.179	48.809	-0.124	-0.116
-536.164	777.421	0.128	0.349
-535.150	800.000	0.027	0.117
-534.135	-200.000	-0.044	-0.200
-533.121	56.943	0.320	-0.311
-532.106	265.984	0.019	0.034
-531.091	-67.629	0.104	0.041
-530.077	800.000	-0.057	-0.216
-529.062	-200.000	0.032	0.253
-528.048	800.000	-0.094	0.272
-527.033	379.651	0.229	0.467
-526.018	-139.883	-0.311	-0.033
-525.004	42.222	0.043	0.039
-523.989	-200.000	-0.003	0.060
-522.975	-200.000	-0.002	-0.193
-521.960	-187.542	-0.305	-0.004
-520.945	433.796	-0.109	0.237
-519.931	220.216	0.080	0.128
-518.916	132.604	0.129	-0.165
-517.902	-20.365	-0.205	-0.126
-516.887	-13.075	-0.408	-0.264
-515.872	127.776	0.046	-0.059
-514.858	568.493	-0.097	0.235
-513.843	145.427	0.101	-0.134
-512.829	523.252	-0.033	-0.076
-511.814	119.748	0.166	0.205
-510.799	-49.404	-0.343	-0.163
-509.785	-64.780	-0.190	0.076
-508.770	-37.795	-0.136	-0.072
-507.756	-119.064	-0.224	-0.039
-506.741	-200.000	0.001	0.150
-505.726	-76.728	-0.193	0.067
-504.712	-10.963	0.181	-0.119
-503.697	-59.395	0.270	0.116
-502.683	-200.000	-0.012	-0.152
-501.668	-200.000	-0.048	0.482
-500.653	800.000	-0.047	-0.163
-499.639	-121.931	0.153	-0.025
-498.624	-200.000	0.009	0.139
-497.610	-120.585	-0.359	-0.061
-496.595	-74.753	-0.137	0.049
-495.581	294.717	-0.147	-0.268
-494.566	-82.292	0.273	0.088
-493.551	62.369	0.089	-0.089
-492.537	-56.892	0.176	-0.078
-491.522	-200.000	-0.014	0.349
-490.508	800.000	0.045	-0.158
-489.493	-157.123	0.206	-0.012
-488.478	210.036	-0.105	-0.165
-487.464	800.000	0.030	-0.115
-486.449	-114.738	-0.198	-0.038
-485.435	800.000	0.077	0.242
-484.420	-127.786	-0.213	-0.031
-483.405	-200.000	-0.075	0.441
-482.391	16.769	-0.261	-0.205
-481.376	80.569	-0.412	-0.441
-480.362	800.000	0.019	-0.067
-479.347	-142.454	0.237	-0.023
-478.332	139.007	0.138	-0.180
-477.318	-131.520	0.008	0.001
-476.303	-13.328	-0.161	-0.104
-475.289	-155.545	0.187	0.012
-474.274	58.442	-0.063	-0.061
-473.259	-126.525	0.300	0.044
-472.245	-83.394	0.201	0.064
-471.230	-133.047	-0.159	-0.020
-470.216	-11.926	0.090	-0.059
-469.201	-200.000	0.009	0.148
-468.186	-155.383	-0.240	0.015
-467.172	181.328	-0.220	-0.321
-466.157	-200.000	-0.065	0.332
-465.143	-200.000	-0.054	0.243
-464.128	-35.307	-0.162	-0.087
-463.113	-63.641	0.098	0.040
-462.099	-137.617	-0.393	-0.044
-461.084	289.579	0.091	-0.164
-460.070	-200.000	0.043	-0.271
-459.055	-14.228	0.052	0.033
-458.040	52.817	-0.094	0.089
-457.026	-62.988	0.257	-0.105
-456.011	-200.000	0.294	0.001
-454.997	-75.750	-0.115	-0.041
-453.982	-71.094	0.097	-0.036
-452.968	210.216	0.113	0.176
-451.953	-69.154	0.028	0.011
-450.938	-200.000	-0.003	-0.162
-449.924	33.670	0.068	-0.059
-448.909	-200.000	-0.023	-0.142
-447.895	478.193	0.022	-0.050
-446.880	-58.805	-0.204	0.087
-445.865	800.000	-0.045	-0.173
-444.851	-200.000	0.033	0.196
-443.836	78.093	-0.163	0.173
-442.822	-200.000	0.026	0.162
-441.807	800.000	-0.018	-0.075
-440.792	98.851	0.099	-0.113
-439.778	-200.000	0.043	0.574
-438.763	-181.446	-0.002	0.000
-437.749	-200.000	0.028	-0.152
-436.734	227.441	-0.203	-0.328
-435.719	-78.331	0.365	0.124
-434.705	-200.000	0.026	0.254
-433.690	461.718	-0.074	0.165
-432.676	409.973	-0.030	0.062
-431.661	-110.460	0.472	0.097
-430.646	-128.144	-0.261	0.037
-429.632	800.000	0.031	0.109
-428.617	-111.354	-0.111	0.023
-427.603	22.142	-0.223	-0.180
-426.588	800.000	-0.086	-0.316
-425.573	800.000	-0.019	0.081
-424.559	-6.638	-0.203	-0.137
-423.544	152.959	0.085	0.115
-422.530	-24.705	-0.177	0.105
-421.515	-200.000	0.010	-0.265
-420.500	151.063	0.172	-0.233
-419.486	1.048	-0.183	-0.130
-418.471	800.000	0.015	-0.056
-417.457	-80.630	-0.306	-0.101
-416.442	-135.983	-0.059	-0.007
-415.428	800.000	0.002	-0.008
-414.413	-99.073	0.178	-0.045
-413.398	123.569	0.486	0.605
-412.384	-200.000	0.005	-0.116
-411.369	284.206	-0.173	0.308
-410.355	-50.789	-0.042	-0.020
-409.340	-139.435	0.170	-0.018
-408.325	-159.154	0.140	0.008
-407.311	800.000	-0.017	0.062
-406.296	-160.803	0.252	-0.013
-405.282	383.709	-0.106	0.216
-404.267	-200.000	-0.019	0.278
-403.252	-138.953	0.271	-0.029
-402.238	58.414	0.084	0.082
-401.223	-129.589	-0.202	-0.028
-400.209	-1.029	0.280	-0.196
-399.194	-20.450	-0.028	0.017
-398.179	-64.297	0.030	-0.012
-397.165	76.811	0.168	0.177
-396.150	671.122	0.054	0.138
-395.136	206.256	0.150	-0.231
-394.121	121.217	-0.210	-0.259
-393.106	147.326	0.184	0.245
-392.092	-200.000	-0.044	0.419
-391.077	-200.000	0.013	0.163
-390.063	201.004	-0.054	-0.083
-389.048	-84.239	0.190	-0.060
-388.033	-200.000	-0.008	0.129
-387.019	-200.000	0.041	-0.259
-386.004	20.398	0.107	-0.086
-384.990	-200.000	-0.030	0.262
-383.975	-200.000	0.012	0.327
-382.960	800.000	-0.072	0.202
-381.946	-200.000	-0.088	0.454
-380.931	-10.931	0.130	-0.085
-379.917	-84.315	0.220	-0.069
-378.902	800.000	0.089	-0.382
-377.888	-83.414	0.088	-0.028
-376.873	431.289	-0.146	0.314
-375.858	137.778	0.177	0.229
-374.844	12.800	-0.203	-0.156
-373.829	-44.744	-0.113	-0.056
-372.815	-200.000	-0.033	0.206
-371.800	-41.158	-0.552	-0.282
-370.785	798.595	0.089	-0.242
-369.771	347.509	-0.047	-0.092
-368.756	-90.788	-0.157	0.045
-367.742	230.012	0.149	0.241
-366.727	800.000	-0.030	0.092
-365.712	68.444	0.126	0.128
-364.698	48.972	-0.074	-0.069
-363.683	150.302	-0.195	-0.261
-362.669	-200.000	-0.013	0.060
-361.654	-34.232	0.187	0.101
-360.639	28.849	-0.247	0.207
-359.625	273.473	-0.048	0.083
-358.610	-200.000	-0.000	0.153
-357.596	-127.618	0.236	0.034
-356.581	-200.000	-0.050	-0.364
-355.566	70.172	0.071	0.073
-354.552	-200.000	0.043	0.209
-353.537	-121.351	0.167	-0.027
-352.523	132.329	-0.121	0.155
-351.508	247.384	0.163	0.272
-350.493	-116.921	0.176	-0.032
-349.479	260.727	-0.062	0.106
-348.464	-136.071	-0.224	0.026
-347.450	2.040	0.240	0.172
-346.435	-200.000	0.005	-0.073
-345.420	-91.725	0.105	0.030
-344.406	-141.079	0.522	0.053
-343.391	47.016	0.083	0.076
-342.377	-148.669	0.160	-0.013
-341.362	800.000	-0.064	0.272
-340.348	-200.000	0.021	0.118
-339.333	10.590	-0.154	-0.116
-338.318	278.170	-0.155	-0.273
-337.304	800.000	-0.027	-0.077
-336.289	-109.965	-0.175	-0.036
-335.275	169.641	-0.146	0.206
-334.260	-35.668	-0.433	-0.232
-333.245	17.394	-0.136	0.107
-332.231	800.000	0.048	-0.185
-331.216	556.725	-0.089	-0.211
-330.202	-200.000	0.049	0.290
-329.187	8.574	-0.270	-0.201
-328.172	70.537	0.145	0.148
-327.158	-79.326	-0.132	0.044
-326.143	-63.352	0.123	0.050
-325.129	800.000	-0.107	0.367
-324.114	-115.734	-0.274	0.051
-323.099	-37.265	0.111	0.058
-322.085	800.000	-0.059	0.192
-321.070	-101.489	-0.126	-0.030
-320.056	147.384	0.033	-0.044
-319.041	178.634	0.077	0.111
-318.026	-110.001	0.271	0.056
-317.012	-80.714	0.127	-0.042
-315.997	-200.000	-0.016	0.225
-314.983	-18.549	0.120	0.074
-313.968	-101.354	-0.073	0.018
-312.953	-200.000	0.032	0.286
-311.939	-16.708	-0.533	0.333
-310.924	31.335	0.142	-0.120
-309.910	-200.000	0.004	0.269
-308.895	-163.080	-0.119	-0.006
-307.880	180.641	0.095	0.138
-306.866	341.732	-0.126	-0.243
-305.851	0.658	0.218	0.154
-304.837	6.365	-0.080	0.059
-303.822	-200.000	0.006	0.224
-302.807	87.731	0.120	-0.131
-301.793	-200.000	-0.035	-0.521
-300.778	412.603	0.110	-0.230
-299.764	-128.088	0.445	-0.063
-298.749	105.840	-0.308	-0.360
-297.735	-35.140	0.163	0.088
-296.720	-11.104	-0.175	-0.114
-295.705	89.272	-0.185	-0.203
-294.691	270.882	0.111	-0.193
-293.676	-15.246	-0.036	0.023
-292.662	51.058	-0.034	0.032
-291.647	54.152	0.095	0.091
-290.632	-75.643	-0.179	-0.063
-289.618	234.853	-0.078	-0.126
-288.603	-64.718	0.224	0.089
-287.589	-65.299	-0.189	0.075
-286.574	309.014	0.133	-0.245
-285.559	-175.497	0.112	0.003
-284.545	800.000	-0.078	0.212
-283.530	-65.132	0.114	0.045
-282.516	-51.211	0.424	0.196
-281.501	800.000	-0.123	-0.350
-280.486	-200.000	0.015	0.123
-279.472	-20.283	0.231	0.140
-278.457	11.672	-0.217	-0.164
-277.443	57.966	0.291	0.281
-276.428	8.905	-0.110	-0.082
-275.413	800.000	-0.029	-0.114
-274.399	21.687	-0.183	-0.147
-273.384	-37.211	0.161	0.085
-272.370	45.043	-0.155	0.141
-271.355	20.850	-0.121	-0.097
-270.340	-104.627	-0.286	0.065
-269.326	195.941	-0.064	0.097
-268.311	503.925	-0.167	-0.381
-267.297	-200.000	0.029	-0.403
-266.282	-13.716	-0.153	0.098
-265.267	14.174	0.217	0.167
-264.253	-134.352	-0.230	0.028
-263.238	-18.482	0.171	-0.105
-262.224	-200.000	-0.059	-0.431
-261.209	352.439	0.059	0.115
-260.195	-54.644	0.201	-0.089
-259.180	2.095	0.165	-0.117
-258.165	-200.000	0.005	0.179
-257.151	-110.561	-0.314	-0.064
-256.136	-102.364	-0.283	-0.067
-255.122	-15.262	-0.222	-0.140
-254.107	-68.950	-0.165	-0.063
-253.092	-155.078	0.129	0.008
-252.078	-200.000	0.023	0.404
-251.063	9.223	0.143	0.106
-250.049	299.179	0.119	0.216
-249.034	-200.000	-0.085	0.000
-248.019	-94.392	-0.484	0.130
-247.005	348.746	-0.208	0.404
-245.990	-144.515	-0.017	-0.002
-244.976	-86.003	0.240	0.073
-243.961	-200.000	0.075	-0.397
-242.946	-63.257	0.137	0.056
-241.932	-47.234	0.232	-0.111
-240.917	87.152	-0.118	-0.128
-239.903	364.956	-0.030	0.059
-238.888	95.292	0.051	-0.057
-237.873	-80.953	0.061	-0.020
-236.859	-32.933	-0.317	-0.173
-235.844	-85.699	0.193	0.059
-234.830	-74.674	0.364	0.129
-233.815	800.000	0.124	-0.356
-232.800	47.207	-0.118	-0.108
-231.786	-200.000	0.054	-0.280
-230.771	-184.326	-0.122	0.002
-229.757	266.705	0.056	0.097
-228.742	145.035	-0.068	0.089
-227.727	-16.573	-0.114	-0.071
-226.713	356.034	0.090	0.177
-225.698	-18.867	-0.241	-0.148
-224.684	-139.361	0.359	-0.038
-223.669	-104.739	0.390	-0.088
-222.655	800.000	0.011	0.037
-221.640	-34.204	0.077	0.042
-220.625	-200.000	-0.016	-0.212
-219.611	117.654	-0.093	0.112
-218.596	53.309	-0.114	0.108
-217.582	62.549	0.289	0.284
-216.567	-0.356	-0.082	-0.057
-215.552	-63.218	0.297	-0.120
-214.538	-169.403	-0.383	0.014
-213.523	81.956	-0.204	-0.218
-212.509	-15.506	-0.207	-0.130
-211.494	102.920	0.067	0.077
-210.479	-200.000	-0.016	-0.168
-209.465	-26.981	0.148	-0.085
-208.450	227.574	-0.220	-0.353
-207.436	494.634	0.065	-0.147
-206.421	48.861	-0.158	0.146
-205.406	-177.630	0.228	0.005
-204.392	800.000	0.057	-0.239
-203.377	-119.030	0.303	-0.052
-202.363	-20.085	0.120	-0.073
-201.348	417.025	0.106	0.222
-200.333	134.951	0.108	0.138
-199.319	-200.000	-0.002	-0.013
-198.304	-84.281	-0.421	-0.131
-197.290	-64.368	-0.195	-0.078
-196.275	-41.239	0.199	0.101
-195.260	-200.000	0.024	-0.126
-194.246	163.078	-0.044	0.060
-193.231	301.227	0.118	0.215
-192.217	276.292	0.223	-0.389
-191.202	-4.795	0.170	0.115
-190.187	-135.022	0.231	-0.027
-189.173	-55.277	0.139	-0.062
-188.158	56.785	0.102	0.098
-187.144	800.000	0.085	0.329
-186.129	299.235	-0.138	0.250
-185.114	-200.000	-0.004	-0.210
-184.100	-6.777	0.036	0.024
-183.085	197.791	-0.171	-0.256
-182.071	16.685	0.251	-0.195
-181.056	54.624	-0.132	0.125
-180.042	-200.000	0.084	0.369
-179.027	22.785	0.175	0.141
-178.012	76.156	-0.098	-0.102
-176.998	-60.938	-0.256	0.106
-175.983	-56.227	0.158	0.069
-174.969	-176.630	-0.316	0.008
-173.954	-122.116	-0.132	-0.021
-172.939	752.888	-0.070	0.186
-171.925	-60.135	0.311	-0.130
-170.910	-61.026	-0.142	-0.059
-169.896	-200.000	0.050	-0.244
-168.881	-149.690	-0.028	0.002
-167.866	1.722	-0.145	-0.102
-166.852	-0.156	0.162	-0.113
-165.837	11.654	-0.312	-0.235
-164.823	800.000	0.085	0.251
-163.808	-61.316	-0.237	-0.098
-162.793	-159.687	0.105	-0.006
-161.779	30.318	0.065	0.054
-160.764	35.879	-0.025	0.021
-159.750	296.901	0.248	-0.446
-158.735	-112.580	-0.170	0.033
-157.720	126.437	0.128	0.158
-156.706	22.435	0.080	0.064
-155.691	238.583	-0.147	-0.239
-154.677	-13.087	-0.060	-0.038
-153.662	16.203	0.180	0.139
-152.647	-120.580	0.388	0.064
-151.633	13.181	-0.333	0.253
-150.618	-9.518	-0.245	-0.161
-149.604	201.432	-0.098	0.148
-148.589	-200.000	0.003	-0.303
-147.574	221.921	-0.003	-0.004
-146.560	11.990	-0.085	-0.064
-145.545	-151.639	-0.234	0.017
-144.531	3.274	-0.140	-0.100
-143.516	-200.000	0.017	0.082
-142.502	-33.113	0.191	-0.104
-141.487	-64.472	0.026	0.010
-140.472	-58.829	-0.137	-0.058
-139.458	-56.439	-0.129	0.056
-138.443	-74.474	0.235	-0.083
-137.429	-158.210	0.179	0.010
-136.414	-200.000	-0.007	-0.278
-135.399	800.000	-0.042	-0.159
-134.385	9.511	0.355	0.264
-133.370	60.450	-0.130	-0.126
-132.356	18.324	0.037	0.029
-131.341	-19.326	0.111	0.067
-130.326	-127.292	0.412	0.059
-129.312	173.218	0.045	-0.064
-128.297	-120.886	-0.178	0.029
-127.283	181.895	0.078	-0.112
-126.268	-170.910	-0.176	0.006
-125.253	116.982	-0.118	0.142
-124.239	-20.262	0.127	-0.077
-123.224	13.435	0.194	-0.147
-122.210	5.179	-0.092	-0.066
-121.195	-142.181	-0.164	0.016
-120.180	-200.000	0.034	0.157
-119.166	-42.706	-0.304	0.151
-118.151	229.393	-0.080	0.128
-117.137	-129.549	-0.370	-0.050
-116.122	583.105	0.117	0.281
-115.107	55.408	-0.277	-0.263
-114.093	-84.854	-0.205	0.063
-113.078	-115.907	0.157	-0.029
-112.064	-12.612	-0.130	0.083
-111.049	-200.000	0.055	0.262
-110.034	-200.000	0.078	0.529
-109.020	-90.276	0.176	-0.050
-108.005	-49.875	-0.442	-0.206
-106.991	44.167	0.093	0.084
-105.976	-146.995	-0.268	0.023
-104.962	-200.000	-0.052	0.295
-103.947	-154.016	-0.288	-0.019
-102.932	20.039	0.062	-0.049
-101.918	268.283	0.118	-0.202
-100.903	505.602	-0.079	0.180
-99.889	-200.000	0.006	0.117
-98.874	800.000	0.074	0.292
-97.859	-5.987	0.268	-0.179
-96.845	246.382	0.161	-0.267
-95.830	87.691	0.050	0.054
-94.816	111.822	0.211	-0.249
-93.801	468.151	-0.118	-0.258
-92.786	-71.624	0.156	0.057
-91.772	-127.335	-0.321	-0.046
-90.757	-16.103	0.077	0.048
-89.743	-200.000	-0.017	-0.094
-88.728	30.376	0.237	0.198
-87.713	199.695	0.049	0.073
-86.699	124.119	-0.286	0.352
-85.684	124.268	-0.086	-0.106
-84.670	-0.792	-0.089	0.062
-83.655	-76.416	0.229	0.079
-82.640	462.991	0.121	-0.264
-81.626	8.145	0.292	0.214
-80.611	259.390	-0.089	-0.150
-79.597	-82.040	-0.239	0.076
-78.582	74.301	0.230	0.236
-77.567	800.000	0.034	-0.100
-76.553	-200.000	0.032	-0.243
-75.538	800.000	0.058	-0.173
-74.524	-200.000	-0.006	-0.164
-73.509	-141.987	0.095	-0.009
-72.494	-200.000	-0.010	-0.181
-71.480	523.524	0.086	0.197
-70.465	-114.007	-0.429	-0.081
-69.451	-90.574	-0.258	-0.073
-68.436	-19.326	-0.195	0.119
-67.422	-125.157	-0.055	-0.008
-66.407	7.687	0.127	-0.093
-65.392	-87.859	-0.325	-0.096
-64.378	343.613	0.177	0.340
-63.363	527.184	-0.066	-0.152
-62.349	-154.031	0.249	-0.017
-61.334	53.580	-1.062	-0.997
-60.319	18.068	0.602	0.470
-59.305	255.993	-0.624	-1.047
-58.290	800.000	0.468	1.291
-57.276	800.000	0.477	1.658
-56.261	-200.000	113.666	661.996
-55.246	551.800	1515.839	3558.649
-54.232	178.616	2690.584	3842.969
-53.217	105.116	2285.251	2636.621
-52.203	37.355	1893.188	1640.446
-51.188	31.283	1682.800	1412.342
-50.173	28.618	1641.027	1357.542
-49.159	50.550	1696.838	1569.090
-48.144	49.651	1711.046	1575.425
-47.130	30.729	1668.718	1396.146
-46.115	27.888	1654.623	1363.125
-45.100	27.808	1649.346	1358.130
-44.086	27.796	1646.742	1355.842
-43.071	27.762	1644.041	1353.311
-42.057	27.731	1641.859	1351.236
-41.042	27.797	1639.569	1349.784
-40.027	27.726	1637.647	1347.625
-39.013	27.708	1635.756	1345.882
-37.998	27.716	1634.797	1345.099
-36.984	27.694	1633.445	1343.772
-35.969	27.889	1631.473	1343.529
-34.954	27.982	1629.604	1342.619
-33.940	27.918	1628.049	1340.813
-32.925	27.871	1626.589	1339.213
-31.911	27.770	1624.841	1336.985
-30.896	27.879	1623.037	1336.242
-29.881	27.860	1621.319	1334.636
-28.867	27.880	1619.557	1333.281
-27.852	27.852	1618.058	1331.785
-26.838	27.898	1616.118	1330.473
-25.823	27.899	1615.583	1329.987
-24.809	27.911	1613.842	1328.591
-23.794	27.876	1613.115	1327.682
-22.779	27.898	1611.431	1326.405
-21.765	27.897	1609.413	1324.682
-20.750	27.811	1608.414	1323.188
-19.736	27.904	1606.991	1322.638
-18.721	28.032	1605.173	1322.015
-17.706	27.953	1604.312	1320.677
-16.692	27.921	1603.068	1319.373
-15.677	27.929	1601.132	1317.782
-14.663	28.002	1600.068	1317.385
-13.648	27.971	1598.434	1315.763
-12.633	27.938	1596.883	1314.197
-11.619	27.850	1595.201	1312.129
-10.604	27.864	1593.993	1311.180
-9.590	27.941	1593.147	1310.989
-8.575	27.993	1591.629	1310.060
-7.560	28.018	1590.208	1309.015
-6.546	28.044	1589.294	1308.395
-5.531	27.959	1588.631	1307.192
-4.517	27.925	1587.203	1305.719
-3.502	27.946	1585.642	1304.534
-2.487	28.113	1584.142	1304.443
-1.473	27.616	1572.477	1291.264
-0.458	24.706	1552.916	1254.761
0.556	22.077	1554.040	1222.698
1.571	19.785	1577.345	1224.713
2.586	19.229	1589.756	1230.273
3.600	17.050	1534.750	1172.558
4.615	10.018	1428.330	1045.795
5.629	4.214	1368.600	965.894
6.644	3.200	1361.875	954.776
7.659	3.174	1360.060	953.260
8.673	3.266	1359.282	953.197
9.688	3.319	1357.453	952.161
10.702	3.249	1354.394	949.495
11.717	5.969	1359.203	969.598
12.731	13.303	1373.254	1025.154
13.746	19.481	1382.369	1070.299
14.761	20.635	1383.774	1078.454
15.775	20.003	1381.959	1073.030
16.790	18.922	1379.742	1064.525
17.804	18.166	1377.032	1057.662
18.819	17.776	1375.850	1054.251
19.834	17.769	1374.491	1053.073
20.848	17.531	1373.486	1050.740
21.863	17.435	1372.093	1048.994
22.877	17.244	1371.555	1047.309
23.892	17.162	1370.636	1046.013
24.907	17.188	1369.716	1045.379
25.921	17.174	1368.925	1044.593
26.936	17.308	1367.497	1044.239
27.950	17.252	1366.702	1043.193
28.965	17.339	1365.648	1042.828
29.980	17.390	1364.944	1042.514
30.994	17.629	1363.261	1042.596
32.009	17.496	1362.584	1041.171
33.023	17.519	1361.520	1040.410
34.038	17.455	1359.865	1038.663
35.053	17.399	1358.371	1037.089
36.067	17.347	1357.619	1036.105
37.082	17.377	1356.777	1035.556
38.096	17.561	1355.144	1035.332
39.111	17.569	1354.766	1035.004
40.126	17.331	1353.904	1032.804
41.140	17.188	1352.768	1030.982
42.155	17.067	1352.384	1029.862
43.169	16.953	1352.288	1029.008
44.184	16.992	1352.091	1029.003
45.199	16.953	1351.736	1028.403
46.213	17.140	1350.877	1028.793
47.228	17.231	1350.405	1028.893
48.242	17.249	1349.060	1027.887
49.257	17.274	1347.283	1026.595
50.271	17.317	1345.784	1025.618
51.286	17.410	1344.499	1025.109
52.301	17.254	1343.918	1023.636
53.315	17.229	1342.371	1022.217
54.330	17.107	1341.446	1020.691
55.344	17.142	1339.911	1019.641
56.359	17.057	1339.037	1018.376
57.374	17.091	1338.269	1017.908
58.388	16.963	1337.467	1016.437
59.403	16.947	1337.116	1015.988
60.417	16.805	1336.718	1014.744
61.432	16.932	1335.447	1014.446
62.447	16.883	1334.247	1013.155
63.461	16.779	1332.813	1011.357
64.476	16.713	1332.249	1010.442
65.490	16.755	1330.262	1009.096
66.505	16.732	1328.752	1007.724
67.520	16.853	1328.037	1007.815
68.534	16.796	1326.951	1006.565
69.549	16.873	1326.078	1006.266
70.563	16.847	1324.887	1005.118
71.578	16.704	1323.505	1003.134
72.593	16.661	1322.568	1002.081
73.607	16.585	1321.915	1001.049
74.622	16.535	1321.583	1000.414
75.636	16.639	1320.660	1000.240
76.651	16.768	1319.979	1000.396
77.666	16.704	1319.542	999.602
78.680	16.773	1318.925	999.450
79.695	16.785	1318.497	999.110
80.709	16.841	1317.875	998.880
81.724	16.950	1317.461	999.119
82.739	17.065	1315.999	998.601
83.753	17.213	1315.534	999.027
84.768	17.356	1314.539	999.025
85.782	17.369	1313.508	998.232
86.797	17.315	1312.221	996.848
87.812	17.255	1310.969	995.456
88.826	17.237	1309.597	994.220
89.841	17.265	1309.087	993.911
90.855	17.472	1307.814	994.065
91.870	17.417	1306.925	992.977
92.884	17.413	1306.668	992.674
93.899	17.431	1305.689	991.946
94.914	17.445	1305.201	991.571
95.928	17.542	1303.856	991.024
96.943	17.400	1303.094	989.530
97.957	17.431	1302.113	988.882
98.972	17.400	1301.155	987.884
99.987	17.398	1300.141	987.017
101.001	17.419	1299.031	986.207
102.016	17.396	1297.889	985.119
103.030	17.482	1296.917	984.792
104.045	17.339	1296.509	983.569
105.060	17.242	1294.988	981.769
106.074	17.051	1293.413	979.383
107.089	16.923	1291.761	977.306
108.103	16.942	1290.507	976.381
109.118	16.947	1289.307	975.415
110.133	16.891	1288.207	974.176
111.147	16.856	1286.615	972.686
112.162	16.880	1285.270	971.719
113.176	16.971	1284.460	971.547
114.191	17.136	1283.211	971.457
115.206	16.985	1282.409	969.899
116.220	16.860	1281.327	968.282
117.235	16.970	1279.747	967.634
118.249	16.956	1278.694	966.669
119.264	16.863	1277.799	965.375
120.279	16.826	1276.768	964.300
121.293	16.803	1275.386	963.042
122.308	16.749	1274.304	961.833
123.322	16.677	1273.566	960.786
124.337	16.707	1272.129	959.784
125.352	16.582	1271.201	958.289
126.366	16.658	1269.909	957.665
127.381	16.717	1269.079	957.284
128.395	16.780	1268.075	956.802
129.410	16.725	1267.074	955.651
130.424	16.914	1265.881	955.728
131.439	16.890	1265.103	954.922
132.454	16.928	1264.937	954.925
133.468	17.008	1263.465	954.182
134.483	16.989	1263.096	953.713
135.497	16.974	1262.225	952.883
136.512	17.045	1260.662	952.021
137.527	17.029	1259.506	950.973
138.541	17.028	1258.292	949.966
139.556	17.053	1257.163	949.167
140.570	17.175	1256.081	948.952
141.585	17.264	1254.942	948.504
142.600	17.289	1253.825	947.714
143.614	17.417	1253.173	947.851
144.629	17.453	1252.126	947.174
145.643	17.422	1250.874	945.973
146.658	17.247	1249.380	943.785
147.673	17.272	1247.758	942.617
148.687	17.104	1246.848	940.916
149.702	16.950	1245.733	939.135
150.716	17.029	1244.017	938.198
151.731	17.133	1243.030	937.942
152.746	17.074	1242.023	936.777
153.760	17.094	1240.978	936.012
154.775	17.241	1239.786	935.844
155.789	17.318	1238.822	935.458
156.804	17.236	1238.399	934.603
157.819	17.370	1236.963	934.170
158.833	17.399	1236.107	933.600
159.848	17.484	1235.375	933.434
160.862	17.501	1233.831	932.279
161.877	17.296	1232.848	930.330
162.892	17.123	1231.746	928.472
163.906	17.078	1230.756	927.396
164.921	17.049	1229.747	926.397
165.935	17.274	1229.083	927.041
166.950	17.290	1228.375	926.510
167.964	17.233	1227.676	925.590
168.979	17.187	1226.915	924.686
169.994	17.239	1226.262	924.397
171.008	17.205	1225.387	923.466
172.023	17.360	1224.702	923.713
173.037	17.417	1224.316	923.650
174.052	17.416	1222.678	922.325
175.067	17.177	1221.634	920.160
176.081	17.253	1220.252	919.454
177.096	17.194	1219.575	918.539
178.110	17.185	1218.365	917.499
179.125	17.124	1217.641	916.546
180.140	17.211	1215.793	915.539
181.154	17.240	1215.268	915.221
182.169	17.479	1213.777	915.302
183.183	17.566	1212.567	914.776
184.198	17.607	1211.321	913.977
185.213	17.570	1210.465	913.048
186.227	17.600	1209.555	912.443
187.242	17.707	1208.575	912.198
188.256	17.786	1207.511	911.736
189.271	17.731	1206.905	910.903
190.286	17.449	1206.037	908.663
191.300	17.238	1204.643	906.403
192.315	17.152	1203.746	905.193
193.329	17.142	1203.369	904.775
194.344	17.181	1202.918	904.566
195.359	17.347	1202.387	904.968
196.373	17.464	1201.997	905.214
197.388	17.557	1201.456	905.221
198.402	17.652	1201.088	905.369
199.417	17.847	1200.529	905.902
200.432	17.869	1200.244	905.723
201.446	17.892	1199.199	904.980
202.461	18.047	1198.065	904.862
203.475	17.966	1197.291	903.772
204.490	17.877	1195.545	901.902
205.504	17.756	1194.527	900.418
206.519	17.783	1192.748	899.137
207.534	17.679	1192.298	898.170
208.548	17.675	1191.267	897.295
209.563	17.734	1190.370	896.849
210.577	17.705	1189.573	896.017
211.592	17.792	1188.525	895.606
212.607	17.969	1187.394	895.599
213.621	17.905	1186.916	894.825
214.636	17.815	1186.105	893.663
215.650	17.907	1185.305	893.465
216.665	17.961	1184.275	892.891
217.680	18.133	1183.652	893.242
218.694	18.099	1182.897	892.412
219.709	17.990	1182.227	891.261
220.723	18.254	1180.970	891.608
221.738	18.047	1180.767	890.299
222.753	18.055	1179.714	889.468
223.767	18.119	1178.844	889.068
224.782	18.016	1178.669	888.322
225.796	18.311	1177.686	889.034
226.811	18.251	1176.913	888.059
227.826	18.099	1176.334	886.758
228.840	18.063	1175.739	886.042
229.855	18.168	1174.671	885.704
230.869	18.031	1174.147	884.518
231.884	17.960	1173.162	883.331
232.899	17.895	1172.309	882.278
233.913	17.869	1171.466	881.431
234.928	17.811	1171.192	880.848
235.942	17.795	1170.121	879.881
236.957	17.800	1169.327	879.234
237.972	17.893	1168.427	878.957
238.986	17.809	1167.782	877.958
240.001	17.881	1167.453	878.004
241.015	17.915	1166.586	877.451
242.030	18.106	1165.187	877.300
243.045	18.047	1165.175	876.913
244.059	18.135	1164.014	876.410
245.074	18.109	1163.295	875.658
246.088	18.236	1162.312	875.492
247.103	18.209	1161.856	874.934
248.117	18.383	1160.865	875.000
249.132	18.508	1160.264	875.105
250.147	18.571	1159.954	875.115
251.161	18.674	1159.684	875.361
252.176	18.768	1158.486	874.856
253.190	18.803	1158.260	874.788
254.205	18.885	1157.419	874.493
255.220	18.962	1156.844	874.370
256.234	18.809	1156.513	873.265
257.249	18.959	1155.232	872.982
258.263	18.723	1155.415	871.844
259.278	18.965	1154.228	872.101
260.293	18.874	1153.874	871.295
261.307	19.019	1152.804	871.146
262.322	18.950	1152.391	870.404
263.336	18.983	1151.841	870.082
264.351	18.977	1151.131	869.435
265.366	19.149	1150.618	869.840
266.380	19.003	1150.077	868.616
267.395	19.084	1148.669	867.887
268.409	18.824	1148.131	866.093
269.424	18.853	1147.225	865.480
270.439	18.901	1146.563	865.145
271.453	18.846	1145.922	864.305
272.468	18.650	1145.390	862.844
273.482	18.781	1144.165	862.502
274.497	18.662	1143.886	861.618
275.512	18.862	1142.895	861.797
276.526	18.753	1142.279	860.713
277.541	18.897	1141.333	860.643
278.555	18.787	1141.160	859.888
279.570	18.974	1140.563	860.296
280.585	19.069	1139.842	860.153
281.599	19.069	1138.314	858.922
282.614	19.044	1137.478	858.089
283.628	18.950	1136.390	856.727
284.643	18.899	1135.655	855.842
285.657	18.947	1134.546	855.170
286.672	18.905	1134.080	854.531
287.687	18.952	1133.291	854.097
288.701	18.966	1132.411	853.430
289.716	18.983	1131.603	852.826
290.730	19.090	1130.704	852.606
291.745	19.015	1130.264	851.826
292.760	19.054	1129.495	851.364
293.774	19.043	1129.390	851.157
294.789	19.244	1128.517	851.416
295.803	19.226	1127.688	850.627
296.818	19.207	1126.807	849.790
297.833	19.021	1126.064	848.238
298.847	19.088	1125.353	847.957
299.862	19.112	1124.446	847.317
300.876	19.125	1123.690	846.740
301.891	19.210	1123.390	846.856
302.906	19.264	1123.108	846.831
303.920	19.395	1122.289	846.785
304.935	19.370	1122.122	846.458
305.949	19.580	1121.068	846.620
306.964	19.500	1120.497	845.721
307.979	19.410	1119.521	844.470
308.993	19.488	1118.780	844.218
310.008	19.517	1117.806	843.551
311.022	19.599	1117.189	843.408
312.037	19.551	1116.236	842.383
313.052	19.376	1115.346	840.784
314.066	19.304	1114.663	839.842
315.081	19.165	1113.302	838.066
316.095	19.161	1112.510	837.375
317.110	19.163	1112.266	837.129
318.125	19.279	1111.355	836.933
319.139	19.152	1110.955	835.937
320.154	19.246	1110.229	835.773
321.168	19.349	1109.255	835.468
322.183	19.202	1108.634	834.213
323.197	19.261	1108.256	834.140
324.212	19.353	1107.417	833.880
325.227	19.369	1107.293	833.793
326.241	19.383	1106.508	833.196
327.256	19.274	1105.553	831.874
328.270	19.417	1104.271	831.528
329.285	19.255	1103.868	830.370
330.300	19.263	1103.102	829.758
331.314	19.323	1102.082	829.204
332.329	19.338	1101.062	828.436
333.343	19.410	1100.312	828.144
334.358	19.523	1099.505	828.005
335.373	19.566	1099.172	827.890
336.387	19.467	1098.480	826.819
337.402	19.586	1097.618	826.665
338.416	19.672	1097.043	826.570
339.431	19.646	1096.764	826.163
340.446	19.766	1095.944	826.046
341.460	19.924	1095.335	826.267
342.475	20.043	1094.359	826.025
343.489	19.993	1093.846	825.330
344.504	19.991	1092.983	824.593
345.519	19.951	1092.307	823.823
346.533	20.076	1091.123	823.447
347.548	20.088	1090.395	822.883
348.562	20.032	1089.605	821.952
349.577	19.880	1088.780	820.533
350.592	19.801	1087.671	819.253
351.606	19.761	1087.080	818.547
352.621	19.724	1086.068	817.533
353.635	19.760	1085.535	817.233
354.650	19.760	1084.888	816.671
355.665	19.725	1084.570	816.194
356.679	19.796	1084.158	816.149
357.694	19.831	1083.236	815.546
358.708	19.856	1082.806	815.267
359.723	19.993	1082.044	815.267
360.738	19.919	1081.652	814.552
361.752	20.042	1080.745	814.374
362.767	19.988	1080.211	813.645
363.781	20.007	1079.556	813.170
364.796	20.337	1078.618	813.938
365.810	20.263	1078.718	813.595
366.825	20.316	1078.193	813.379
367.840	20.346	1077.793	813.146
368.854	20.519	1077.250	813.472
369.869	20.522	1076.414	812.781
370.883	20.362	1075.450	811.234
371.898	20.371	1074.721	810.655
372.913	20.222	1074.177	809.480
373.927	20.266	1073.728	809.274
374.942	20.478	1073.267	809.843
375.956	20.322	1072.773	808.670
376.971	20.247	1072.395	807.966
377.986	20.425	1071.366	807.947
379.000	20.611	1070.962	808.435
380.015	20.561	1071.135	808.264
381.029	20.583	1070.314	807.675
382.044	20.620	1069.113	806.868
383.059	20.589	1068.157	805.932
384.073	20.652	1067.526	805.673
385.088	20.702	1066.217	804.848
386.102	20.576	1065.759	803.850
387.117	20.340	1064.860	802.008
388.132	20.348	1063.996	801.324
389.146	20.364	1062.766	800.402
390.161	20.434	1062.223	800.241
391.175	20.400	1061.099	799.167
392.190	20.442	1061.223	799.384
393.205	20.596	1060.627	799.572
394.219	20.565	1059.205	798.289
395.234	20.404	1058.626	797.040
396.248	20.457	1057.514	796.377
397.263	20.507	1056.253	795.586
398.278	20.262	1056.003	794.208
399.292	20.369	1055.072	793.927
400.307	20.334	1054.313	793.122
401.321	20.285	1053.678	792.353
402.336	20.412	1052.646	792.085
403.350	20.313	1052.065	791.128
404.365	20.406	1051.698	791.207
405.380	20.543	1050.776	791.067
406.394	20.599	1049.962	790.636
407.409	20.582	1049.323	790.007
408.423	20.683	1049.020	790.170
409.438	20.725	1048.149	789.633
410.453	20.927	1047.679	790.126
411.467	20.844	1047.315	789.404
412.482	21.051	1046.151	789.393
413.496	21.067	1045.556	788.948
414.511	20.955	1045.343	788.211
415.526	21.068	1045.069	788.445
416.540	21.076	1044.456	787.949
417.555	21.092	1044.095	787.678
418.569	21.141	1043.030	787.026
419.584	21.079	1042.965	786.630
420.599	21.049	1042.495	786.071
421.613	155.410	1403.892	1796.133
422.628	142.253	1456.531	1796.216
