DTS Sentinel unit serial number:	SN413079Multiplexer serial number:	ORYXHardware model number:	OX4-SRSoftware version number:	ORYX F/W v4.00 Oryx Data Collector v3.7.2.0data status	okinstallation	princeton_trtdifferential loss correction	single-endedforward channel	channel 2reverse channel	N/Adate	2019/09/17time	15:31:35forward acquisition time	60.00reverse acquisition time	0.00gamma	496.2192k internal	0.2304k external	0.2304temperature offset calibration	0.9985default loss term (dB/km)	0.3790temperature slope calibration	1.0000multiplexer offset coefficient	1.0000multiplexer slope coefficient	1.0000fibre end	0.00T internal ref (°C)	38.34T ext. ref 1 (°C)	0.38T ext. ref 2 (°C)	35.70length (m)	temperature (°C)	Stokes	anti-Stokes-747.200	-151.549	0.154	0.012
-746.185	-124.852	0.142	0.022
-745.171	-113.637	0.227	0.045
-744.156	-133.753	-0.107	0.014
-743.142	-87.557	-0.128	0.039
-742.127	800.000	0.041	-0.148
-741.112	-97.434	0.216	-0.057
-740.098	18.974	0.192	0.157
-739.083	800.000	-0.055	0.214
-738.069	62.533	-0.146	-0.148
-737.054	-200.000	0.017	-0.081
-736.039	-84.106	-0.044	-0.014
-735.025	656.283	0.129	0.338
-734.010	-64.411	-0.225	-0.093
-732.996	-31.995	-0.275	0.157
-731.981	800.000	0.020	0.067
-730.966	133.073	-0.088	0.116
-729.952	38.641	0.058	-0.053
-728.937	800.000	-0.092	-0.370
-727.923	800.000	-0.105	-0.309
-726.908	107.623	0.107	-0.130
-725.894	-200.000	-0.074	-0.366
-724.879	75.682	-0.094	-0.101
-723.864	-200.000	-0.046	-0.297
-722.850	319.903	0.087	0.167
-721.835	-110.405	-0.134	-0.028
-720.821	132.002	-0.307	-0.402
-719.806	252.018	-0.173	-0.300
-718.791	314.735	-0.063	-0.122
-717.777	5.961	0.145	0.109
-716.762	-41.662	0.201	0.105
-715.748	-105.824	0.073	-0.017
-714.733	756.033	-0.100	-0.276
-713.718	123.439	0.234	-0.299
-712.704	800.000	-0.150	0.425
-711.689	-200.000	0.012	0.103
-710.675	-126.114	-0.319	-0.049
-709.660	109.634	0.213	-0.259
-708.645	-200.000	0.012	0.258
-707.631	17.788	-0.038	-0.031
-706.616	237.650	0.080	0.134
-705.602	129.390	-0.184	0.239
-704.587	11.578	-0.221	-0.172
-703.572	-75.270	-0.471	-0.171
-702.558	6.026	0.045	-0.034
-701.543	-151.310	0.122	0.009
-700.529	-173.078	0.135	0.004
-699.514	-44.867	-0.226	0.114
-698.499	-200.000	0.047	0.216
-697.485	-200.000	0.006	0.108
-696.470	-200.000	0.037	0.182
-695.456	37.827	0.248	-0.224
-694.441	800.000	-0.067	-0.215
-693.426	-23.551	-0.173	0.105
-692.412	800.000	0.015	-0.042
-691.397	19.366	-0.193	-0.157
-690.383	55.036	-0.166	-0.163
-689.368	-132.111	-0.084	-0.011
-688.354	-200.000	-0.006	0.147
-687.339	-200.000	0.020	0.305
-686.324	-143.344	-0.370	-0.036
-685.310	-167.348	0.340	-0.014
-684.295	-134.567	0.206	-0.025
-683.281	-200.000	0.009	-0.500
-682.266	47.035	-0.198	-0.187
-681.251	800.000	-0.168	0.473
-680.237	-76.606	-0.149	-0.053
-679.222	1.881	-0.319	-0.234
-678.208	145.434	-0.059	0.080
-677.193	62.691	-0.152	-0.155
-676.178	34.220	0.152	-0.135
-675.164	-200.000	-0.023	-0.252
-674.149	-99.012	0.136	-0.035
-673.135	-200.000	-0.022	-0.235
-672.120	-179.809	-0.215	-0.005
-671.105	156.311	-0.141	-0.198
-670.091	-112.584	-0.087	-0.018
-669.076	351.688	-0.170	0.341
-668.062	319.430	0.034	-0.066
-667.047	-29.676	-0.104	0.060
-666.032	6.451	0.172	0.130
-665.018	158.694	-0.031	-0.044
-664.003	224.834	-0.147	-0.241
-662.989	-119.866	-0.178	-0.031
-661.974	800.000	-0.037	0.134
-660.959	-119.171	-0.095	-0.017
-659.945	378.144	0.064	0.133
-658.930	800.000	-0.070	-0.265
-657.916	-200.000	-0.010	0.262
-656.901	195.189	0.145	0.224
-655.886	-68.410	-0.237	-0.093
-654.872	43.565	0.099	0.092
-653.857	684.093	0.112	-0.296
-652.843	-2.626	-0.265	0.189
-651.828	270.598	-0.075	0.134
-650.814	-149.971	0.112	0.009
-649.799	34.924	0.058	0.051
-648.784	75.167	-0.145	0.155
-647.770	135.946	-0.115	0.152
-646.755	-163.564	0.125	-0.006
-645.741	-200.000	0.009	-0.172
-644.726	-146.576	-0.521	0.046
-643.711	96.983	-0.176	-0.205
-642.697	29.928	-0.081	-0.070
-641.682	183.111	0.059	0.089
-640.668	262.720	0.105	0.186
-639.653	-163.421	0.220	0.011
-638.638	-139.352	0.168	-0.018
-637.624	236.520	0.032	-0.054
-636.609	636.993	0.033	0.086
-635.595	-150.789	0.221	0.017
-634.580	-69.379	-0.033	0.013
-633.565	-32.197	0.027	-0.015
-632.551	-30.419	0.330	0.190
-631.536	-140.939	0.105	0.011
-630.522	-48.788	0.144	-0.070
-629.507	740.577	0.015	-0.041
-628.492	-135.834	0.116	-0.014
-627.478	-18.639	0.182	-0.115
-626.463	225.158	0.024	0.039
-625.449	-121.128	-0.129	0.022
-624.434	-39.307	0.013	-0.007
-623.419	-122.271	-0.274	-0.045
-622.405	800.000	0.025	0.080
-621.390	396.757	-0.105	0.223
-620.376	691.905	0.126	-0.336
-619.361	-200.000	0.010	-0.550
-618.346	-12.684	0.094	0.062
-617.332	-145.434	0.130	-0.012
-616.317	-200.000	-0.041	-0.242
-615.303	-200.000	-0.017	-0.276
-614.288	-92.805	-0.023	-0.006
-613.273	-61.797	0.014	0.006
-612.259	127.433	-0.120	0.154
-611.244	-200.000	0.008	-0.081
-610.230	52.868	-0.267	-0.258
-609.215	683.772	-0.048	-0.126
-608.201	-142.783	0.196	0.019
-607.186	-124.777	0.185	-0.029
-606.171	157.094	0.198	-0.277
-605.157	16.715	-0.202	0.162
-604.142	-134.229	-0.118	0.015
-603.128	-133.088	-0.384	-0.049
-602.113	35.645	-0.023	0.021
-601.098	800.000	0.077	-0.274
-600.084	-34.737	0.095	0.053
-599.069	30.342	0.107	-0.092
-598.055	800.000	-0.141	-0.499
-597.040	371.675	-0.074	-0.152
-596.025	-149.965	-0.368	0.029
-595.011	135.946	0.197	-0.260
-593.996	-67.649	-0.214	0.085
-592.982	-153.969	0.279	0.019
-591.967	-200.000	0.027	-0.246
-590.952	800.000	0.132	0.523
-589.938	194.649	-0.147	0.226
-588.923	-97.250	0.139	-0.037
-587.909	-200.000	-0.013	-0.370
-586.894	-200.000	-0.014	-0.371
-585.879	-67.530	0.245	-0.097
-584.865	204.593	-0.179	0.281
-583.850	-100.170	-0.218	0.055
-582.836	292.123	0.080	-0.147
-581.821	-200.000	-0.028	0.205
-580.806	800.000	-0.042	0.155
-579.792	88.922	0.236	-0.266
-578.777	-7.945	-0.120	-0.082
-577.763	-104.898	0.314	0.073
-576.748	-14.178	-0.149	0.097
-575.733	-155.628	-0.063	-0.004
-574.719	-88.339	-0.153	0.046
-573.704	137.141	0.091	0.120
-572.690	9.085	-0.118	0.090
-571.675	-97.256	-0.143	-0.038
-570.661	-157.145	0.122	-0.008
-569.646	-137.459	0.130	0.015
-568.631	117.237	0.058	-0.073
-567.617	17.804	-0.181	0.145
-566.602	111.797	0.085	-0.104
-565.588	800.000	0.103	-0.399
-564.573	-12.360	0.246	-0.163
-563.558	-200.000	0.010	0.408
-562.544	-200.000	-0.011	0.060
-561.529	-89.814	-0.069	-0.020
-560.515	800.000	-0.042	0.149
-559.500	800.000	-0.106	-0.426
-558.485	-43.175	-0.183	0.094
-557.471	-120.437	-0.198	-0.034
-556.456	559.756	0.046	0.112
-555.442	-200.000	0.009	0.064
-554.427	58.695	0.109	-0.108
-553.412	320.234	-0.180	0.344
-552.398	107.141	0.190	-0.229
-551.383	-91.114	0.112	0.032
-550.369	-134.084	-0.240	-0.030
-549.354	-200.000	0.046	-0.412
-548.339	-200.000	-0.021	0.295
-547.325	-39.028	-0.265	0.141
-546.310	-49.548	0.272	-0.131
-545.296	-74.959	-0.081	0.029
-544.281	-86.851	-0.266	-0.082
-543.266	239.891	0.070	-0.118
-542.252	-200.000	0.015	-0.157
-541.237	-68.316	-0.305	0.120
-540.223	-200.000	0.002	0.010
-539.208	-102.010	-0.390	-0.095
-538.193	-200.000	-0.009	-0.200
-537.179	11.717	-0.132	-0.103
-536.164	-168.509	0.109	0.004
-535.150	-200.000	-0.019	-0.373
-534.135	-141.238	-0.311	-0.032
-533.121	218.642	0.158	-0.255
-532.106	-200.000	-0.008	0.235
-531.091	800.000	0.038	-0.148
-530.077	-56.031	-0.134	0.061
-529.062	53.137	-0.180	0.174
-528.048	-30.045	-0.322	0.185
-527.033	101.277	-0.179	-0.211
-526.018	-56.479	0.230	0.103
-525.004	-32.236	-0.321	-0.181
-523.989	106.559	-0.054	-0.064
-522.975	-200.000	-0.033	0.239
-521.960	-168.270	0.117	-0.005
-520.945	-8.940	0.243	0.164
-519.931	-130.089	0.181	0.025
-518.916	-200.000	-0.020	0.177
-517.902	-29.935	-0.327	-0.188
-516.887	-117.128	-0.193	-0.035
-515.872	-200.000	0.019	-0.274
-514.858	26.848	0.122	-0.103
-513.843	144.790	-0.171	0.231
-512.829	-200.000	-0.001	0.372
-511.814	7.922	-0.147	-0.111
-510.799	-63.579	0.280	-0.116
-509.785	68.459	-0.119	-0.123
-508.770	-200.000	-0.014	0.420
-507.756	800.000	0.071	0.273
-506.741	-67.153	0.312	0.124
-505.726	-113.384	0.202	0.040
-504.712	-60.339	0.133	-0.057
-503.697	47.633	0.286	0.269
-502.683	-114.156	0.142	0.028
-501.668	-30.250	0.404	0.231
-500.653	-127.345	0.207	-0.030
-499.639	-132.723	-0.104	-0.013
-498.624	283.781	0.086	-0.156
-497.610	573.208	-0.029	0.070
-496.595	-200.000	-0.018	-0.349
-495.581	587.479	-0.093	0.230
-494.566	-146.109	-0.113	-0.010
-493.551	800.000	-0.047	0.139
-492.537	121.830	0.049	-0.062
-491.522	-58.867	-0.179	-0.078
-490.508	-200.000	-0.029	-0.537
-489.493	-35.292	0.198	0.108
-488.478	19.151	-0.093	0.075
-487.464	800.000	0.025	0.087
-486.449	416.393	-0.194	0.418
-485.435	-24.845	0.173	-0.104
-484.420	66.565	-0.065	-0.066
-483.405	-118.773	-0.042	-0.008
-482.391	-86.436	0.325	-0.101
-481.376	-200.000	-0.072	-0.385
-480.362	318.381	0.064	0.122
-479.347	800.000	0.086	0.297
-478.332	-23.178	-0.165	0.100
-477.318	210.028	-0.135	-0.214
-476.303	-200.000	-0.004	-0.081
-475.289	313.451	0.055	-0.105
-474.274	162.038	0.103	-0.145
-473.259	-142.337	-0.286	0.028
-472.245	256.348	-0.057	0.099
-471.230	-200.000	0.019	-0.169
-470.216	97.558	-0.026	0.030
-469.201	174.689	0.062	-0.090
-468.186	-100.276	0.115	0.029
-467.172	345.350	0.128	0.252
-466.157	-63.678	-0.183	-0.076
-465.143	566.075	-0.082	-0.200
-464.128	-200.000	0.017	0.114
-463.113	-200.000	0.011	-0.131
-462.099	-200.000	0.030	0.149
-461.084	-22.167	0.060	-0.037
-460.070	170.728	-0.157	-0.226
-459.055	-200.000	-0.015	0.102
-458.040	-200.000	-0.005	-0.249
-457.026	6.992	-0.229	0.172
-456.011	52.506	-0.261	-0.251
-454.997	231.382	-0.120	0.197
-453.982	326.551	0.034	-0.065
-452.968	172.577	-0.187	-0.271
-451.953	-17.404	0.069	-0.044
-450.938	-143.190	0.195	0.019
-449.924	49.556	-0.032	-0.030
-448.909	562.960	-0.073	-0.178
-447.895	163.418	-0.111	-0.157
-446.880	21.894	0.184	0.151
-445.865	-51.247	0.195	-0.092
-444.851	578.146	0.077	0.190
-443.836	56.886	-0.138	0.136
-442.822	-30.005	-0.039	-0.022
-441.807	24.329	0.102	0.085
-440.792	76.456	0.283	0.302
-439.778	13.197	-0.265	-0.206
-438.763	162.321	0.138	-0.195
-437.749	601.811	0.241	0.602
-436.734	-19.986	0.260	0.162
-435.719	245.181	-0.112	-0.190
-434.705	233.668	0.062	-0.103
-433.690	121.754	-0.120	-0.150
-432.676	35.643	-0.140	-0.124
-431.661	374.000	0.071	0.146
-430.646	126.313	0.079	0.101
-429.632	-200.000	0.015	0.134
-428.617	-134.832	-0.060	0.007
-427.603	156.065	-0.178	-0.248
-426.588	40.289	-0.085	0.077
-425.573	459.120	0.070	0.158
-424.559	-2.748	-0.092	0.065
-423.544	148.800	-0.118	0.160
-422.530	173.100	0.098	-0.143
-421.515	361.790	-0.091	0.184
-420.500	186.945	0.063	-0.094
-419.486	748.250	0.164	0.445
-418.471	38.882	0.248	-0.223
-417.457	221.476	0.156	-0.253
-416.442	-69.863	-0.443	-0.170
-415.428	800.000	0.103	0.334
-414.413	144.847	0.148	-0.199
-413.398	-96.071	0.167	0.045
-412.384	56.627	0.091	0.089
-411.369	150.525	-0.123	-0.168
-410.355	-98.433	-0.360	0.093
-409.340	106.871	0.145	0.172
-408.325	657.035	0.054	-0.141
-407.311	625.788	-0.088	-0.222
-406.296	646.085	0.071	0.182
-405.282	156.838	-0.091	0.127
-404.267	-1.267	-0.284	0.201
-403.252	-200.000	0.015	-0.072
-402.238	-167.145	0.075	-0.003
-401.223	3.965	0.348	0.256
-400.209	95.281	0.053	0.061
-399.194	74.969	-0.069	-0.073
-398.179	74.386	-0.073	-0.077
-397.165	465.721	0.071	0.161
-396.150	189.996	0.065	-0.097
-395.136	195.783	-0.076	-0.116
-394.121	245.529	0.107	0.181
-393.106	-200.000	-0.004	0.020
-392.092	-136.199	0.471	-0.055
-391.077	-162.360	0.320	0.016
-390.063	-200.000	-0.024	0.141
-389.048	68.815	0.091	0.094
-388.033	800.000	-0.058	0.196
-387.019	-200.000	0.088	0.388
-386.004	528.719	-0.090	0.214
-384.990	-122.752	0.110	-0.018
-383.975	-200.000	-0.008	0.052
-382.960	170.703	-0.129	0.185
-381.946	21.640	0.240	-0.196
-380.931	-158.105	0.286	0.017
-379.917	-10.785	0.221	0.146
-378.902	210.790	-0.173	0.273
-377.888	-4.189	-0.383	0.266
-376.873	104.097	-0.223	0.263
-375.858	147.505	0.230	-0.311
-374.844	78.273	0.270	-0.290
-373.829	233.286	-0.171	-0.282
-372.815	-200.000	0.033	0.245
-371.800	800.000	0.093	-0.323
-370.785	38.958	-0.135	-0.121
-369.771	418.225	-0.030	-0.064
-368.756	-67.211	-0.148	-0.059
-367.742	800.000	0.050	0.202
-366.727	275.388	-0.053	-0.094
-365.712	20.259	-0.220	0.178
-364.698	376.921	0.151	0.309
-363.683	272.459	-0.070	0.125
-362.669	138.246	-0.164	-0.215
-361.654	-25.071	0.183	0.109
-360.639	800.000	0.034	0.121
-359.625	-169.830	-0.133	0.005
-358.610	386.125	-0.116	0.241
-357.596	16.492	0.133	-0.106
-356.581	-200.000	0.017	0.094
-355.566	378.377	0.040	-0.082
-354.552	-19.601	-0.123	-0.076
-353.537	-92.933	0.389	0.109
-352.523	180.602	0.109	0.161
-351.508	-167.950	0.074	-0.003
-350.493	-155.718	-0.043	-0.003
-349.479	-11.546	-0.162	-0.107
-348.464	-110.854	-0.149	0.031
-347.450	-97.658	-0.329	0.085
-346.435	111.189	-0.289	-0.348
-345.420	-77.674	0.219	0.076
-344.406	137.216	0.075	0.098
-343.391	3.149	0.154	-0.112
-342.377	-38.119	-0.248	-0.132
-341.362	148.894	0.121	0.164
-340.348	800.000	-0.065	-0.265
-339.333	-105.193	-0.233	0.053
-338.318	-200.000	-0.019	0.157
-337.304	-77.034	-0.162	-0.057
-336.289	-77.220	0.236	-0.083
-335.275	-9.565	0.105	0.070
-334.260	-3.037	-0.170	-0.119
-333.245	-33.913	-0.406	0.224
-332.231	-51.481	0.573	-0.268
-331.216	92.427	-0.317	0.358
-330.202	149.746	-0.163	-0.221
-329.187	-119.389	0.211	-0.037
-328.172	24.750	-0.173	-0.144
-327.158	-200.000	-0.006	-0.267
-326.143	800.000	-0.034	0.125
-325.129	800.000	0.079	0.236
-324.114	-86.695	-0.246	-0.076
-323.099	-55.334	0.340	0.153
-322.085	81.978	0.321	-0.348
-321.070	800.000	-0.075	-0.325
-320.056	244.210	0.219	0.368
-319.041	-21.691	-0.044	0.027
-318.026	-200.000	0.030	-0.266
-317.012	239.040	-0.070	-0.116
-315.997	-3.664	0.264	0.183
-314.983	-200.000	0.064	-0.313
-313.968	-200.000	-0.003	0.033
-312.953	-90.486	0.094	0.027
-311.939	800.000	0.080	0.241
-310.924	-164.551	0.155	-0.007
-309.910	-200.000	0.037	0.240
-308.895	-67.555	0.243	0.095
-307.880	-200.000	-0.024	0.000
-306.866	-72.958	0.274	-0.101
-305.851	175.178	0.116	-0.168
-304.837	-190.089	-0.407	-0.005
-303.822	-143.722	-0.150	0.014
-302.807	-200.000	-0.015	0.125
-301.793	164.828	-0.182	0.257
-300.778	34.408	-0.217	-0.189
-299.764	236.965	0.116	-0.193
-298.749	-4.599	0.237	0.164
-297.735	800.000	-0.057	0.198
-296.720	592.260	-0.036	0.088
-295.705	84.003	-0.102	0.112
-294.691	355.690	0.106	-0.212
-293.676	-29.082	0.313	-0.180
-292.662	53.556	0.027	-0.026
-291.647	125.196	-0.314	0.396
-290.632	87.474	-0.200	0.221
-289.618	-200.000	-0.015	0.143
-288.603	79.623	0.219	0.235
-287.589	661.424	-0.101	0.259
-286.574	-49.028	0.027	-0.013
-285.559	402.038	0.143	-0.301
-284.545	331.625	-0.148	-0.286
-283.530	-58.431	0.075	0.033
-282.516	-83.932	-0.594	-0.189
-281.501	-200.000	-0.001	0.048
-280.486	42.865	-0.258	0.235
-279.472	232.886	0.064	-0.106
-278.457	326.965	-0.019	0.037
-277.443	-200.000	0.008	0.160
-276.428	-77.177	-0.390	-0.136
-275.413	800.000	0.107	0.413
-274.399	-200.000	-0.026	-0.265
-273.384	-64.557	0.104	0.042
-272.370	-139.439	0.191	-0.020
-271.355	34.548	0.083	-0.072
-270.340	-22.749	0.188	0.114
-269.326	83.534	-0.038	-0.041
-268.311	-58.205	-0.147	-0.064
-267.297	-200.000	0.015	-0.219
-266.282	-68.663	-0.194	0.075
-265.267	671.215	0.083	-0.214
-264.253	-125.981	-0.315	0.047
-263.238	-71.085	-0.064	-0.024
-262.224	37.361	0.173	-0.153
-261.209	-6.411	0.238	0.162
-260.195	-42.010	0.322	-0.165
-259.180	39.381	-0.346	-0.310
-258.165	123.017	0.081	0.101
-257.151	132.672	-0.149	-0.192
-256.136	274.608	0.024	-0.042
-255.122	-50.130	0.194	-0.092
-254.107	-200.000	0.015	0.097
-253.092	410.029	0.094	0.198
-252.078	-164.720	0.166	0.007
-251.063	-39.495	0.402	0.211
-250.049	-200.000	-0.029	0.230
-249.034	106.783	0.114	0.135
-248.019	-99.308	0.143	0.036
-247.005	254.665	0.092	-0.157
-245.990	-126.436	-0.282	-0.042
-244.976	-140.326	0.103	0.011
-243.961	-85.475	-0.215	0.067
-242.946	-200.000	-0.006	0.078
-241.932	-149.118	-0.231	-0.019
-240.917	-200.000	0.039	0.193
-239.903	-193.301	0.078	-0.001
-238.888	-134.058	-0.355	-0.044
-237.873	-200.000	-0.017	-0.079
-236.859	-73.328	0.173	0.063
-235.844	-200.000	-0.018	0.082
-234.830	800.000	0.088	-0.360
-233.815	203.103	0.175	0.270
-232.800	-200.000	-0.065	-0.302
-231.786	-29.787	0.102	0.058
-230.771	-200.000	-0.003	-0.082
-229.757	-147.822	-0.320	-0.027
-228.742	-74.227	0.363	-0.131
-227.727	-114.651	-0.050	0.010
-226.713	57.536	-0.120	-0.117
-225.698	-92.506	0.133	-0.037
-224.684	-200.000	-0.007	-0.134
-223.669	-200.000	-0.025	0.286
-222.655	652.647	-0.156	0.400
-221.640	47.090	0.102	-0.095
-220.625	-66.671	0.402	-0.159
-219.611	530.537	-0.119	-0.279
-218.596	-96.447	-0.334	-0.088
-217.582	36.292	0.265	0.233
-216.567	-29.276	-0.143	-0.082
-215.552	2.827	-0.129	0.093
-214.538	88.032	0.271	0.300
-213.523	-143.024	-0.089	-0.009
-212.509	-200.000	0.011	-0.224
-211.494	197.107	-0.127	0.194
-210.479	490.581	-0.123	0.280
-209.465	-169.133	0.170	0.006
-208.450	-200.000	-0.050	0.329
-207.436	-114.309	-0.114	-0.022
-206.421	-16.182	-0.286	0.181
-205.406	-24.858	0.239	0.142
-204.392	521.237	0.076	0.178
-203.377	-79.567	-0.200	0.067
-202.363	27.679	0.150	-0.126
-201.348	-171.749	-0.233	0.008
-200.333	-34.819	-0.280	0.153
-199.319	-81.914	-0.242	-0.079
-198.304	509.310	0.160	-0.372
-197.290	183.782	0.150	0.220
-196.275	50.213	-0.147	-0.138
-195.260	-200.000	-0.045	-0.211
-194.246	-200.000	-0.009	-0.218
-193.231	124.267	0.030	0.038
-192.217	800.000	0.019	-0.075
-191.202	-19.846	0.082	-0.051
-190.187	268.039	-0.206	0.359
-189.173	89.853	0.038	-0.042
-188.158	132.659	-0.135	0.174
-187.144	800.000	-0.018	-0.068
-186.129	800.000	-0.065	0.201
-185.114	47.272	0.077	-0.071
-184.100	281.642	0.249	0.445
-183.085	-83.957	0.168	0.053
-182.071	56.265	-0.162	-0.156
-181.056	-198.887	0.315	-0.002
-180.042	-110.741	0.085	0.017
-179.027	269.552	-0.135	0.237
-178.012	583.725	0.113	-0.276
-176.998	-200.000	-0.005	-0.111
-175.983	-149.227	0.119	-0.009
-174.969	800.000	0.051	-0.157
-173.954	122.161	0.138	0.171
-172.939	-200.000	-0.042	0.301
-171.925	71.420	0.094	-0.097
-170.910	451.017	0.059	-0.130
-169.896	581.425	-0.030	-0.074
-168.881	-200.000	0.010	0.197
-167.866	-160.880	0.095	0.005
-166.852	119.837	0.088	-0.109
-165.837	-139.298	-0.277	-0.030
-164.823	-85.095	0.219	-0.068
-163.808	55.692	-0.168	-0.162
-162.793	-126.711	-0.097	-0.014
-161.779	-10.735	0.147	-0.097
-160.764	-8.490	0.056	0.038
-159.750	-91.421	0.072	-0.021
-158.735	-69.228	-0.096	-0.037
-157.720	-37.492	-0.159	0.084
-156.706	266.181	-0.062	-0.107
-155.691	800.000	0.040	0.164
-154.677	-143.316	-0.169	-0.016
-153.662	-200.000	0.005	-0.069
-152.647	800.000	0.071	-0.274
-151.633	-200.000	-0.045	-0.271
-150.618	60.510	-0.156	-0.154
-149.604	140.258	0.014	-0.018
-148.589	-140.827	0.131	-0.013
-147.574	124.639	0.166	0.208
-146.560	263.009	-0.119	0.206
-145.545	800.000	0.052	0.167
-144.531	-88.256	0.183	-0.055
-143.516	-65.464	0.031	0.013
-142.502	94.541	0.134	-0.152
-141.487	6.116	0.151	0.112
-140.472	800.000	-0.081	0.335
-139.458	474.928	-0.074	-0.167
-138.443	-102.834	-0.178	0.042
-137.429	-76.435	-0.241	0.084
-136.414	132.830	-0.027	-0.035
-135.399	71.652	-0.188	0.194
-134.385	800.000	-0.031	-0.125
-133.370	-16.467	0.093	-0.058
-132.356	-75.287	-0.300	0.107
-131.341	-200.000	-0.006	-0.126
-130.326	218.704	-0.084	-0.133
-129.312	86.771	-0.067	0.073
-128.297	-39.377	-0.293	0.153
-127.283	-200.000	0.014	0.101
-126.268	-70.386	-0.208	0.078
-125.253	-94.721	0.296	0.080
-124.239	-200.000	-0.048	0.218
-123.224	-59.725	0.298	0.127
-122.210	-48.227	-0.170	-0.082
-121.195	-200.000	-0.036	0.192
-120.180	59.184	0.179	-0.175
-119.166	152.889	0.093	-0.126
-118.151	-100.598	0.287	0.070
-117.137	417.774	0.049	0.104
-116.122	-200.000	-0.007	-0.044
-115.107	449.491	0.144	0.315
-114.093	569.936	-0.058	-0.141
-113.078	43.756	0.239	0.217
-112.064	4.574	0.079	-0.057
-111.049	-113.508	-0.061	0.012
-110.034	133.042	0.142	0.182
-109.020	136.720	0.166	0.215
-108.005	-41.958	0.104	-0.053
-106.991	-51.696	-0.113	-0.053
-105.976	-46.030	-0.138	0.067
-104.962	800.000	0.045	-0.175
-103.947	240.645	-0.027	0.044
-102.932	800.000	0.075	0.241
-101.918	194.025	-0.067	-0.101
-100.903	-120.052	-0.165	-0.028
-99.889	-200.000	-0.033	-0.400
-98.874	800.000	0.037	0.157
-97.859	0.639	-0.228	-0.162
-96.845	15.153	-0.138	-0.107
-95.830	229.919	-0.127	-0.206
-94.816	709.187	0.069	0.181
-93.801	800.000	0.056	0.193
-92.786	-75.840	0.146	-0.051
-91.772	-125.992	-0.371	-0.055
-90.757	-82.690	0.168	-0.054
-89.743	-40.459	-0.177	-0.091
-88.728	75.929	0.138	-0.145
-87.713	-200.000	0.060	-0.342
-86.699	-142.301	-0.251	-0.025
-85.684	46.566	-0.104	-0.096
-84.670	715.856	0.041	0.109
-83.655	5.640	0.140	-0.103
-82.640	70.486	0.195	0.200
-81.626	552.052	0.087	0.208
-80.611	-105.104	-0.359	-0.081
-79.597	-23.084	0.219	0.131
-78.582	-76.802	-0.196	-0.068
-77.567	618.280	-0.033	0.083
-76.553	264.138	-0.153	-0.264
-75.538	-103.661	-0.083	-0.019
-74.524	-28.495	-0.369	-0.211
-73.509	567.193	0.050	0.122
-72.494	192.906	0.116	0.173
-71.480	325.566	0.079	0.149
-70.465	800.000	0.036	0.118
-69.451	17.193	-0.284	-0.224
-68.436	-8.637	0.017	0.012
-67.422	-182.083	-0.378	-0.007
-66.407	-171.263	0.466	-0.016
-65.392	-91.831	0.444	0.125
-64.378	146.813	0.124	0.165
-63.363	435.023	0.101	0.217
-62.349	-200.000	-0.048	0.449
-61.334	89.872	-0.734	-0.813
-60.319	220.978	0.180	0.286
-59.305	-200.000	0.151	-1.019
-58.290	245.535	0.511	0.852
-57.276	252.043	0.821	1.386
-56.261	-200.000	81.068	502.559
-55.246	468.776	1381.237	3073.280
-54.232	142.785	2623.398	3455.621
-53.217	104.657	2379.392	2778.574
-52.203	47.020	1987.249	1831.911
-51.188	41.514	1771.224	1589.030
-50.173	38.747	1725.319	1526.276
-49.159	52.892	1764.401	1672.327
-48.144	56.681	1782.657	1719.363
-47.130	41.306	1744.632	1563.294
-46.115	38.341	1730.160	1527.150
-45.100	38.203	1725.667	1522.049
-44.086	38.215	1722.719	1519.482
-43.071	38.238	1720.165	1517.347
-42.057	38.165	1717.728	1514.573
-41.042	38.133	1715.524	1512.318
-40.027	38.196	1713.206	1510.701
-39.013	38.172	1711.112	1508.611
-37.998	38.146	1709.631	1507.048
-36.984	38.214	1708.407	1506.434
-35.969	38.360	1706.330	1505.665
-34.954	38.359	1704.938	1504.371
-33.940	38.431	1702.663	1502.852
-32.925	38.416	1701.079	1501.280
-31.911	38.342	1699.995	1499.699
-30.896	38.412	1697.819	1498.253
-29.881	38.364	1695.901	1496.136
-28.867	38.313	1694.631	1494.562
-27.852	38.317	1692.918	1493.029
-26.838	38.399	1691.160	1492.043
-25.823	38.427	1689.972	1491.152
-24.809	38.316	1688.765	1489.176
-23.794	38.369	1687.144	1488.096
-22.779	38.372	1685.706	1486.785
-21.765	38.490	1683.436	1485.621
-20.750	38.345	1681.845	1483.058
-19.736	38.331	1680.587	1481.784
-18.721	38.236	1680.030	1480.514
-17.706	38.369	1677.768	1479.474
-16.692	38.401	1676.112	1478.191
-15.677	38.359	1674.829	1476.684
-14.663	38.369	1673.109	1475.188
-13.648	38.387	1671.855	1474.155
-12.633	38.371	1670.656	1472.921
-11.619	38.336	1668.566	1470.756
-10.604	38.334	1667.225	1469.499
-9.590	38.401	1665.762	1468.659
-8.575	38.432	1664.488	1467.711
-7.560	38.414	1663.433	1466.585
-6.546	38.339	1662.255	1464.924
-5.531	38.298	1660.784	1463.264
-4.517	38.257	1659.542	1461.808
-3.502	38.310	1658.216	1460.975
-2.487	38.480	1656.565	1460.729
-1.473	38.499	1646.318	1451.776
-0.458	36.446	1627.206	1419.796
0.556	30.888	1625.409	1381.484
1.571	27.237	1647.599	1372.713
2.586	25.813	1659.815	1371.934
3.600	22.841	1605.604	1305.076
4.615	12.774	1486.310	1138.760
5.629	2.769	1412.480	1016.101
6.644	0.470	1402.585	993.761
7.659	0.412	1400.552	991.854
8.673	0.415	1399.463	991.014
9.688	0.234	1397.648	988.453
10.702	0.136	1395.066	985.898
11.717	4.158	1402.190	1017.287
12.731	13.264	1417.720	1088.669
13.746	18.180	1423.315	1125.290
14.761	17.517	1420.287	1118.442
15.775	16.530	1417.594	1109.747
16.790	15.387	1415.072	1100.188
17.804	14.508	1412.949	1092.681
18.819	14.166	1411.237	1089.024
19.834	13.867	1409.830	1085.887
20.848	13.695	1408.452	1083.604
21.863	13.389	1407.132	1080.496
22.877	13.286	1405.543	1078.508
23.892	13.144	1405.208	1077.229
24.907	13.274	1404.157	1077.173
25.921	13.184	1403.572	1076.045
26.936	13.212	1402.385	1075.221
27.950	13.202	1401.754	1074.575
28.965	13.296	1400.349	1074.014
29.980	13.332	1399.673	1073.634
30.994	13.409	1398.548	1073.176
32.009	13.433	1397.488	1072.425
33.023	13.454	1396.418	1071.644
34.038	13.346	1395.158	1069.882
35.053	13.400	1393.739	1069.049
36.067	13.348	1392.839	1067.926
37.082	13.346	1391.900	1067.099
38.096	13.367	1390.845	1066.335
39.111	13.334	1390.416	1065.701
40.126	13.350	1389.496	1064.998
41.140	13.237	1388.683	1063.560
42.155	13.265	1387.990	1063.109
43.169	13.247	1387.418	1062.462
44.184	13.210	1387.751	1062.388
45.199	13.211	1387.285	1061.943
46.213	13.195	1386.578	1061.205
47.228	13.243	1385.545	1060.629
48.242	13.337	1383.672	1059.706
49.257	13.258	1382.856	1058.481
50.271	13.353	1381.435	1057.904
51.286	13.286	1380.382	1056.574
52.301	13.270	1379.101	1055.403
53.315	13.277	1377.463	1054.097
54.330	13.283	1376.628	1053.405
55.344	13.267	1375.701	1052.503
56.359	13.203	1374.544	1051.115
57.374	13.233	1373.293	1050.253
58.388	13.135	1372.691	1049.081
59.403	13.137	1372.694	1049.004
60.417	13.151	1371.484	1048.072
61.432	13.166	1370.446	1047.281
62.447	13.108	1369.796	1046.326
63.461	13.122	1368.186	1045.092
64.476	13.137	1367.190	1044.335
65.490	13.114	1366.104	1043.265
66.505	13.033	1364.701	1041.592
67.520	13.115	1363.376	1041.006
68.534	13.233	1361.894	1040.523
69.549	13.291	1360.548	1039.768
70.563	13.102	1359.857	1037.962
71.578	13.065	1358.669	1036.731
72.593	13.124	1357.780	1036.329
73.607	13.036	1356.875	1034.998
74.622	12.980	1356.391	1034.184
75.636	13.108	1355.449	1034.176
76.651	13.068	1354.769	1033.314
77.666	13.056	1354.408	1032.871
78.680	13.027	1353.636	1032.014
79.695	13.108	1352.357	1031.453
80.709	13.083	1351.566	1030.598
81.724	13.201	1350.622	1030.526
82.739	13.242	1349.897	1030.137
83.753	13.252	1348.779	1029.257
84.768	13.296	1347.787	1028.678
85.782	13.282	1346.525	1027.540
86.797	13.335	1345.261	1026.815
87.812	13.183	1344.205	1024.970
88.826	13.214	1343.127	1024.252
89.841	13.211	1342.019	1023.296
90.855	13.313	1340.617	1022.768
91.870	13.390	1339.477	1022.288
92.884	13.365	1339.074	1021.734
93.899	13.370	1338.242	1021.037
94.914	13.462	1337.100	1020.643
95.928	13.341	1336.848	1019.616
96.943	13.396	1335.990	1019.207
97.957	13.342	1335.071	1018.087
98.972	13.396	1333.999	1017.509
99.987	13.437	1332.737	1016.712
101.001	13.400	1332.025	1015.849
102.016	13.429	1330.514	1014.783
103.030	13.326	1330.482	1014.037
104.045	13.417	1329.199	1013.528
105.060	13.407	1327.311	1011.938
106.074	13.186	1326.823	1010.126
107.089	13.125	1325.567	1008.711
108.103	13.166	1324.010	1007.682
109.118	13.265	1322.495	1007.044
110.133	13.162	1321.283	1005.404
111.147	13.169	1319.888	1004.297
112.162	13.303	1318.415	1003.905
113.176	13.357	1317.301	1003.292
114.191	13.323	1316.232	1002.186
115.206	13.252	1315.698	1001.256
116.220	13.275	1314.259	1000.214
117.235	13.196	1312.844	998.570
118.249	13.237	1312.109	998.171
119.264	13.302	1310.700	997.404
120.279	13.287	1309.786	996.529
121.293	13.160	1308.895	995.000
122.308	13.201	1307.943	994.432
123.322	13.181	1307.023	993.526
124.337	13.077	1305.963	992.008
125.352	13.173	1304.819	991.627
126.366	13.246	1303.448	990.936
127.381	13.223	1302.240	989.791
128.395	13.149	1301.093	988.389
129.410	13.306	1299.808	988.264
130.424	13.248	1299.755	987.788
131.439	13.349	1298.335	987.224
132.454	13.304	1297.607	986.316
133.468	13.321	1296.124	985.203
134.483	13.323	1295.667	984.781
135.497	13.325	1294.371	983.718
136.512	13.228	1293.409	982.322
137.527	13.362	1291.629	981.684
138.541	13.258	1290.404	980.045
139.556	13.276	1289.098	979.078
140.570	13.319	1288.279	978.624
141.585	13.421	1286.594	977.859
142.600	13.411	1285.599	976.956
143.614	13.460	1284.848	976.590
144.629	13.476	1283.236	975.373
145.643	13.573	1281.653	974.654
146.658	13.498	1280.753	973.439
147.673	13.396	1279.458	971.769
148.687	13.365	1277.821	970.261
149.702	13.391	1276.972	969.684
150.716	13.325	1276.216	968.633
151.731	13.397	1274.349	967.556
152.746	13.414	1273.124	966.635
153.760	13.498	1271.446	965.765
154.775	13.451	1270.770	964.897
155.789	13.385	1270.014	963.853
156.804	13.427	1269.087	963.307
157.819	13.437	1267.673	962.205
158.833	13.577	1266.640	962.150
159.848	13.593	1265.628	961.391
160.862	13.541	1264.803	960.376
161.877	13.516	1263.556	959.198
162.892	13.364	1262.934	957.760
163.906	13.415	1262.136	957.368
164.921	13.505	1261.186	957.082
165.935	13.462	1260.005	955.854
166.950	13.485	1259.340	955.398
167.964	13.643	1258.251	955.398
168.979	13.539	1257.933	954.469
169.994	13.519	1256.899	953.486
171.008	13.634	1255.998	953.382
172.023	13.727	1254.820	952.935
173.037	13.649	1254.418	952.100
174.052	13.690	1253.302	951.405
175.067	13.636	1252.531	950.423
176.081	13.590	1251.364	949.190
177.096	13.550	1250.829	948.470
178.110	13.537	1249.682	947.446
179.125	13.563	1248.427	946.559
180.140	13.541	1247.093	945.335
181.154	13.663	1245.690	944.886
182.169	13.695	1244.570	944.134
183.183	13.665	1243.332	942.943
184.198	13.714	1242.130	942.225
185.213	13.737	1241.195	941.563
186.227	13.838	1239.743	940.950
187.242	13.778	1238.717	939.750
188.256	13.804	1237.857	939.157
189.271	13.753	1237.174	938.267
190.286	13.780	1235.893	937.368
191.300	13.641	1234.965	935.797
192.315	13.579	1234.295	934.859
193.329	13.627	1233.470	934.421
194.344	13.655	1233.112	934.225
195.359	13.738	1232.305	933.994
196.373	13.772	1231.823	933.740
197.388	13.954	1231.195	934.206
198.402	13.974	1230.225	933.496
199.417	13.972	1230.266	933.436
200.432	13.966	1229.007	932.366
201.446	14.032	1227.958	931.858
202.461	13.995	1227.259	931.036
203.475	14.050	1226.386	930.598
204.490	14.131	1224.606	929.617
205.504	14.028	1223.174	927.874
206.519	14.038	1222.202	927.108
207.534	13.978	1221.100	925.861
208.548	14.050	1220.024	925.359
209.563	14.004	1219.360	924.521
210.577	14.058	1218.288	923.928
211.592	14.025	1218.169	923.569
212.607	14.214	1216.747	923.462
213.621	14.194	1216.028	922.720
214.636	14.145	1214.666	921.334
215.650	14.183	1214.221	921.124
216.665	14.174	1213.022	920.084
217.680	14.214	1212.123	919.544
218.694	14.345	1211.020	919.348
219.709	14.239	1210.366	918.186
220.723	14.157	1209.772	917.200
221.738	14.265	1208.874	917.034
222.753	14.369	1207.789	916.705
223.767	14.264	1207.439	915.779
224.782	14.310	1206.869	915.519
225.796	14.382	1206.167	915.299
226.811	14.425	1205.280	914.780
227.826	14.326	1204.779	913.775
228.840	14.311	1204.087	913.088
229.855	14.329	1203.163	912.406
230.869	14.379	1202.292	911.938
231.884	14.309	1201.730	911.047
232.899	14.328	1200.840	910.399
233.913	14.320	1200.197	909.786
234.928	14.339	1199.551	909.321
235.942	14.350	1198.672	908.632
236.957	14.278	1197.811	907.509
237.972	14.287	1197.226	907.034
238.986	14.344	1196.722	906.880
240.001	14.417	1195.812	906.509
241.015	14.398	1194.692	905.473
242.030	14.569	1193.254	905.235
243.045	14.425	1193.195	904.326
244.059	14.548	1191.954	903.975
245.074	14.498	1191.734	903.455
246.088	14.533	1190.443	902.586
247.103	14.544	1189.593	901.919
248.117	14.561	1188.953	901.449
249.132	14.599	1188.566	901.278
250.147	14.702	1187.687	901.091
251.161	14.828	1186.782	901.004
252.176	14.789	1186.029	900.140
253.190	14.885	1185.471	900.153
254.205	14.880	1184.996	899.690
255.220	14.832	1184.415	898.907
256.234	14.917	1183.646	898.701
257.249	14.961	1183.058	898.411
258.263	14.872	1182.356	897.324
259.278	14.947	1181.760	897.192
260.293	14.950	1181.265	896.754
261.307	15.000	1180.360	896.255
262.322	14.897	1179.826	895.218
263.336	14.961	1179.158	894.978
264.351	14.904	1178.592	894.164
265.366	14.860	1177.996	893.396
266.380	15.047	1177.048	893.594
267.395	15.037	1176.094	892.739
268.409	14.989	1175.323	891.819
269.424	14.928	1175.125	891.265
270.439	15.018	1174.161	890.933
271.453	14.990	1173.366	890.106
272.468	15.012	1172.284	889.323
273.482	14.976	1171.588	888.524
274.497	15.086	1170.931	888.527
275.512	15.010	1170.369	887.622
276.526	15.058	1169.873	887.424
277.541	15.167	1168.707	887.035
278.555	15.137	1168.247	886.448
279.570	15.148	1167.175	885.616
280.585	15.240	1166.495	885.508
281.599	15.275	1165.334	884.733
282.614	15.149	1165.143	883.843
283.628	15.216	1163.262	882.695
284.643	15.303	1162.423	882.437
285.657	15.169	1161.509	880.960
286.672	15.309	1160.730	881.028
287.687	15.269	1159.579	879.865
288.701	15.390	1159.224	880.151
289.716	15.339	1158.491	879.252
290.730	15.312	1157.627	878.377
291.745	15.345	1157.120	878.085
292.760	15.309	1156.587	877.415
293.774	15.393	1156.186	877.471
294.789	15.341	1155.790	876.821
295.803	15.391	1154.790	876.249
296.818	15.414	1153.910	875.621
297.833	15.447	1153.139	875.129
298.847	15.444	1152.446	874.513
299.862	15.488	1151.230	873.739
300.876	15.525	1150.712	873.465
301.891	15.380	1150.241	872.272
302.906	15.462	1149.479	872.046
303.920	15.614	1148.426	871.958
304.935	15.573	1147.978	871.331
305.949	15.643	1147.427	871.196
306.964	15.591	1146.510	870.151
307.979	15.550	1145.671	869.229
308.993	15.632	1145.243	869.250
310.008	15.619	1144.520	868.555
311.022	15.547	1143.900	867.637
312.037	15.699	1142.909	867.596
313.052	15.667	1141.677	866.416
314.066	15.663	1140.557	865.468
315.081	15.566	1139.966	864.444
316.095	15.598	1139.103	863.877
317.110	15.726	1138.420	863.943
318.125	15.629	1138.005	863.055
319.139	15.647	1137.290	862.529
320.154	15.668	1136.261	861.778
321.168	15.588	1136.079	861.155
322.183	15.694	1135.410	861.114
323.197	15.717	1134.629	860.561
324.212	15.769	1133.678	860.029
325.227	15.717	1133.532	859.579
326.241	15.703	1132.889	858.942
327.256	15.691	1132.107	858.210
328.270	15.778	1130.721	857.529
329.285	15.714	1130.036	856.606
330.300	15.822	1128.847	856.181
331.314	15.819	1127.895	855.369
332.329	15.754	1127.284	854.500
333.343	15.944	1126.005	854.418
334.358	15.899	1125.559	853.777
335.373	15.855	1124.899	852.974
336.387	15.892	1124.266	852.609
337.402	15.965	1122.980	851.928
338.416	15.974	1122.426	851.474
339.431	15.955	1121.885	850.896
340.446	15.960	1121.104	850.251
341.460	16.148	1120.192	850.435
342.475	16.323	1119.034	850.360
343.489	16.136	1118.338	848.813
344.504	16.249	1117.553	848.709
345.519	16.153	1116.894	847.656
346.533	16.171	1115.930	846.938
347.548	16.319	1114.954	846.865
348.562	16.274	1114.064	845.889
349.577	16.231	1113.773	845.375
350.592	16.053	1112.815	843.685
351.606	16.125	1112.409	843.664
352.621	16.109	1111.719	842.984
353.635	16.211	1110.707	842.650
354.650	16.158	1109.887	841.692
355.665	16.171	1109.462	841.358
356.679	16.160	1108.976	840.858
357.694	16.232	1108.361	840.679
358.708	16.247	1107.587	840.091
359.723	16.177	1107.125	839.319
360.738	16.262	1106.301	839.041
361.752	16.301	1105.435	838.505
362.767	16.339	1105.119	838.379
363.781	16.381	1104.487	838.032
364.796	16.362	1103.985	837.485
365.810	16.480	1103.252	837.440
366.825	16.568	1102.443	837.184
367.840	16.411	1102.269	836.205
368.854	16.568	1101.430	836.270
369.869	16.589	1100.764	835.794
370.883	16.509	1099.811	834.602
371.898	16.488	1098.995	833.804
372.913	16.578	1098.376	833.706
373.927	16.669	1097.756	833.610
374.942	16.703	1097.070	833.179
375.956	16.605	1097.005	832.576
376.971	16.510	1096.668	831.781
377.986	16.545	1095.567	831.041
379.000	16.670	1095.235	831.328
380.015	16.735	1094.667	831.145
381.029	16.824	1093.839	830.878
382.044	16.856	1092.846	830.206
383.059	16.668	1092.527	828.972
384.073	16.737	1091.671	828.587
385.088	16.799	1090.564	827.975
386.102	16.785	1089.725	827.196
387.117	16.767	1088.757	826.299
388.132	16.725	1087.454	825.035
389.146	16.774	1086.998	824.854
390.161	16.774	1086.130	824.121
391.175	16.749	1085.770	823.654
392.190	16.850	1085.178	823.625
393.205	16.834	1084.216	822.745
394.219	16.954	1082.914	822.265
395.234	16.783	1082.764	821.246
396.248	16.867	1081.438	820.576
397.263	16.775	1080.600	819.424
398.278	16.853	1079.962	819.246
399.292	16.744	1079.366	818.195
400.307	16.798	1078.447	817.687
401.321	16.851	1077.693	817.296
402.336	16.773	1077.308	816.557
403.350	16.930	1076.267	816.452
404.365	16.883	1075.790	815.792
405.380	16.896	1074.971	815.160
406.394	16.937	1074.102	814.627
407.409	17.026	1073.242	814.329
408.423	17.107	1072.479	814.064
409.438	17.127	1072.112	813.812
410.453	17.085	1071.011	812.702
411.467	17.220	1070.309	812.746
412.482	17.132	1069.972	811.997
413.496	17.164	1069.021	811.353
414.511	17.290	1068.494	811.484
415.526	17.328	1067.960	811.187
416.540	17.258	1067.817	810.674
417.555	17.246	1067.520	810.320
418.569	17.251	1066.712	809.657
419.584	17.236	1066.277	809.183
420.599	17.329	1065.648	809.077
421.613	92.028	1307.311	1407.592
422.628	85.067	1342.528	1407.713
