DTS Sentinel unit serial number:	SN413079Multiplexer serial number:	ORYXHardware model number:	OX4-SRSoftware version number:	ORYX F/W v4.00 Oryx Data Collector v3.7.2.0data status	okinstallation	princeton_trtdifferential loss correction	single-endedforward channel	channel 2reverse channel	N/Adate	2019/09/16time	13:59:35forward acquisition time	60.00reverse acquisition time	0.00gamma	496.2192k internal	0.2295k external	0.2295temperature offset calibration	0.9941default loss term (dB/km)	0.3790temperature slope calibration	1.0000multiplexer offset coefficient	1.0000multiplexer slope coefficient	1.0000fibre end	0.00T internal ref (°C)	42.39T ext. ref 1 (°C)	14.02T ext. ref 2 (°C)	37.60length (m)	temperature (°C)	Stokes	anti-Stokes-747.200	338.487	0.124	-0.247
-746.185	-107.653	0.190	0.042
-745.171	-15.918	-0.080	-0.052
-744.156	92.211	0.082	0.095
-743.142	-200.000	0.030	-0.207
-742.127	-13.952	-0.277	0.183
-741.112	55.149	0.255	-0.252
-740.098	800.000	0.036	0.156
-739.083	-200.000	0.011	-0.320
-738.069	720.913	-0.050	0.135
-737.054	-200.000	-0.035	0.347
-736.039	-35.031	-0.359	0.200
-735.025	141.159	0.040	-0.054
-734.010	-185.733	-0.035	0.001
-732.996	-47.725	-0.485	0.241
-731.981	-200.000	0.017	0.082
-730.966	34.510	-0.121	0.108
-729.952	-114.343	0.308	0.061
-728.937	-200.000	-0.014	0.260
-727.923	-97.366	-0.226	-0.060
-726.908	292.937	-0.033	0.061
-725.894	-89.481	-0.106	0.032
-724.879	-58.334	-0.271	-0.120
-723.864	-122.277	0.088	-0.015
-722.850	800.000	0.042	0.127
-721.835	331.964	-0.152	0.300
-720.821	292.153	-0.172	-0.320
-719.806	296.668	-0.194	-0.364
-718.791	-8.297	-0.174	-0.119
-717.777	-200.000	-0.006	-0.041
-716.762	-47.097	-0.165	-0.082
-715.748	-200.000	0.008	-0.259
-714.733	179.340	-0.033	0.050
-713.718	-101.018	0.328	-0.082
-712.704	-200.000	0.047	-0.330
-711.689	-32.301	-0.171	0.098
-710.675	34.046	-0.180	-0.160
-709.660	34.408	-0.006	-0.005
-708.645	90.693	-0.308	0.353
-707.631	-25.249	-0.185	0.112
-706.616	61.737	0.058	-0.059
-705.602	15.162	0.237	0.189
-704.587	-200.000	0.060	-0.313
-703.572	800.000	0.056	-0.220
-702.558	-200.000	-0.027	0.203
-701.543	149.902	-0.109	-0.151
-700.529	316.170	-0.053	-0.103
-699.514	304.009	-0.049	0.093
-698.499	-58.534	0.400	-0.177
-697.485	-200.000	-0.022	-0.170
-696.470	357.741	-0.028	0.058
-695.456	800.000	0.027	-0.098
-694.441	108.103	0.055	-0.067
-693.426	-38.276	0.071	0.038
-692.412	-173.580	0.195	0.006
-691.397	11.578	-0.297	0.232
-690.383	67.256	-0.213	-0.222
-689.368	-37.428	0.099	-0.054
-688.354	-200.000	0.011	-0.117
-687.339	6.441	0.243	-0.184
-686.324	179.503	-0.214	-0.320
-685.310	-200.000	-0.008	-0.407
-684.295	800.000	-0.088	-0.269
-683.281	714.671	0.100	-0.270
-682.266	-9.566	-0.086	-0.058
-681.251	743.847	0.122	-0.335
-680.237	-200.000	-0.064	0.322
-679.222	1.207	-0.331	-0.242
-678.208	-200.000	-0.034	-0.492
-677.193	-39.814	0.128	-0.068
-676.178	53.847	0.171	-0.168
-675.164	619.901	0.112	0.287
-674.149	158.347	-0.236	0.334
-673.135	192.578	0.053	0.081
-672.120	206.142	0.143	-0.227
-671.105	-12.261	-0.411	0.274
-670.091	-5.760	-0.170	0.118
-669.076	-93.326	-0.373	-0.105
-668.062	800.000	-0.100	-0.391
-667.047	-79.283	0.104	0.036
-666.032	-133.612	-0.124	0.016
-665.018	350.688	-0.040	-0.080
-664.003	65.842	0.132	-0.136
-662.989	-71.631	-0.130	-0.050
-661.974	-200.000	-0.037	0.251
-660.959	-161.095	-0.227	0.012
-659.945	156.745	0.167	-0.235
-658.930	800.000	-0.064	-0.213
-657.916	-200.000	0.005	-0.088
-656.901	155.722	0.146	0.206
-655.886	143.305	0.094	-0.127
-654.872	800.000	-0.151	-0.470
-653.857	-200.000	0.017	0.122
-652.843	-200.000	-0.048	-0.496
-651.828	-107.262	0.149	0.033
-650.814	-71.494	-0.173	-0.066
-649.799	-200.000	0.004	-0.099
-648.784	51.013	0.237	0.229
-647.770	254.515	0.062	-0.109
-646.755	182.589	0.068	0.102
-645.741	190.910	-0.249	0.382
-644.726	800.000	0.048	0.206
-643.711	100.863	0.113	-0.134
-642.697	-10.830	-0.126	-0.085
-641.682	105.433	-0.121	0.146
-640.668	-109.862	-0.123	-0.026
-639.653	-22.872	-0.194	-0.119
-638.638	-80.293	0.285	-0.097
-637.624	10.131	-0.208	0.161
-636.609	205.068	0.006	0.010
-635.595	-35.691	-0.183	0.101
-634.580	800.000	0.095	0.357
-633.565	-156.766	0.109	0.007
-632.551	800.000	-0.057	0.227
-631.536	97.739	-0.102	0.119
-630.522	800.000	-0.090	0.362
-629.507	679.950	-0.140	-0.372
-628.492	-200.000	-0.022	0.167
-627.478	392.603	0.074	-0.157
-626.463	23.655	-0.200	-0.167
-625.449	800.000	-0.062	-0.210
-624.434	-70.313	0.096	0.037
-623.419	54.540	0.194	0.191
-622.405	-200.000	-0.033	-0.158
-621.390	-200.000	-0.025	-0.164
-620.376	-182.408	0.123	0.002
-619.361	70.565	-0.070	0.073
-618.346	151.130	0.104	0.145
-617.332	800.000	0.103	-0.337
-616.317	800.000	0.004	-0.013
-615.303	-200.000	0.061	0.294
-614.288	-70.206	-0.183	0.071
-613.273	45.398	0.151	0.141
-612.259	800.000	-0.021	0.062
-611.244	-200.000	0.079	0.499
-610.230	-41.150	-0.129	-0.068
-609.215	-126.005	0.141	-0.022
-608.201	-76.958	-0.096	0.034
-607.186	1.923	0.149	-0.109
-606.171	800.000	0.056	0.225
-605.157	161.428	-0.087	0.124
-604.142	-131.336	-0.064	-0.009
-603.128	19.661	0.046	0.038
-602.113	-200.000	0.044	-0.308
-601.098	-65.227	0.254	0.104
-600.084	-90.480	0.108	0.032
-599.069	-87.200	0.144	-0.044
-598.055	215.544	0.122	0.197
-597.040	-67.349	0.209	0.083
-596.025	-155.536	0.214	-0.014
-595.011	-155.156	0.204	0.014
-593.996	800.000	-0.030	0.109
-592.982	183.847	-0.285	0.429
-591.967	241.031	-0.075	-0.128
-590.952	115.131	-0.163	0.202
-589.938	-8.683	-0.129	-0.088
-588.923	60.031	0.123	-0.124
-587.909	-200.000	-0.092	-0.415
-586.894	-67.210	-0.016	-0.006
-585.879	-200.000	0.006	-0.105
-584.865	208.511	-0.109	-0.174
-583.850	-52.716	0.132	-0.062
-582.836	-111.561	-0.095	-0.020
-581.821	-200.000	0.029	0.253
-580.806	24.087	0.206	-0.173
-579.792	-149.850	-0.445	0.035
-578.777	-95.824	-0.079	-0.021
-577.763	20.815	0.260	0.214
-576.748	115.078	0.131	0.162
-575.733	303.953	-0.077	-0.146
-574.719	-200.000	-0.037	0.192
-573.704	-86.834	-0.183	-0.057
-572.690	285.864	-0.063	-0.115
-571.675	-139.722	0.150	-0.016
-570.661	-89.006	0.204	-0.061
-569.646	-200.000	-0.022	-0.107
-568.631	-31.345	0.079	-0.045
-567.617	-175.242	0.140	-0.004
-566.602	167.961	0.127	-0.184
-565.588	-2.270	0.134	0.095
-564.573	107.291	-0.167	-0.201
-563.558	11.496	-0.183	-0.142
-562.544	82.380	0.096	-0.105
-561.529	-108.812	-0.058	-0.013
-560.515	-200.000	0.007	0.034
-559.500	-110.846	-0.312	0.065
-558.485	673.746	0.155	-0.409
-557.471	800.000	0.011	0.035
-556.456	14.000	-0.080	-0.063
-555.442	-61.596	0.142	-0.060
-554.427	-117.233	-0.065	0.012
-553.412	-0.523	0.132	-0.095
-552.398	-106.448	0.298	-0.068
-551.383	-49.851	-0.048	-0.023
-550.369	-134.988	-0.274	-0.034
-549.354	-21.120	0.142	0.088
-548.339	-200.000	0.088	0.451
-547.325	-99.975	-0.091	0.023
-546.310	-35.851	-0.125	-0.069
-545.296	-200.000	-0.002	-0.059
-544.281	-200.000	0.021	-0.525
-543.266	23.465	-0.299	0.250
-542.252	-115.256	-0.012	-0.002
-541.237	-119.562	-0.218	0.038
-540.223	-200.000	-0.052	0.350
-539.208	118.848	0.147	-0.184
-538.193	800.000	-0.070	-0.231
-537.179	141.786	0.096	-0.129
-536.164	61.213	-0.126	-0.127
-535.150	-45.696	-0.112	-0.056
-534.135	-200.000	-0.025	-0.124
-533.121	-200.000	0.041	-0.310
-532.106	-53.074	0.203	-0.094
-531.091	118.999	-0.084	-0.106
-530.077	-71.890	0.284	0.107
-529.062	-165.145	0.170	-0.008
-528.048	-9.603	-0.184	0.125
-527.033	-16.110	-0.121	0.078
-526.018	-82.203	-0.198	-0.065
-525.004	-104.649	0.399	0.093
-523.989	-153.706	-0.134	-0.009
-522.975	800.000	-0.018	-0.072
-521.960	-84.641	-0.205	-0.066
-520.945	51.769	-0.188	-0.181
-519.931	43.585	-0.089	-0.082
-518.916	-180.687	0.219	0.005
-517.902	-61.765	0.132	0.056
-516.887	-200.000	-0.043	-0.304
-515.872	-200.000	-0.005	0.152
-514.858	90.601	-0.009	0.010
-513.843	-69.258	-0.228	0.089
-512.829	237.864	-0.085	0.144
-511.814	-16.671	-0.132	-0.085
-510.799	-152.840	0.274	0.020
-509.785	-146.034	-0.207	-0.019
-508.770	-119.362	0.369	-0.065
-507.756	-155.884	-0.163	-0.011
-506.741	-13.983	-0.206	-0.135
-505.726	-200.000	0.021	0.173
-504.712	-43.022	-0.044	-0.023
-503.697	91.708	-0.211	-0.240
-502.683	59.326	0.112	0.111
-501.668	408.629	-0.108	-0.231
-500.653	-77.049	-0.120	-0.043
-499.639	-200.000	0.021	0.262
-498.624	-143.122	-0.245	-0.024
-497.610	-200.000	0.028	-0.154
-496.595	-8.085	0.231	-0.158
-495.581	-200.000	0.008	-0.162
-494.566	-58.731	-0.193	-0.085
-493.551	3.305	-0.320	0.236
-492.537	-200.000	0.025	0.137
-491.522	337.786	0.041	0.081
-490.508	-133.454	-0.213	-0.027
-489.493	-117.959	-0.342	0.062
-488.478	207.659	-0.129	0.204
-487.464	-128.409	0.264	0.038
-486.449	-19.706	0.266	-0.167
-485.435	-14.695	-0.311	-0.202
-484.420	800.000	-0.051	-0.160
-483.405	-80.905	0.134	-0.045
-482.391	493.887	-0.129	-0.300
-481.376	-84.474	-0.310	0.099
-480.362	-200.000	-0.054	0.280
-479.347	800.000	0.042	-0.153
-478.332	-82.022	0.285	-0.094
-477.318	-173.459	-0.374	-0.011
-476.303	-75.987	-0.086	-0.031
-475.289	800.000	-0.026	0.103
-474.274	-108.095	0.109	-0.024
-473.259	-25.625	0.170	-0.102
-472.245	-200.000	-0.028	0.201
-471.230	11.730	0.079	-0.061
-470.216	9.707	-0.152	-0.116
-469.201	-55.876	-0.184	-0.083
-468.186	61.083	0.071	-0.072
-467.172	199.832	-0.150	-0.232
-466.157	-18.140	0.125	-0.079
-465.143	244.616	0.077	-0.130
-464.128	-200.000	-0.020	-0.107
-463.113	-33.501	-0.148	-0.083
-462.099	-177.393	0.028	0.001
-461.084	694.105	0.099	-0.263
-460.070	-72.908	-0.449	0.167
-459.055	-97.287	0.082	0.022
-458.040	-200.000	0.007	0.159
-457.026	800.000	-0.170	-0.505
-456.011	-200.000	0.019	-0.234
-454.997	34.042	-0.109	0.096
-453.982	-44.787	0.006	-0.003
-452.968	-112.279	-0.325	-0.066
-451.953	-113.344	-0.089	0.018
-450.938	-200.000	0.021	0.217
-449.924	-176.003	-0.081	0.002
-448.909	-79.264	-0.107	0.037
-447.895	173.619	-0.120	0.175
-446.880	-109.372	0.339	0.072
-445.865	-24.760	0.094	0.057
-444.851	37.468	-0.141	0.126
-443.836	79.522	0.051	-0.055
-442.822	-46.409	-0.281	0.139
-441.807	-61.398	-0.243	-0.103
-440.792	-36.072	-0.170	0.093
-439.778	741.445	0.130	0.354
-438.763	-57.665	0.365	-0.162
-437.749	17.343	0.093	-0.075
-436.734	-154.520	-0.094	-0.006
-435.719	30.171	0.060	0.052
-434.705	-141.587	0.459	-0.047
-433.690	76.225	-0.199	0.213
-432.676	-200.000	-0.030	-0.210
-431.661	-10.560	0.194	0.129
-430.646	-6.207	0.071	-0.049
-429.632	-11.972	-0.041	-0.027
-428.617	-43.984	-0.158	-0.080
-427.603	800.000	0.060	-0.187
-426.588	800.000	-0.012	-0.035
-425.573	-111.788	-0.189	0.039
-424.559	113.655	0.135	-0.166
-423.544	-193.284	0.111	0.001
-422.530	125.695	0.177	-0.226
-421.515	-80.479	0.124	0.042
-420.500	-126.988	-0.202	0.030
-419.486	-123.741	0.152	0.024
-418.471	-64.419	-0.070	0.029
-417.457	706.865	0.113	0.301
-416.442	13.915	-0.204	-0.160
-415.428	-144.110	0.148	-0.014
-414.413	126.301	-0.070	0.089
-413.398	-171.061	-0.097	-0.003
-412.384	-8.382	0.180	0.122
-411.369	-120.302	-0.095	-0.016
-410.355	-86.323	-0.161	0.050
-409.340	-110.890	0.199	-0.041
-408.325	-103.776	-0.064	0.015
-407.311	306.261	-0.119	0.224
-406.296	-62.157	-0.172	-0.073
-405.282	116.739	-0.185	0.229
-404.267	-200.000	0.042	0.233
-403.252	108.450	-0.129	-0.156
-402.238	-200.000	-0.016	0.241
-401.223	800.000	-0.029	-0.092
-400.209	-135.467	0.295	0.036
-399.194	-2.622	-0.195	0.138
-398.179	701.101	-0.077	-0.205
-397.165	-200.000	0.015	0.148
-396.150	-200.000	-0.037	0.229
-395.136	50.697	0.089	-0.085
-394.121	526.910	-0.086	0.205
-393.106	249.524	-0.213	-0.365
-392.092	25.224	0.142	-0.119
-391.077	800.000	-0.091	-0.305
-390.063	800.000	0.053	0.224
-389.048	669.505	0.121	0.316
-388.033	-200.000	0.050	-0.234
-387.019	-200.000	0.002	-0.207
-386.004	23.643	0.087	-0.072
-384.990	-56.867	0.191	0.085
-383.975	215.971	0.040	-0.064
-382.960	-153.893	-0.216	-0.015
-381.946	-200.000	-0.083	0.418
-380.931	-200.000	0.008	-0.207
-379.917	-122.915	-0.347	0.056
-378.902	69.976	-0.145	-0.150
-377.888	-58.151	0.293	-0.129
-376.873	-79.468	-0.233	-0.079
-375.858	-146.499	0.427	0.037
-374.844	-200.000	-0.019	-0.197
-373.829	-200.000	-0.010	0.168
-372.815	800.000	-0.125	0.402
-371.800	-69.636	-0.266	-0.102
-370.785	-200.000	0.002	-0.165
-369.771	-132.116	-0.100	0.013
-368.756	-51.323	-0.233	-0.110
-367.742	374.468	0.128	0.262
-366.727	800.000	0.046	0.193
-365.712	64.332	0.189	-0.192
-364.698	-200.000	0.003	-0.048
-363.683	-90.280	0.289	0.085
-362.669	-200.000	-0.009	0.171
-361.654	-165.611	-0.204	0.009
-360.639	295.923	0.170	0.314
-359.625	800.000	0.029	0.113
-358.610	-41.031	-0.132	-0.069
-357.596	800.000	0.081	-0.318
-356.581	-181.939	-0.174	-0.003
-355.566	-186.444	-0.259	0.004
-354.552	-122.879	0.119	0.019
-353.537	-200.000	0.028	0.211
-352.523	4.840	-0.214	0.158
-351.508	-93.826	-0.250	0.069
-350.493	150.424	-0.076	0.103
-349.479	-158.198	-0.280	0.017
-348.464	-200.000	-0.004	0.202
-347.450	739.923	0.061	-0.165
-346.435	46.151	0.188	0.175
-345.420	-57.917	-0.063	0.028
-344.406	-82.516	-0.254	0.083
-343.391	-119.404	-0.288	-0.050
-342.377	502.080	0.173	0.402
-341.362	71.071	0.181	-0.188
-340.348	800.000	-0.040	0.134
-339.333	91.593	0.153	0.173
-338.318	55.602	-0.111	0.108
-337.304	254.053	-0.156	0.268
-336.289	-82.840	0.133	-0.043
-335.275	-41.015	-0.321	-0.167
-334.260	-127.460	0.422	-0.062
-333.245	-200.000	-0.064	-0.296
-332.231	-200.000	0.088	-0.393
-331.216	-109.763	0.287	-0.061
-330.202	-56.997	-0.127	0.057
-329.187	118.982	0.218	-0.271
-328.172	-34.805	0.248	0.137
-327.158	162.834	-0.255	0.359
-326.143	-200.000	0.039	0.194
-325.129	-146.883	0.140	-0.012
-324.114	-100.254	0.200	-0.050
-323.099	800.000	-0.059	0.175
-322.085	179.545	0.156	0.230
-321.070	41.514	0.086	0.079
-320.056	182.867	0.142	-0.211
-319.041	38.321	0.160	0.143
-318.026	311.208	0.166	0.313
-317.012	404.503	0.081	0.171
-315.997	101.506	0.166	0.195
-314.983	128.113	0.177	-0.226
-313.968	117.253	-0.144	-0.178
-312.953	-89.071	-0.216	0.064
-311.939	173.422	0.083	0.120
-310.924	729.782	0.056	0.151
-309.910	120.422	-0.157	-0.195
-308.895	-29.837	0.389	-0.223
-307.880	542.560	-0.066	-0.159
-306.866	99.433	0.142	-0.165
-305.851	-26.199	-0.218	0.129
-304.837	-200.000	-0.039	0.413
-303.822	-124.814	0.152	-0.024
-302.807	83.433	0.154	0.169
-301.793	102.391	0.340	-0.400
-300.778	769.790	0.070	-0.193
-299.764	341.927	0.061	-0.120
-298.749	-137.262	0.223	-0.026
-297.735	-37.862	0.086	0.046
-296.720	29.361	0.265	0.226
-295.705	-85.128	-0.095	-0.030
-294.691	244.079	0.265	0.447
-293.676	-200.000	0.044	0.270
-292.662	-200.000	-0.015	0.178
-291.647	-200.000	0.025	-0.281
-290.632	-161.779	-0.249	-0.013
-289.618	800.000	0.093	-0.276
-288.603	112.293	-0.305	-0.370
-287.589	800.000	-0.091	-0.293
-286.574	66.071	-0.106	0.108
-285.559	-200.000	0.015	-0.306
-284.545	-77.979	0.476	0.165
-283.530	-127.477	0.281	-0.041
-282.516	55.074	0.410	-0.398
-281.501	150.443	0.174	-0.237
-280.486	-137.314	0.229	0.026
-279.472	-98.201	0.332	-0.086
-278.457	-70.256	-0.188	-0.072
-277.443	360.070	-0.156	0.313
-276.428	-18.160	-0.272	-0.171
-275.413	477.956	-0.033	-0.075
-274.399	195.323	0.260	0.396
-273.384	257.936	-0.072	-0.125
-272.370	183.691	-0.038	-0.057
-271.355	800.000	-0.152	0.454
-270.340	-200.000	0.024	0.144
-269.326	60.162	-0.214	-0.213
-268.311	548.319	-0.094	0.226
-267.297	-38.294	0.086	-0.045
-266.282	-100.261	0.383	0.095
-265.267	593.256	0.077	-0.192
-264.253	487.323	0.051	0.117
-263.238	-93.401	-0.174	0.048
-262.224	131.367	0.156	-0.201
-261.209	120.996	0.275	0.343
-260.195	1.848	0.119	0.086
-259.180	-200.000	-0.045	-0.285
-258.165	-88.570	0.189	-0.057
-257.151	-129.816	0.294	0.040
-256.136	-68.287	0.058	-0.023
-255.122	-11.383	0.043	-0.029
-254.107	18.884	0.202	-0.162
-253.092	-41.069	0.171	-0.088
-252.078	-67.955	-0.180	-0.070
-251.063	425.746	0.066	-0.143
-250.049	-200.000	-0.034	-0.250
-249.034	800.000	-0.036	-0.148
-248.019	491.583	-0.044	0.100
-247.005	-151.543	0.185	-0.014
-245.990	-200.000	-0.014	-0.152
-244.976	-200.000	-0.021	-0.386
-243.961	92.573	-0.072	-0.081
-242.946	203.557	-0.175	0.271
-241.932	-18.402	0.158	-0.099
-240.917	236.163	0.124	-0.205
-239.903	-49.554	0.210	0.100
-238.888	-4.716	-0.097	0.067
-237.873	-112.856	0.312	0.062
-236.859	265.503	-0.121	-0.212
-235.844	45.352	-0.186	0.172
-234.830	-22.036	-0.039	0.024
-233.815	-200.000	0.016	0.263
-232.800	43.154	0.139	0.127
-231.786	686.518	-0.094	0.246
-230.771	12.338	-0.279	0.215
-229.757	133.170	0.133	-0.172
-228.742	-89.458	0.072	0.021
-227.727	53.709	0.130	0.125
-226.713	316.637	-0.119	-0.224
-225.698	-200.000	0.012	-0.135
-224.684	110.857	-0.171	-0.206
-223.669	-200.000	0.050	0.343
-222.655	137.532	0.128	-0.168
-221.640	2.751	0.066	0.048
-220.625	245.468	0.090	0.152
-219.611	83.865	-0.308	-0.337
-218.596	-1.385	0.076	0.054
-217.582	90.686	-0.303	-0.340
-216.567	-200.000	-0.029	0.160
-215.552	153.954	0.097	0.133
-214.538	-15.708	0.172	0.110
-213.523	-200.000	0.010	0.161
-212.509	633.045	0.030	0.076
-211.494	-200.000	0.003	0.048
-210.479	307.436	-0.134	-0.250
-209.465	67.308	0.170	-0.174
-208.450	-137.572	-0.316	-0.036
-207.436	-199.671	0.556	0.003
-206.421	24.460	0.035	-0.029
-205.406	-43.889	-0.241	0.121
-204.392	14.060	-0.110	0.085
-203.377	-59.781	-0.155	-0.066
-202.363	-83.640	0.103	-0.033
-201.348	-115.051	-0.230	0.044
-200.333	18.528	-0.148	-0.118
-199.319	-63.504	-0.313	-0.129
-198.304	94.379	0.301	0.342
-197.290	800.000	-0.072	0.242
-196.275	7.270	0.088	-0.066
-195.260	697.984	0.013	0.035
-194.246	51.306	-0.202	0.191
-193.231	38.899	-0.215	0.192
-192.217	-56.734	0.279	0.123
-191.202	59.657	0.037	0.037
-190.187	113.630	-0.134	0.163
-189.173	-49.820	0.213	0.101
-188.158	-200.000	-0.004	0.324
-187.144	-200.000	-0.001	-0.351
-186.129	-200.000	-0.081	-0.393
-185.114	-48.509	0.147	0.071
-184.100	-200.000	-0.016	-0.096
-183.085	-200.000	0.084	0.419
-182.071	-200.000	-0.029	0.306
-181.056	800.000	-0.093	-0.319
-180.042	-200.000	-0.029	-0.182
-179.027	-49.414	0.047	-0.023
-178.012	800.000	-0.012	-0.050
-176.998	800.000	0.012	0.034
-175.983	38.503	0.253	0.225
-174.969	72.691	-0.159	0.166
-173.954	-25.841	-0.178	0.105
-172.939	-67.404	0.049	0.019
-171.925	-146.687	-0.229	-0.020
-170.910	800.000	-0.063	-0.176
-169.896	-171.558	0.169	0.006
-168.881	-12.483	-0.152	0.099
-167.866	-145.624	0.237	0.021
-166.852	-200.000	0.013	0.273
-165.837	800.000	-0.055	-0.216
-164.823	81.826	0.079	0.086
-163.808	-146.624	-0.424	-0.037
-162.793	800.000	0.098	-0.392
-161.779	-87.632	-0.111	0.033
-160.764	37.046	0.243	0.215
-159.750	116.172	-0.076	0.093
-158.735	800.000	-0.137	-0.420
-157.720	-176.141	0.251	-0.007
-156.706	-122.575	-0.186	-0.030
-155.691	-55.566	-0.346	-0.155
-154.677	-200.000	-0.004	-0.203
-153.662	-40.968	0.020	-0.010
-152.647	105.624	-0.017	0.020
-151.633	-200.000	0.001	-0.101
-150.618	-1.560	0.002	-0.002
-149.604	800.000	0.147	-0.493
-148.589	-59.111	0.313	0.135
-147.574	-27.074	-0.282	0.164
-146.560	-20.180	0.152	-0.094
-145.545	251.533	-0.036	-0.062
-144.531	-40.667	-0.183	0.095
-143.516	245.010	-0.240	-0.403
-142.502	43.828	0.122	-0.112
-141.487	800.000	0.010	0.043
-140.472	-90.976	0.125	-0.036
-139.458	-81.927	-0.040	-0.013
-138.443	-200.000	0.009	-0.080
-137.429	171.596	-0.139	-0.200
-136.414	-66.748	0.161	0.064
-135.399	107.158	-0.174	0.206
-134.385	800.000	0.073	-0.232
-133.370	170.580	0.223	0.319
-132.356	65.000	-0.119	0.120
-131.341	329.154	-0.116	0.223
-130.326	-200.000	-0.075	0.346
-129.312	-8.527	-0.189	0.127
-128.297	-200.000	0.032	-0.229
-127.283	251.632	0.054	0.091
-126.268	654.305	0.094	0.242
-125.253	-200.000	0.006	-0.157
-124.239	-62.466	-0.084	-0.035
-123.224	-96.612	0.189	-0.050
-122.210	-74.904	-0.214	-0.077
-121.195	99.187	-0.178	-0.206
-120.180	-200.000	0.048	0.241
-119.166	-200.000	0.022	0.263
-118.151	-200.000	0.007	-0.086
-117.137	-135.039	0.439	0.053
-116.122	393.784	-0.100	-0.207
-115.107	-79.108	-0.183	0.062
-114.093	-191.942	-0.258	-0.003
-113.078	-175.130	0.201	-0.006
-112.064	-200.000	0.004	-0.137
-111.049	348.789	-0.137	-0.270
-110.034	497.572	0.089	-0.204
-109.020	-200.000	0.017	0.168
-108.005	-136.307	-0.337	-0.039
-106.991	-200.000	-0.036	0.222
-105.976	12.003	-0.142	0.109
-104.962	-83.071	-0.169	0.054
-103.947	-98.082	-0.143	-0.037
-102.932	800.000	-0.097	-0.314
-101.918	-200.000	-0.009	-0.302
-100.903	20.567	0.112	0.090
-99.889	-122.142	-0.132	-0.022
-98.874	79.128	-0.112	0.119
-97.859	-10.348	0.214	0.142
-96.845	-143.682	-0.252	0.024
-95.830	97.609	-0.019	0.022
-94.816	-200.000	-0.013	0.140
-93.801	-136.905	0.287	-0.033
-92.786	-200.000	0.007	-0.081
-91.772	-24.473	0.160	-0.095
-90.757	-145.043	0.431	0.039
-89.743	661.160	-0.094	0.242
-88.728	-1.769	0.125	0.088
-87.713	-200.000	0.045	-0.203
-86.699	-105.801	-0.240	0.054
-85.684	172.480	0.182	-0.261
-84.670	283.461	-0.314	-0.562
-83.655	800.000	-0.075	-0.263
-82.640	-29.974	0.341	-0.194
-81.626	-122.687	-0.105	0.017
-80.611	193.207	-0.115	0.173
-79.597	66.431	-0.280	-0.283
-78.582	-111.534	0.172	0.035
-77.567	-200.000	0.070	-0.385
-76.553	-138.036	-0.161	-0.018
-75.538	800.000	-0.017	-0.061
-74.524	401.958	-0.034	-0.071
-73.509	25.109	-0.162	-0.134
-72.494	-115.426	0.219	-0.041
-71.480	98.436	0.160	0.183
-70.465	18.772	0.080	0.064
-69.451	10.669	0.234	-0.177
-68.436	24.490	0.232	0.191
-67.422	173.735	0.074	0.107
-66.407	-200.000	-0.050	0.253
-65.392	222.529	0.098	-0.158
-64.378	-200.000	0.091	-0.441
-63.363	91.725	-0.115	-0.128
-62.349	-105.164	-0.199	0.045
-61.334	4.529	-0.734	-0.536
-60.319	-143.283	0.211	0.020
-59.305	-200.000	-0.086	-0.844
-58.290	99.413	0.486	0.560
-57.276	800.000	0.549	1.534
-56.261	-200.000	75.630	542.919
-55.246	524.063	1347.736	3153.670
-54.232	137.758	2598.790	3387.100
-53.217	112.234	2379.687	2863.014
-52.203	52.078	1988.381	1885.185
-51.188	45.757	1777.119	1634.634
-50.173	42.859	1731.456	1570.004
-49.159	56.811	1765.445	1710.653
-48.144	62.944	1783.624	1776.284
-47.130	45.814	1747.164	1607.267
-46.115	42.437	1733.819	1568.601
-45.100	42.331	1728.473	1562.873
-44.086	42.244	1725.915	1559.821
-43.071	42.174	1723.511	1557.048
-42.057	42.263	1720.838	1555.258
-41.042	42.196	1719.080	1553.090
-40.027	42.314	1716.673	1551.761
-39.013	42.282	1714.920	1549.871
-37.998	42.169	1713.745	1547.877
-36.984	42.273	1711.522	1546.609
-35.969	42.436	1710.387	1546.778
-34.954	42.427	1708.455	1544.901
-33.940	42.496	1706.352	1543.471
-32.925	42.338	1704.853	1540.837
-31.911	42.290	1703.125	1538.845
-30.896	42.333	1700.960	1537.160
-29.881	42.373	1699.265	1535.872
-28.867	42.383	1697.334	1534.138
-27.852	42.430	1695.852	1533.101
-26.838	42.466	1694.238	1531.857
-25.823	42.332	1693.343	1529.962
-24.809	42.441	1691.442	1529.016
-23.794	42.366	1690.305	1527.356
-22.779	42.397	1689.054	1526.402
-21.765	42.395	1686.858	1524.340
-20.750	42.349	1685.452	1522.658
-19.736	42.424	1683.905	1521.767
-18.721	42.416	1682.202	1520.110
-17.706	42.416	1680.745	1518.734
-16.692	42.402	1678.955	1516.953
-15.677	42.388	1677.470	1515.441
-14.663	42.433	1675.626	1514.053
-13.648	42.439	1674.744	1513.242
-12.633	42.435	1673.261	1511.812
-11.619	42.440	1671.523	1510.222
-10.604	42.452	1670.033	1508.909
-9.590	42.447	1668.705	1507.609
-8.575	42.534	1667.105	1506.754
-7.560	42.483	1665.962	1505.283
-6.546	42.491	1664.842	1504.266
-5.531	42.373	1664.052	1502.613
-4.517	42.329	1663.057	1501.321
-3.502	42.303	1661.644	1499.794
-2.487	42.464	1659.654	1499.139
-1.473	42.341	1648.628	1488.212
-0.458	39.467	1626.697	1447.273
0.556	32.542	1624.052	1404.248
1.571	29.308	1647.546	1399.932
2.586	27.913	1660.691	1400.290
3.600	25.564	1609.425	1339.463
4.615	20.175	1501.913	1212.305
5.629	15.357	1435.915	1126.654
6.644	14.055	1427.202	1111.018
7.659	14.063	1425.020	1109.278
8.673	14.075	1423.943	1108.421
9.688	13.906	1422.570	1106.129
10.702	13.698	1419.919	1102.585
11.717	15.846	1423.835	1119.833
12.731	19.822	1430.647	1151.618
13.746	20.015	1428.664	1151.200
14.761	17.668	1422.854	1130.864
15.775	16.337	1419.749	1119.480
16.790	15.261	1416.993	1110.086
17.804	14.340	1414.620	1102.037
18.819	13.882	1413.059	1097.693
19.834	13.509	1411.339	1093.803
20.848	13.198	1410.108	1090.699
21.863	12.867	1408.830	1087.429
22.877	12.813	1407.808	1086.191
23.892	12.811	1406.841	1085.330
24.907	12.709	1405.953	1083.880
25.921	12.816	1405.159	1083.876
26.936	12.820	1404.089	1082.980
27.950	12.817	1403.007	1082.033
28.965	12.929	1401.667	1081.636
29.980	12.909	1400.704	1080.666
30.994	13.060	1399.565	1080.681
32.009	13.078	1398.001	1079.494
33.023	12.960	1396.834	1077.731
34.038	13.048	1395.312	1077.031
35.053	12.962	1394.136	1075.466
36.067	12.976	1393.030	1074.614
37.082	12.980	1391.744	1073.549
38.096	13.026	1390.710	1072.959
39.111	12.960	1390.406	1072.199
40.126	12.923	1389.387	1071.077
41.140	12.780	1388.767	1069.577
42.155	12.728	1387.873	1068.454
43.169	12.761	1387.820	1068.537
44.184	12.742	1387.346	1067.951
45.199	12.845	1386.721	1068.047
46.213	12.824	1386.324	1067.510
47.228	12.893	1385.048	1066.877
48.242	12.960	1384.169	1066.538
49.257	12.960	1382.346	1065.038
50.271	12.892	1381.010	1063.477
51.286	12.982	1379.484	1062.788
52.301	12.950	1378.196	1061.495
53.315	12.873	1377.204	1060.142
54.330	12.787	1376.157	1058.689
55.344	12.767	1375.210	1057.742
56.359	12.788	1374.130	1056.948
57.374	12.699	1373.503	1055.805
58.388	12.736	1372.416	1055.112
59.403	12.772	1371.837	1054.803
60.417	12.601	1371.378	1053.264
61.432	12.619	1370.221	1052.398
62.447	12.680	1369.295	1051.981
63.461	12.684	1367.789	1050.757
64.476	12.598	1367.089	1049.575
65.490	12.712	1365.349	1048.876
66.505	12.658	1364.008	1047.408
67.520	12.651	1362.890	1046.411
68.534	12.584	1362.364	1045.491
69.549	12.735	1360.773	1045.136
70.563	12.599	1359.787	1043.425
71.578	12.640	1358.554	1042.648
72.593	12.540	1357.810	1041.349
73.607	12.603	1356.660	1040.770
74.622	12.581	1356.041	1040.070
75.636	12.525	1355.621	1039.301
76.651	12.596	1354.391	1038.714
77.666	12.517	1354.397	1038.127
78.680	12.463	1354.234	1037.569
79.695	12.544	1352.822	1036.908
80.709	12.623	1352.321	1036.928
81.724	12.706	1351.062	1036.390
82.739	12.724	1350.151	1035.718
83.753	12.777	1349.470	1035.435
84.768	12.839	1348.399	1034.911
85.782	12.914	1347.131	1034.314
86.797	12.861	1345.770	1032.849
87.812	12.811	1344.328	1031.337
88.826	12.875	1343.451	1030.975
89.841	12.889	1342.074	1029.914
90.855	12.908	1341.504	1029.504
91.870	12.827	1340.996	1028.516
92.884	12.916	1339.793	1028.054
93.899	12.931	1339.268	1027.657
94.914	12.958	1338.329	1027.016
95.928	12.985	1337.220	1026.237
96.943	12.971	1336.534	1025.538
97.957	12.894	1335.730	1024.352
98.972	12.998	1333.968	1023.555
99.987	12.923	1333.068	1022.305
101.001	12.848	1332.143	1021.041
102.016	12.949	1330.922	1020.639
103.030	12.933	1330.341	1020.004
104.045	12.939	1329.413	1019.242
105.060	12.907	1327.967	1017.846
106.074	12.826	1326.163	1015.876
107.089	12.719	1324.919	1014.171
108.103	12.748	1324.023	1013.573
109.118	12.683	1322.789	1012.143
110.133	12.665	1321.561	1011.000
111.147	12.682	1319.692	1009.587
112.162	12.784	1318.256	1009.022
113.176	12.795	1317.262	1008.238
114.191	12.844	1316.438	1007.821
115.206	12.694	1315.671	1006.229
116.220	12.743	1313.859	1005.050
117.235	12.756	1312.971	1004.359
118.249	12.857	1311.457	1003.729
119.264	12.766	1310.392	1002.276
120.279	12.771	1309.167	1001.280
121.293	12.806	1308.034	1000.534
122.308	12.648	1307.346	998.963
123.322	12.667	1306.052	998.002
124.337	12.646	1305.393	997.277
125.352	12.679	1304.289	996.551
126.366	12.858	1302.228	995.968
127.381	12.634	1302.223	994.519
128.395	12.805	1300.924	994.472
129.410	12.722	1299.831	993.052
130.424	12.793	1299.434	993.084
131.439	12.832	1298.511	992.526
132.454	12.807	1297.147	991.250
133.468	12.867	1296.390	990.942
134.483	12.922	1295.449	990.465
135.497	12.800	1294.563	988.969
136.512	12.863	1293.033	988.088
137.527	12.962	1291.520	987.438
138.541	12.869	1290.422	985.957
139.556	13.016	1289.104	985.737
140.570	13.045	1287.450	984.559
141.585	12.944	1286.874	983.428
142.600	12.985	1285.218	982.322
143.614	13.118	1284.001	982.094
144.629	13.110	1283.629	981.677
145.643	13.065	1282.297	980.307
146.658	12.977	1281.087	978.768
147.673	12.922	1279.836	977.403
148.687	12.990	1278.138	976.422
149.702	12.835	1277.297	974.779
150.716	12.882	1275.656	973.715
151.731	12.936	1274.361	972.961
152.746	12.856	1273.323	971.606
153.760	12.949	1272.244	971.245
154.775	12.990	1271.096	970.527
155.789	13.096	1269.517	969.859
156.804	13.025	1269.179	969.095
157.819	12.985	1267.891	967.789
158.833	13.063	1266.867	967.385
159.848	13.229	1265.831	967.478
160.862	13.115	1264.997	966.088
161.877	13.053	1263.613	964.585
162.892	12.955	1262.903	963.385
163.906	13.002	1262.061	962.929
164.921	12.927	1260.588	961.284
165.935	12.964	1259.910	960.898
166.950	13.124	1258.936	960.999
167.964	13.105	1258.501	960.474
168.979	13.073	1257.332	959.309
169.994	13.038	1257.062	958.817
171.008	13.108	1255.813	958.187
172.023	13.139	1254.905	957.589
173.037	13.204	1254.133	957.288
174.052	13.244	1253.328	956.821
175.067	13.127	1251.959	955.013
176.081	13.021	1251.182	953.724
177.096	13.121	1249.917	953.255
178.110	13.176	1248.849	952.671
179.125	13.139	1247.838	951.605
180.140	13.219	1246.183	950.718
181.154	13.121	1245.751	949.738
182.169	13.220	1244.508	949.277
183.183	13.154	1242.934	947.612
184.198	13.323	1241.607	947.486
185.213	13.274	1240.581	946.341
186.227	13.339	1239.479	945.786
187.242	13.439	1238.193	945.293
188.256	13.454	1237.751	944.959
189.271	13.380	1236.400	943.422
190.286	13.296	1235.284	942.008
191.300	13.127	1234.751	940.558
192.315	13.149	1233.898	939.945
193.329	13.123	1233.056	939.075
194.344	13.162	1232.295	938.634
195.359	13.284	1231.351	938.524
196.373	13.234	1231.289	938.109
197.388	13.352	1230.950	938.441
198.402	13.325	1230.989	938.232
199.417	13.547	1229.622	938.363
200.432	13.515	1228.739	937.427
201.446	13.573	1228.029	937.131
202.461	13.624	1226.760	936.368
203.475	13.656	1225.770	935.708
204.490	13.695	1224.306	934.727
205.504	13.578	1223.662	933.494
206.519	13.507	1222.316	931.985
207.534	13.499	1221.328	931.107
208.548	13.509	1220.313	930.308
209.563	13.517	1219.798	929.873
210.577	13.506	1218.733	928.920
211.592	13.566	1217.687	928.376
212.607	13.744	1216.633	928.489
213.621	13.684	1215.590	927.271
214.636	13.659	1215.182	926.742
215.650	13.678	1214.430	926.189
216.665	13.750	1213.445	925.757
217.680	13.751	1212.001	924.583
218.694	13.802	1211.317	924.260
219.709	13.796	1210.525	923.545
220.723	13.675	1209.964	922.362
221.738	13.796	1209.278	922.429
222.753	13.814	1208.169	921.603
223.767	13.954	1207.090	921.475
224.782	13.891	1207.257	921.172
225.796	13.897	1206.305	920.393
226.811	13.909	1205.786	919.981
227.826	13.983	1204.642	919.441
228.840	13.892	1203.814	918.220
229.855	13.938	1203.042	917.808
230.869	13.819	1202.521	916.669
231.884	13.784	1201.486	915.609
232.899	13.855	1200.696	915.315
233.913	13.774	1200.181	914.395
234.928	13.820	1199.203	913.822
235.942	13.952	1198.124	913.647
236.957	13.826	1197.860	912.671
237.972	13.955	1196.588	912.329
238.986	13.894	1195.894	911.383
240.001	13.895	1195.167	910.755
241.015	14.041	1194.337	910.841
242.030	14.009	1193.662	910.074
243.045	13.959	1193.109	909.296
244.059	13.966	1192.248	908.600
245.074	14.072	1191.191	908.290
246.088	14.072	1190.279	907.517
247.103	14.081	1189.702	907.046
248.117	14.174	1188.755	906.749
249.132	14.206	1188.231	906.445
250.147	14.271	1187.390	906.077
251.161	14.263	1186.907	905.584
252.176	14.314	1186.190	905.232
253.190	14.290	1185.806	904.728
254.205	14.428	1184.853	904.673
255.220	14.420	1184.332	904.151
256.234	14.441	1183.469	903.527
257.249	14.470	1182.625	902.959
258.263	14.500	1181.854	902.450
259.278	14.463	1181.566	901.954
260.293	14.415	1180.960	901.153
261.307	14.509	1180.090	900.913
262.322	14.599	1179.148	900.599
263.336	14.524	1179.154	900.122
264.351	14.526	1178.160	899.296
265.366	14.569	1177.220	898.726
266.380	14.583	1176.463	898.146
267.395	14.585	1175.809	897.577
268.409	14.590	1174.816	896.767
269.424	14.583	1174.375	896.314
270.439	14.603	1173.950	896.020
271.453	14.657	1173.052	895.541
272.468	14.585	1172.429	894.602
273.482	14.508	1171.429	893.349
274.497	14.624	1170.602	893.258
275.512	14.547	1170.054	892.350
276.526	14.511	1169.441	891.611
277.541	14.627	1168.513	891.441
278.555	14.655	1167.832	890.994
279.570	14.688	1166.954	890.421
280.585	14.766	1166.147	890.141
281.599	14.718	1165.132	889.033
282.614	14.675	1164.247	888.050
283.628	14.643	1163.394	887.150
284.643	14.765	1162.307	886.893
285.657	14.696	1161.398	885.756
286.672	14.722	1160.599	885.206
287.687	14.821	1159.432	884.761
288.701	14.873	1158.334	884.120
289.716	14.852	1157.987	883.665
290.730	14.814	1156.954	882.597
291.745	14.885	1156.516	882.561
292.760	14.836	1156.095	881.905
293.774	14.896	1155.003	881.308
294.789	14.887	1154.803	881.029
295.803	15.049	1153.754	881.007
296.818	14.928	1153.239	879.894
297.833	14.904	1152.518	879.143
298.847	14.890	1151.524	878.231
299.862	14.830	1151.025	877.461
300.876	14.948	1150.161	877.345
301.891	15.076	1149.472	877.409
302.906	15.016	1148.997	876.658
303.920	15.149	1147.709	876.290
304.935	15.176	1147.557	876.240
305.949	15.135	1146.925	875.462
306.964	15.320	1145.964	875.620
307.979	15.161	1145.291	874.197
308.993	15.200	1144.459	873.689
310.008	15.195	1143.735	873.033
311.022	15.290	1142.834	872.764
312.037	15.212	1141.767	871.464
313.052	15.263	1141.028	871.088
314.066	15.205	1139.928	869.868
315.081	15.087	1139.427	868.796
316.095	15.081	1138.754	868.178
317.110	15.107	1137.789	867.498
318.125	15.088	1137.157	866.842
319.139	15.134	1136.439	866.455
320.154	15.162	1136.065	866.240
321.168	15.115	1135.066	865.158
322.183	15.086	1134.448	864.463
323.197	15.166	1133.818	864.317
324.212	15.278	1133.089	864.261
325.227	15.256	1132.534	863.647
326.241	15.165	1132.333	862.952
327.256	15.184	1131.135	862.060
328.270	15.203	1130.091	861.283
329.285	15.274	1129.137	860.846
330.300	15.197	1128.468	859.863
331.314	15.236	1127.262	859.071
332.329	15.256	1126.535	858.544
333.343	15.284	1125.518	857.836
334.358	15.285	1124.960	857.339
335.373	15.378	1124.113	857.090
336.387	15.511	1123.250	857.035
337.402	15.410	1122.611	855.960
338.416	15.442	1121.914	855.512
339.431	15.504	1121.172	855.190
340.446	15.549	1120.585	854.893
341.460	15.603	1119.702	854.420
342.475	15.625	1118.908	853.848
343.489	15.560	1118.096	852.826
344.504	15.681	1117.128	852.623
345.519	15.707	1116.354	852.091
346.533	15.770	1115.708	851.841
347.548	15.782	1114.551	850.944
348.562	15.740	1113.958	850.204
349.577	15.707	1113.043	849.262
350.592	15.667	1112.305	848.423
351.606	15.728	1111.360	847.935
352.621	15.618	1110.667	846.776
353.635	15.641	1110.237	846.492
354.650	15.653	1109.355	845.801
355.665	15.697	1108.437	845.247
356.679	15.633	1108.332	844.771
357.694	15.642	1107.890	844.404
358.708	15.622	1107.297	843.779
359.723	15.770	1106.408	843.768
360.738	15.867	1105.267	843.308
361.752	15.741	1105.122	842.492
362.767	15.838	1104.250	842.240
363.781	15.771	1103.835	841.514
364.796	15.843	1103.269	841.368
365.810	15.983	1102.455	841.372
366.825	16.008	1102.035	841.103
367.840	15.986	1101.340	840.385
368.854	16.120	1100.598	840.416
369.869	16.078	1100.260	839.872
370.883	16.055	1099.224	838.893
371.898	16.044	1098.397	838.131
372.913	16.062	1097.932	837.795
373.927	16.045	1097.439	837.260
374.942	16.151	1096.782	837.207
375.956	16.109	1096.802	836.940
376.971	16.195	1095.869	836.583
377.986	16.074	1095.439	835.578
379.000	16.196	1094.755	835.591
380.015	16.157	1093.971	834.721
381.029	16.352	1093.553	835.297
382.044	16.253	1092.733	834.105
383.059	16.235	1092.040	833.412
384.073	16.148	1091.186	832.258
385.088	16.305	1090.513	832.446
386.102	16.230	1089.579	831.291
387.117	16.245	1088.344	830.347
388.132	16.283	1087.199	829.591
389.146	16.229	1086.696	828.868
390.161	16.311	1085.808	828.518
391.175	16.278	1085.134	827.767
392.190	16.272	1084.643	827.292
393.205	16.378	1084.051	827.285
394.219	16.352	1082.897	826.207
395.234	16.493	1081.732	825.933
396.248	16.271	1081.042	824.249
397.263	16.295	1080.336	823.752
398.278	16.245	1079.800	823.030
399.292	16.197	1079.036	822.139
400.307	16.190	1078.342	821.501
401.321	16.282	1077.447	821.198
402.336	16.306	1076.758	820.716
403.350	16.401	1075.556	820.186
404.365	16.492	1074.982	820.116
405.380	16.495	1074.308	819.546
406.394	16.495	1073.623	818.951
407.409	16.543	1073.311	818.875
408.423	16.524	1072.566	818.138
409.438	16.659	1071.441	817.864
410.453	16.713	1070.654	817.449
411.467	16.706	1070.180	816.981
412.482	16.660	1069.485	816.155
413.496	16.669	1069.111	815.844
414.511	16.633	1068.231	814.926
415.526	16.814	1067.486	815.155
416.540	16.777	1067.685	815.060
417.555	16.764	1066.830	814.272
418.569	16.852	1066.176	814.124
419.584	16.772	1065.951	813.493
420.599	16.920	1064.755	813.221
421.613	80.653	1288.330	1338.994
422.628	74.509	1320.912	1339.126
