DTS Sentinel unit serial number:	SN413079Multiplexer serial number:	ORYXHardware model number:	OX4-SRSoftware version number:	ORYX F/W v4.00 Oryx Data Collector v3.7.2.0data status	okinstallation	princeton_trtdifferential loss correction	single-endedforward channel	channel 2reverse channel	N/Adate	2019/09/12time	14:01:10forward acquisition time	60.00reverse acquisition time	0.00gamma	496.2192k internal	0.2300k external	0.2300temperature offset calibration	1.0084default loss term (dB/km)	0.3790temperature slope calibration	1.0000multiplexer offset coefficient	1.0000multiplexer slope coefficient	1.0000fibre end	0.00T internal ref (°C)	40.56T ext. ref 1 (°C)	2.19T ext. ref 2 (°C)	34.17length (m)	temperature (°C)	Stokes	anti-Stokes-747.200	-200.000	0.064	0.321
-746.185	72.024	-0.203	0.216
-745.171	-200.000	0.031	-0.157
-744.156	-162.537	-0.336	0.017
-743.142	247.957	0.119	-0.205
-742.127	-200.000	-0.069	0.365
-741.112	-14.408	0.182	-0.120
-740.098	238.600	-0.087	0.147
-739.083	-53.301	-0.185	0.086
-738.069	-200.000	-0.066	0.424
-737.054	-200.000	-0.171	0.000
-736.039	545.193	-0.038	-0.093
-735.025	-63.789	0.190	0.079
-734.010	-21.504	0.203	0.126
-732.996	-200.000	0.005	0.269
-731.981	-74.941	0.093	0.034
-730.966	-200.000	-0.073	-0.326
-729.952	95.274	0.219	-0.254
-728.937	-200.000	0.057	-0.256
-727.923	-21.602	-0.248	-0.154
-726.908	99.395	-0.111	0.131
-725.894	11.213	-0.144	0.112
-724.879	221.094	-0.113	0.185
-723.864	-5.138	-0.038	-0.026
-722.850	-130.705	0.378	0.052
-721.835	-102.638	-0.225	-0.055
-720.821	25.620	0.060	-0.051
-719.806	-87.279	0.178	-0.055
-718.791	-175.904	0.210	-0.006
-717.777	190.315	-0.175	-0.268
-716.762	14.437	0.276	-0.220
-715.748	-135.667	-0.396	0.048
-714.733	35.989	0.140	-0.126
-713.718	105.142	-0.152	-0.183
-712.704	-200.000	0.040	0.420
-711.689	-77.904	-0.013	-0.005
-710.675	180.896	-0.168	0.251
-709.660	-7.829	-0.102	-0.070
-708.645	216.884	0.140	0.227
-707.631	-200.000	-0.002	-0.196
-706.616	-0.377	-0.052	-0.037
-705.602	-200.000	0.052	0.243
-704.587	-61.446	-0.180	-0.077
-703.572	34.209	0.061	-0.055
-702.558	251.439	-0.180	-0.312
-701.543	-200.000	-0.014	-0.271
-700.529	184.013	-0.037	-0.055
-699.514	72.266	-0.091	0.097
-698.499	-153.822	0.184	-0.013
-697.485	-83.179	0.063	-0.021
-696.470	-3.821	0.383	-0.271
-695.456	800.000	-0.045	-0.140
-694.441	338.677	0.167	-0.331
-693.426	-200.000	-0.034	0.182
-692.412	172.045	0.061	0.090
-691.397	-42.318	-0.326	0.169
-690.383	-29.372	0.111	-0.065
-689.368	-114.568	-0.190	0.037
-688.354	800.000	0.046	0.164
-687.339	800.000	0.021	0.065
-686.324	205.613	0.068	0.107
-685.310	86.522	0.077	0.087
-684.295	-15.816	-0.208	-0.135
-683.281	102.649	0.011	-0.013
-682.266	-200.000	-0.002	0.008
-681.251	-200.000	-0.005	-0.177
-680.237	800.000	-0.061	-0.249
-679.222	-45.917	-0.128	0.064
-678.208	-120.950	-0.133	-0.023
-677.193	-131.570	-0.421	0.056
-676.178	106.698	0.183	0.221
-675.164	-14.978	0.296	-0.193
-674.149	333.569	0.094	0.185
-673.135	-200.000	-0.048	-0.330
-672.120	60.881	0.104	-0.104
-671.105	-4.111	0.239	0.168
-670.091	-23.096	0.053	0.032
-669.076	-75.378	0.270	0.098
-668.062	329.779	-0.175	-0.343
-667.047	800.000	-0.038	-0.145
-666.032	557.124	-0.115	-0.283
-665.018	-200.000	0.012	-0.078
-664.003	-200.000	0.022	-0.484
-662.989	-72.923	-0.132	-0.049
-661.974	-200.000	-0.064	0.287
-660.959	-200.000	-0.015	-0.278
-659.945	228.592	-0.183	0.304
-658.930	168.418	-0.118	0.171
-657.916	-200.000	-0.047	-0.249
-656.901	-129.745	0.249	-0.035
-655.886	-21.616	0.141	-0.088
-654.872	-70.846	-0.133	-0.051
-653.857	-172.423	0.204	-0.007
-652.843	-126.113	0.232	-0.035
-651.828	-146.067	0.156	0.014
-650.814	-200.000	-0.028	0.398
-649.799	54.654	-0.113	0.110
-648.784	23.902	-0.015	-0.013
-647.770	252.363	-0.095	0.164
-646.755	-200.000	-0.017	0.295
-645.741	-200.000	0.011	0.095
-644.726	380.962	-0.054	0.112
-643.711	128.217	0.145	-0.188
-642.697	18.416	-0.113	-0.092
-641.682	217.843	0.019	0.032
-640.668	-157.664	-0.367	-0.022
-639.653	-20.840	0.103	0.064
-638.638	-46.382	0.080	0.040
-637.624	-172.440	0.150	0.005
-636.609	-7.421	-0.256	0.176
-635.595	-65.881	0.120	-0.049
-634.580	57.272	-0.115	-0.114
-633.565	8.141	-0.378	-0.288
-632.551	-99.848	0.382	0.097
-631.536	-38.437	0.380	-0.204
-630.522	484.072	0.083	-0.192
-629.507	163.059	-0.177	0.252
-628.492	-52.868	-0.080	-0.038
-627.478	-200.000	0.026	-0.168
-626.463	-62.280	-0.132	0.056
-625.449	800.000	-0.124	0.356
-624.434	20.207	-0.178	-0.146
-623.419	-62.013	-0.235	0.100
-622.405	-200.000	0.009	0.196
-621.390	800.000	-0.039	0.124
-620.376	17.029	-0.098	-0.079
-619.361	800.000	0.023	-0.077
-618.346	17.057	-0.123	-0.099
-617.332	117.745	-0.215	-0.268
-616.317	-160.700	-0.028	0.002
-615.303	-200.000	-0.010	-0.116
-614.288	90.540	0.127	0.144
-613.273	-200.000	-0.007	-0.072
-612.259	183.872	-0.157	-0.235
-611.244	46.319	0.124	-0.117
-610.230	-200.000	0.013	0.216
-609.215	-88.115	0.198	0.060
-608.201	-114.951	-0.155	-0.030
-607.186	266.331	-0.132	-0.234
-606.171	-64.579	0.340	-0.140
-605.157	-200.000	-0.047	0.217
-604.142	94.401	-0.195	0.225
-603.128	-72.261	-0.081	-0.030
-602.113	401.640	0.034	-0.073
-601.098	-200.000	0.016	-0.101
-600.084	509.561	-0.119	0.281
-599.069	-12.795	0.477	-0.315
-598.055	-86.260	0.285	0.089
-597.040	119.074	0.146	-0.182
-596.025	189.202	0.054	-0.081
-595.011	-200.000	0.003	0.015
-593.996	-149.652	-0.189	0.015
-592.982	-200.000	-0.012	-0.257
-591.967	35.063	0.328	-0.291
-590.952	-77.270	-0.401	-0.142
-589.938	333.374	-0.199	0.389
-588.923	-45.632	-0.047	-0.023
-587.909	42.088	0.302	-0.278
-586.894	159.995	-0.198	0.280
-585.879	-79.030	0.277	-0.095
-584.865	-30.029	0.236	0.136
-583.850	-200.000	-0.015	0.187
-582.836	628.165	-0.100	-0.255
-581.821	249.438	0.160	0.275
-580.806	55.223	-0.180	-0.176
-579.792	-200.000	-0.002	-0.254
-578.777	76.117	-0.147	0.157
-577.763	155.413	0.092	-0.128
-576.748	30.326	0.162	0.140
-575.733	-38.143	0.100	-0.054
-574.719	0.057	0.186	0.134
-573.704	91.092	0.151	-0.172
-572.690	160.373	0.031	-0.043
-571.675	34.671	0.198	0.176
-570.661	-76.636	0.254	-0.090
-569.646	36.380	-0.261	-0.233
-568.631	-24.819	0.071	0.043
-567.617	-9.240	-0.061	0.042
-566.602	-131.758	0.080	0.011
-565.588	800.000	0.101	-0.377
-564.573	384.512	0.145	-0.303
-563.558	-99.655	-0.052	0.013
-562.544	800.000	-0.094	0.344
-561.529	-113.040	0.155	0.031
-560.515	-50.657	0.210	0.100
-559.500	800.000	-0.113	-0.322
-558.485	-200.000	0.011	-0.241
-557.471	128.619	0.150	0.194
-556.456	-179.596	-0.111	0.002
-555.442	-27.276	-0.201	0.118
-554.427	6.639	0.214	-0.161
-553.412	-178.837	0.317	0.007
-552.398	60.026	0.087	-0.087
-551.383	800.000	0.034	-0.110
-550.369	-125.882	0.017	0.003
-549.354	-34.893	0.142	0.079
-548.339	-37.300	-0.268	-0.145
-547.325	786.576	0.086	-0.240
-546.310	193.884	0.078	-0.119
-545.296	-167.190	0.091	0.004
-544.281	-37.722	0.063	0.034
-543.266	-59.621	0.236	-0.102
-542.252	-88.986	-0.269	-0.081
-541.237	-74.565	0.124	0.045
-540.223	274.079	-0.168	-0.301
-539.208	800.000	-0.069	-0.289
-538.193	-11.741	0.209	-0.139
-537.179	236.215	0.088	-0.146
-536.164	-68.908	0.213	0.083
-535.150	167.104	0.223	-0.320
-534.135	360.587	-0.011	0.023
-533.121	-71.168	0.068	0.026
-532.106	142.298	-0.100	0.135
-531.091	-200.000	0.010	0.058
-530.077	-71.296	0.263	-0.100
-529.062	-85.067	-0.387	0.123
-528.048	-68.460	0.111	-0.043
-527.033	-120.553	-0.085	-0.015
-526.018	-66.973	0.230	0.092
-525.004	-26.160	0.302	0.179
-523.989	-130.560	0.357	0.049
-522.975	-124.432	-0.470	-0.074
-521.960	-140.240	-0.121	-0.013
-520.945	800.000	0.075	0.318
-519.931	800.000	-0.106	-0.301
-518.916	198.380	-0.075	0.116
-517.902	-170.005	-0.273	-0.010
-516.887	-200.000	-0.014	0.237
-515.872	339.363	-0.175	0.344
-514.858	-149.952	-0.310	0.024
-513.843	155.839	0.129	-0.180
-512.829	561.312	-0.054	0.133
-511.814	-64.943	-0.036	-0.015
-510.799	-111.651	-0.215	-0.044
-509.785	254.862	-0.156	-0.269
-508.770	-36.051	-0.241	-0.132
-507.756	-124.425	-0.358	-0.056
-506.741	154.935	0.118	-0.164
-505.726	-200.000	0.031	0.289
-504.712	197.565	0.055	-0.085
-503.697	-133.456	-0.357	-0.045
-502.683	-200.000	-0.025	-0.131
-501.668	141.533	0.069	-0.093
-500.653	-200.000	0.009	-0.177
-499.639	211.272	0.035	0.056
-498.624	-105.947	-0.482	-0.110
-497.610	-200.000	-0.005	0.331
-496.595	800.000	-0.051	0.155
-495.581	361.477	0.131	0.266
-494.566	800.000	0.046	0.130
-493.551	-100.775	0.204	0.051
-492.537	-111.322	0.168	-0.035
-491.522	-200.000	0.044	0.280
-490.508	-101.770	0.239	-0.058
-489.493	-200.000	0.058	-0.399
-488.478	-36.536	-0.175	0.095
-487.464	-68.757	0.267	0.104
-486.449	-150.667	-0.339	-0.026
-485.435	222.137	0.200	0.325
-484.420	248.781	0.197	-0.336
-483.405	-96.884	0.082	0.022
-482.391	261.634	-0.057	-0.100
-481.376	-200.000	-0.003	-0.224
-480.362	440.374	-0.025	-0.056
-479.347	589.454	-0.088	0.218
-478.332	-200.000	-0.045	-0.365
-477.318	-110.564	-0.195	-0.041
-476.303	-200.000	-0.011	0.229
-475.289	-138.872	0.414	0.045
-474.274	-137.272	0.222	-0.025
-473.259	291.026	-0.053	0.097
-472.245	-134.311	0.190	-0.024
-471.230	183.911	0.062	-0.093
-470.216	-27.615	-0.124	-0.073
-469.201	-84.054	-0.300	-0.096
-468.186	58.748	0.127	-0.126
-467.172	-116.955	-0.289	0.053
-466.157	57.949	-0.164	0.162
-465.143	-19.436	-0.143	-0.089
-464.128	307.115	-0.061	0.114
-463.113	106.388	0.247	-0.295
-462.099	639.279	-0.027	0.068
-461.084	-18.942	0.169	0.106
-460.070	158.612	-0.161	0.225
-459.055	-200.000	0.021	-0.321
-458.040	-153.192	0.090	-0.006
-457.026	309.693	-0.027	0.052
-456.011	800.000	-0.027	-0.082
-454.997	-143.646	-0.188	-0.018
-453.982	34.950	-0.074	-0.066
-452.968	31.810	0.158	-0.138
-451.953	310.716	-0.098	0.184
-450.938	-36.623	-0.070	-0.038
-449.924	352.389	0.076	-0.151
-448.909	-200.000	-0.079	-0.419
-447.895	314.065	0.121	0.229
-446.880	-151.994	0.523	-0.038
-445.865	130.161	-0.139	-0.180
-444.851	80.961	-0.226	0.246
-443.836	323.050	-0.198	-0.380
-442.822	-200.000	-0.028	0.239
-441.807	141.008	-0.189	-0.253
-440.792	799.828	-0.174	0.484
-439.778	90.684	0.189	0.214
-438.763	-7.904	0.119	0.081
-437.749	109.305	-0.205	0.247
-436.734	-4.594	0.084	-0.059
-435.719	-15.958	-0.048	-0.031
-434.705	-183.608	0.158	-0.003
-433.690	-187.964	0.308	0.004
-432.676	-86.647	-0.284	0.088
-431.661	-22.858	-0.142	0.087
-430.646	-200.000	0.021	0.251
-429.632	-200.000	-0.033	-0.265
-428.617	-91.490	0.203	0.058
-427.603	-200.000	-0.003	-0.336
-426.588	309.042	-0.034	-0.064
-425.573	-122.840	0.036	-0.006
-424.559	-144.869	0.229	-0.021
-423.544	42.701	0.194	0.178
-422.530	100.358	-0.075	-0.088
-421.515	-37.680	-0.019	0.010
-420.500	-26.589	0.269	0.159
-419.486	-93.153	0.542	-0.152
-418.471	99.333	-0.297	-0.346
-417.457	-200.000	0.046	-0.227
-416.442	-200.000	-0.033	0.177
-415.428	800.000	-0.027	-0.082
-414.413	60.328	-0.257	-0.256
-413.398	-199.137	-0.086	0.000
-412.384	162.447	0.085	-0.120
-411.369	-200.000	0.055	0.286
-410.355	-26.872	-0.016	0.010
-409.340	38.573	0.027	-0.024
-408.325	211.606	-0.137	-0.217
-407.311	240.652	-0.191	-0.321
-406.296	123.373	0.298	0.376
-405.282	-200.000	0.001	-0.308
-404.267	-121.891	-0.160	-0.027
-403.252	323.516	-0.127	-0.243
-402.238	235.027	0.153	-0.254
-401.223	-200.000	-0.016	0.098
-400.209	-97.913	0.205	0.053
-399.194	102.243	-0.227	0.266
-398.179	34.770	0.275	0.242
-397.165	13.801	-0.331	-0.259
-396.150	-103.757	-0.219	0.052
-395.136	550.978	0.187	0.452
-394.121	-65.394	0.179	0.072
-393.106	-200.000	0.053	-0.365
-392.092	310.835	0.032	0.060
-391.077	36.879	-0.100	0.089
-390.063	148.640	0.102	-0.139
-389.048	-200.000	-0.041	0.208
-388.033	-37.830	0.203	0.109
-387.019	-161.786	-0.069	-0.004
-386.004	-12.622	0.228	0.149
-384.990	-65.754	0.076	0.030
-383.975	271.019	-0.094	0.166
-382.960	151.788	0.088	-0.120
-381.946	-71.425	0.058	-0.022
-380.931	8.562	-0.183	-0.138
-379.917	39.226	-0.082	-0.074
-378.902	-60.164	0.152	-0.065
-377.888	258.958	-0.147	-0.254
-376.873	-82.784	0.530	0.172
-375.858	-200.000	-0.007	0.084
-374.844	254.915	0.111	-0.190
-373.829	362.042	0.071	-0.142
-372.815	80.924	-0.176	-0.190
-371.800	-71.975	-0.397	-0.149
-370.785	-60.712	-0.304	0.130
-369.771	159.771	-0.095	-0.133
-368.756	-150.082	0.327	0.026
-367.742	-95.610	-0.404	0.109
-366.727	574.851	-0.040	0.098
-365.712	800.000	-0.032	0.088
-364.698	-128.726	-0.175	0.025
-363.683	202.249	-0.032	0.050
-362.669	-23.789	0.323	0.194
-361.654	-185.924	-0.283	-0.004
-360.639	52.423	-0.259	0.248
-359.625	69.902	0.176	-0.183
-358.610	-50.045	0.086	-0.041
-357.596	150.670	0.224	0.305
-356.581	-76.682	0.370	0.130
-355.566	-200.000	0.016	-0.283
-354.552	796.056	-0.076	0.212
-353.537	-28.146	-0.027	0.016
-352.523	-49.920	0.198	-0.095
-351.508	-91.295	-0.241	0.069
-350.493	-121.674	-0.154	-0.026
-349.479	-35.475	-0.181	-0.099
-348.464	573.837	-0.074	0.181
-347.450	-200.000	-0.019	0.263
-346.435	-174.270	-0.183	-0.005
-345.420	-200.000	-0.049	0.436
-344.406	2.206	0.123	-0.089
-343.391	-200.000	0.008	0.067
-342.377	137.391	-0.041	0.054
-341.362	144.933	-0.169	0.227
-340.348	-111.654	0.162	-0.033
-339.333	190.049	0.194	-0.292
-338.318	-51.494	-0.383	0.179
-337.304	-200.000	-0.024	-0.125
-336.289	-80.313	0.343	-0.115
-335.275	6.496	0.181	0.135
-334.260	396.183	0.118	-0.248
-333.245	151.185	0.039	0.054
-332.231	369.499	0.026	0.052
-331.216	-200.000	0.000	0.032
-330.202	-16.749	-0.061	0.039
-329.187	-97.075	-0.211	0.055
-328.172	164.450	-0.043	0.061
-327.158	-200.000	0.070	-0.420
-326.143	558.160	0.084	0.204
-325.129	-71.846	0.338	0.126
-324.114	-200.000	-0.014	0.253
-323.099	314.064	-0.041	0.078
-322.085	11.273	-0.089	0.069
-321.070	166.280	0.066	-0.093
-320.056	194.951	-0.064	-0.097
-319.041	211.775	0.045	0.071
-318.026	278.415	0.123	0.219
-317.012	-72.054	-0.181	0.067
-315.997	-66.194	-0.157	-0.063
-314.983	-101.827	-0.041	-0.010
-313.968	646.332	0.111	-0.284
-312.953	-200.000	0.050	-0.277
-311.939	389.353	-0.112	0.233
-310.924	37.358	-0.083	0.074
-309.910	227.449	-0.039	0.063
-308.895	32.093	-0.236	0.204
-307.880	-200.000	0.023	0.355
-306.866	137.626	-0.079	-0.104
-305.851	-200.000	-0.037	-0.181
-304.837	-18.045	-0.347	-0.218
-303.822	226.370	-0.175	0.285
-302.807	56.079	0.241	0.234
-301.793	408.314	-0.048	0.101
-300.778	-143.434	-0.320	-0.031
-299.764	253.931	-0.148	-0.253
-298.749	-25.315	-0.297	-0.176
-297.735	800.000	0.068	-0.205
-296.720	120.831	0.044	-0.055
-295.705	-108.779	-0.142	0.031
-294.691	800.000	0.056	-0.202
-293.676	-200.000	0.008	0.133
-292.662	-200.000	0.003	-0.070
-291.647	-132.701	0.060	0.008
-290.632	-200.000	0.018	0.244
-289.618	800.000	-0.096	0.278
-288.603	800.000	-0.124	-0.381
-287.589	800.000	-0.076	-0.213
-286.574	439.123	0.227	0.496
-285.559	-200.000	-0.030	0.168
-284.545	-113.214	0.346	0.068
-283.530	67.225	-0.223	0.228
-282.516	438.455	0.086	0.189
-281.501	22.037	0.284	0.232
-280.486	25.100	0.195	0.162
-279.472	89.114	-0.049	0.055
-278.457	-10.187	0.120	-0.080
-277.443	167.099	-0.182	0.258
-276.428	110.725	0.117	0.141
-275.413	-131.252	0.227	0.030
-274.399	-41.318	0.063	-0.033
-273.384	-200.000	0.042	-0.339
-272.370	-29.898	0.211	-0.120
-271.355	166.711	-0.132	-0.187
-270.340	55.323	-0.288	0.279
-269.326	538.348	0.142	-0.338
-268.311	-61.783	-0.166	-0.070
-267.297	-71.366	0.036	-0.013
-266.282	-19.929	-0.106	0.065
-265.267	667.651	0.047	-0.122
-264.253	46.235	-0.117	-0.109
-263.238	800.000	0.099	0.363
-262.224	-16.580	-0.097	-0.062
-261.209	229.043	-0.106	-0.173
-260.195	167.228	-0.160	0.228
-259.180	313.316	-0.136	-0.256
-258.165	-200.000	0.032	0.207
-257.151	-144.379	-0.316	0.029
-256.136	-200.000	0.019	0.196
-255.122	800.000	0.013	0.045
-254.107	800.000	0.056	-0.196
-253.092	-72.199	0.278	-0.103
-252.078	-200.000	0.030	-0.140
-251.063	256.122	0.136	0.234
-250.049	334.017	0.176	-0.341
-249.034	64.548	0.080	-0.081
-248.019	-200.000	0.011	0.248
-247.005	-148.882	-0.104	-0.008
-245.990	516.116	-0.033	-0.077
-244.976	800.000	-0.071	-0.295
-243.961	95.532	-0.159	-0.181
-242.946	15.340	-0.338	0.265
-241.932	-200.000	0.007	-0.033
-240.917	-78.284	0.297	-0.102
-239.903	-18.332	-0.073	-0.046
-238.888	-52.961	-0.081	0.037
-237.873	-5.255	-0.228	-0.157
-236.859	-158.193	-0.267	0.016
-235.844	110.738	0.132	-0.159
-234.830	599.690	-0.029	0.072
-233.815	800.000	-0.046	0.137
-232.800	-143.464	-0.197	0.019
-231.786	57.915	0.158	-0.154
-230.771	-115.249	0.173	0.033
-229.757	-179.901	-0.191	0.004
-228.742	-70.927	0.135	-0.051
-227.727	-200.000	0.005	-0.063
-226.713	111.279	-0.137	0.164
-225.698	-133.427	-0.377	-0.047
-224.684	-200.000	-0.010	-0.114
-223.669	170.496	-0.291	-0.416
-222.655	148.137	0.011	-0.015
-221.640	215.827	-0.028	-0.045
-220.625	-149.916	-0.253	0.020
-219.611	-110.728	0.310	-0.064
-218.596	-55.334	-0.044	0.020
-217.582	79.967	0.307	-0.330
-216.567	-200.000	0.070	0.417
-215.552	-30.648	-0.259	0.146
-214.538	-65.622	0.211	-0.085
-213.523	207.562	0.113	0.177
-212.509	-83.243	0.222	-0.071
-211.494	-138.144	-0.199	0.022
-210.479	461.330	-0.076	-0.169
-209.465	197.990	-0.166	0.254
-208.450	544.074	0.054	-0.130
-207.436	-6.032	0.050	0.034
-206.421	239.053	0.189	-0.314
-205.406	-180.376	0.231	-0.005
-204.392	10.458	0.200	-0.152
-203.377	6.778	0.168	0.125
-202.363	800.000	0.082	0.233
-201.348	96.763	-0.066	-0.075
-200.333	-191.175	0.160	0.002
-199.319	800.000	-0.111	-0.339
-198.304	109.112	0.072	0.085
-197.290	-112.686	-0.102	0.020
-196.275	-200.000	0.005	0.167
-195.260	800.000	-0.057	0.214
-194.246	-171.398	0.177	-0.006
-193.231	-60.512	0.319	0.135
-192.217	-59.747	-0.294	-0.126
-191.202	215.687	-0.138	0.219
-190.187	-57.519	0.173	-0.076
-189.173	800.000	0.092	0.274
-188.158	-64.374	0.240	-0.098
-187.144	51.960	-0.162	0.154
-186.129	-152.108	-0.158	0.011
-185.114	800.000	-0.044	0.172
-184.100	315.419	-0.173	0.326
-183.085	-90.189	-0.415	0.120
-182.071	800.000	0.054	0.188
-181.056	19.040	0.187	-0.150
-180.042	-200.000	0.015	0.092
-179.027	19.342	0.134	-0.108
-178.012	-200.000	0.004	0.097
-176.998	-85.497	0.260	0.081
-175.983	8.394	-0.098	0.073
-174.969	273.048	0.114	0.201
-173.954	800.000	-0.066	-0.244
-172.939	-48.085	-0.070	-0.034
-171.925	163.404	-0.197	0.276
-170.910	800.000	-0.030	0.104
-169.896	-200.000	0.010	0.169
-168.881	-140.162	0.005	0.001
-167.866	-200.000	-0.017	-0.389
-166.852	1.146	0.144	-0.103
-165.837	484.012	-0.030	-0.068
-164.823	-132.735	0.245	0.031
-163.808	-179.653	0.282	0.006
-162.793	-151.354	0.147	-0.011
-161.779	-200.000	0.024	0.286
-160.764	800.000	-0.078	0.239
-159.750	-177.165	-0.251	0.006
-158.735	731.218	-0.085	0.226
-157.720	19.703	0.377	0.302
-156.706	313.370	-0.127	0.239
-155.691	800.000	0.076	0.277
-154.677	32.625	0.143	-0.123
-153.662	384.211	-0.069	-0.141
-152.647	0.175	-0.283	-0.201
-151.633	402.149	0.111	-0.231
-150.618	-90.810	0.187	-0.054
-149.604	-96.338	0.164	0.043
-148.589	222.725	-0.142	-0.228
-147.574	621.453	-0.013	-0.032
-146.560	21.919	0.148	-0.120
-145.545	386.866	-0.042	-0.086
-144.531	-169.734	-0.048	0.002
-143.516	84.457	-0.098	0.107
-142.502	128.283	0.305	0.387
-141.487	-200.000	0.007	0.410
-140.472	-29.757	0.132	0.075
-139.458	-200.000	-0.018	0.457
-138.443	626.886	0.046	0.115
-137.429	65.761	0.088	-0.089
-136.414	281.506	-0.179	0.320
-135.399	291.908	-0.027	-0.048
-134.385	-200.000	0.034	0.169
-133.370	-107.590	-0.016	0.004
-132.356	-200.000	-0.029	-0.309
-131.341	-101.869	0.176	-0.042
-130.326	288.992	-0.091	-0.165
-129.312	-108.819	0.117	0.025
-128.297	-62.714	0.167	-0.069
-127.283	-125.709	0.407	0.061
-126.268	15.687	-0.277	0.217
-125.253	-200.000	-0.088	0.424
-124.239	-153.098	-0.082	0.006
-123.224	72.818	-0.012	-0.012
-122.210	-167.256	0.315	0.013
-121.195	228.192	-0.094	0.153
-120.180	-183.538	-0.074	0.001
-119.166	192.549	0.080	-0.121
-118.151	-39.449	-0.212	-0.110
-117.137	109.933	0.191	-0.229
-116.122	0.804	-0.284	-0.202
-115.107	715.356	-0.047	-0.125
-114.093	-65.219	0.108	0.043
-113.078	40.568	0.182	0.163
-112.064	-22.412	0.017	-0.010
-111.049	-45.434	0.160	-0.079
-110.034	98.334	0.229	0.263
-109.020	-119.942	-0.307	0.053
-108.005	-200.000	-0.048	-0.251
-106.991	324.188	-0.033	0.062
-105.976	800.000	-0.047	0.158
-104.962	43.067	0.343	0.312
-103.947	254.784	-0.109	0.186
-102.932	-66.371	-0.440	0.174
-101.918	-133.534	-0.289	0.036
-100.903	35.118	0.113	-0.099
-99.889	800.000	0.031	-0.106
-98.874	-200.000	0.039	0.342
-97.859	4.309	0.123	-0.090
-96.845	341.221	0.168	-0.327
-95.830	-91.776	0.182	-0.051
-94.816	16.716	-0.107	-0.084
-93.801	-9.275	-0.076	-0.050
-92.786	120.321	-0.148	0.182
-91.772	800.000	-0.083	0.265
-90.757	-119.089	0.217	0.038
-89.743	-200.000	-0.017	-0.182
-88.728	-126.116	-0.277	-0.041
-87.713	-200.000	0.009	-0.110
-86.699	800.000	0.076	0.213
-85.684	-200.000	0.045	0.223
-84.670	-63.902	0.429	0.175
-83.655	668.865	-0.032	-0.082
-82.640	756.908	-0.048	-0.130
-81.626	789.203	-0.052	0.142
-80.611	800.000	0.036	-0.147
-79.597	164.632	0.209	0.294
-78.582	-118.730	0.168	0.029
-77.567	-77.392	0.151	-0.052
-76.553	263.729	-0.079	0.137
-75.538	800.000	0.106	-0.399
-74.524	-65.572	0.143	-0.057
-73.509	800.000	-0.048	-0.137
-72.494	-90.277	-0.082	0.024
-71.480	275.494	0.087	-0.154
-70.465	800.000	0.085	-0.243
-69.451	-158.767	0.111	-0.006
-68.436	-44.985	-0.088	0.044
-67.422	-76.626	-0.173	0.060
-66.407	-200.000	-0.039	-0.238
-65.392	-118.158	0.098	0.017
-64.378	-114.092	-0.234	-0.045
-63.363	86.277	-0.041	0.044
-62.349	275.182	-0.151	0.265
-61.334	394.587	-0.636	-1.317
-60.319	90.161	0.162	0.180
-59.305	800.000	-0.178	-0.675
-58.290	178.901	0.288	0.417
-57.276	422.364	0.696	1.485
-56.261	-200.000	77.786	514.435
-55.246	516.235	1329.653	3085.050
-54.232	148.251	2560.906	3431.642
-53.217	109.763	2343.551	2789.734
-52.203	49.690	1960.565	1833.703
-51.188	43.814	1749.373	1590.149
-50.173	40.970	1704.561	1527.547
-49.159	55.491	1739.718	1671.695
-48.144	60.732	1757.860	1729.571
-47.130	43.757	1722.162	1564.723
-46.115	40.692	1707.930	1528.181
-45.100	40.463	1703.323	1522.240
-44.086	40.483	1700.872	1520.142
-43.071	40.464	1698.602	1517.910
-42.057	40.351	1695.985	1514.646
-41.042	40.461	1693.894	1513.557
-40.027	40.505	1692.218	1512.333
-39.013	40.425	1690.983	1510.560
-37.998	40.447	1689.017	1508.913
-36.984	40.475	1687.963	1508.128
-35.969	40.493	1686.438	1506.836
-34.954	40.624	1684.075	1505.665
-33.940	40.513	1682.404	1503.268
-32.925	40.536	1680.404	1501.593
-31.911	40.513	1678.946	1500.057
-30.896	40.473	1677.281	1498.212
-29.881	40.626	1674.971	1497.243
-28.867	40.604	1673.440	1495.646
-27.852	40.546	1672.696	1494.482
-26.838	40.515	1671.227	1492.879
-25.823	40.591	1669.751	1492.074
-24.809	40.564	1668.419	1490.619
-23.794	40.588	1666.391	1488.933
-22.779	40.588	1665.164	1487.777
-21.765	40.590	1663.629	1486.363
-20.750	40.584	1661.372	1484.237
-19.736	40.611	1660.724	1483.806
-18.721	40.568	1659.196	1482.061
-17.706	40.708	1657.338	1481.387
-16.692	40.590	1656.008	1479.255
-15.677	40.592	1654.543	1477.906
-14.663	40.663	1653.091	1477.077
-13.648	40.592	1652.066	1475.577
-12.633	40.524	1650.644	1473.744
-11.619	40.624	1648.467	1472.479
-10.604	40.595	1647.285	1471.153
-9.590	40.616	1645.598	1469.744
-8.575	40.603	1644.316	1468.445
-7.560	40.671	1643.276	1467.960
-6.546	40.552	1642.172	1466.034
-5.531	40.574	1641.021	1465.108
-4.517	40.548	1639.651	1463.642
-3.502	40.516	1639.179	1462.922
-2.487	40.632	1636.575	1461.398
-1.473	40.228	1625.093	1448.133
-0.458	37.131	1604.096	1406.952
0.556	33.160	1602.260	1367.043
1.571	30.282	1626.357	1366.322
2.586	29.484	1640.642	1372.271
3.600	25.719	1585.391	1298.837
4.615	14.221	1466.209	1123.890
5.629	4.049	1393.444	1002.445
6.644	2.374	1383.265	984.265
7.659	2.212	1381.622	981.965
8.673	2.143	1380.590	980.705
9.688	2.032	1379.183	978.903
10.702	1.786	1376.241	975.154
11.717	5.594	1383.717	1004.841
12.731	16.506	1405.361	1091.253
13.746	25.132	1420.559	1158.973
14.761	26.798	1421.653	1170.528
15.775	27.144	1421.180	1172.271
16.790	27.040	1421.069	1171.402
17.804	27.144	1420.148	1171.210
18.819	27.383	1419.975	1172.504
19.834	27.515	1419.081	1172.510
20.848	27.477	1418.344	1171.553
21.863	27.422	1418.043	1170.848
22.877	27.414	1416.761	1169.633
23.892	27.422	1415.793	1168.782
24.907	27.422	1415.020	1168.039
25.921	27.424	1414.178	1167.254
26.936	27.448	1413.153	1166.457
27.950	27.495	1411.455	1165.256
28.965	27.519	1410.630	1164.623
29.980	27.491	1409.513	1163.422
30.994	27.420	1408.278	1161.846
32.009	27.479	1407.052	1161.108
33.023	27.472	1406.176	1160.239
34.038	27.443	1404.921	1158.914
35.053	27.490	1403.989	1158.339
36.067	27.570	1402.594	1157.597
37.082	27.431	1402.144	1156.241
38.096	27.458	1401.125	1155.471
39.111	27.386	1400.268	1154.201
40.126	27.415	1399.906	1153.985
41.140	27.456	1399.682	1153.959
42.155	27.358	1399.072	1152.735
43.169	27.497	1398.666	1153.181
44.184	27.489	1398.464	1152.859
45.199	27.386	1398.148	1151.847
46.213	27.527	1397.235	1151.879
47.228	27.448	1396.702	1150.843
48.242	27.444	1395.346	1149.600
49.257	27.464	1393.625	1148.204
50.271	27.449	1392.101	1146.754
51.286	27.383	1391.212	1145.504
52.301	27.361	1390.054	1144.309
53.315	27.435	1388.803	1143.643
54.330	27.494	1387.744	1143.039
55.344	27.441	1386.734	1141.777
56.359	27.377	1385.966	1140.642
57.374	27.441	1384.677	1139.877
58.388	27.427	1384.382	1139.450
59.403	27.447	1383.505	1138.752
60.417	27.390	1383.336	1138.152
61.432	27.438	1382.832	1137.941
62.447	27.358	1382.201	1136.818
63.461	27.385	1380.633	1135.595
64.476	27.458	1379.110	1134.700
65.490	27.457	1378.279	1133.907
66.505	27.356	1377.068	1132.184
67.520	27.350	1375.887	1131.078
68.534	27.451	1374.760	1130.676
69.549	27.581	1373.603	1130.428
70.563	27.559	1372.283	1129.111
71.578	27.450	1371.731	1127.878
72.593	27.409	1371.002	1126.927
73.607	27.455	1370.589	1126.772
74.622	27.498	1369.509	1126.052
75.636	27.477	1368.990	1125.396
76.651	27.461	1368.055	1124.426
77.666	27.385	1368.042	1123.847
78.680	27.346	1367.464	1123.034
79.695	27.387	1366.709	1122.569
80.709	27.457	1365.571	1121.964
81.724	27.495	1364.928	1121.568
82.739	27.407	1363.596	1119.831
83.753	27.393	1362.731	1118.939
84.768	27.461	1361.434	1118.194
85.782	27.402	1360.611	1117.053
86.797	27.465	1359.382	1116.335
87.812	27.553	1358.122	1115.738
88.826	27.548	1357.270	1114.913
89.841	27.552	1355.987	1113.782
90.855	27.386	1355.523	1112.289
91.870	27.613	1353.967	1112.300
92.884	27.495	1353.580	1111.159
93.899	27.509	1352.620	1110.361
94.914	27.457	1352.083	1109.506
95.928	27.440	1351.451	1108.782
96.943	27.520	1349.984	1107.969
97.957	27.534	1349.999	1107.971
98.972	27.532	1348.720	1106.809
99.987	27.511	1347.778	1105.809
101.001	27.553	1346.682	1105.066
102.016	27.564	1346.034	1104.504
103.030	27.504	1345.188	1103.347
104.045	27.492	1344.306	1102.457
105.060	27.548	1343.178	1101.770
106.074	27.440	1342.292	1100.294
107.089	27.590	1340.729	1099.820
108.103	27.515	1340.241	1098.875
109.118	27.559	1338.853	1097.903
110.133	27.460	1337.858	1096.391
111.147	27.638	1336.603	1096.335
112.162	27.603	1335.391	1095.036
113.176	27.524	1334.708	1093.905
114.191	27.468	1334.131	1093.001
115.206	27.443	1333.201	1091.989
116.220	27.511	1331.932	1091.261
117.235	27.513	1331.091	1090.486
118.249	27.516	1330.091	1089.591
119.264	27.560	1328.926	1088.806
120.279	27.524	1328.387	1088.049
121.293	27.645	1327.392	1087.864
122.308	27.552	1326.774	1086.706
123.322	27.571	1326.056	1086.135
124.337	27.655	1324.836	1085.537
125.352	27.546	1324.525	1084.541
126.366	27.637	1323.560	1084.192
127.381	27.712	1322.488	1083.662
128.395	27.662	1321.701	1082.624
129.410	27.630	1320.766	1081.576
130.424	27.667	1320.016	1081.084
131.439	27.755	1318.994	1080.672
132.454	27.647	1318.394	1079.445
133.468	27.719	1317.567	1079.101
134.483	27.714	1317.366	1078.810
135.497	27.523	1316.892	1077.198
136.512	27.598	1315.518	1076.419
137.527	27.707	1314.393	1076.050
138.541	27.682	1313.086	1074.737
139.556	27.626	1311.940	1073.370
140.570	27.628	1311.424	1072.869
141.585	27.691	1309.550	1071.610
142.600	27.752	1308.555	1071.057
143.614	27.572	1308.313	1069.707
144.629	27.642	1306.935	1068.901
145.643	27.488	1306.208	1067.305
146.658	27.496	1305.000	1066.275
147.673	27.606	1304.305	1066.256
148.687	27.574	1303.111	1064.994
149.702	27.530	1301.723	1063.508
150.716	27.461	1300.772	1062.240
151.731	27.481	1299.751	1061.426
152.746	27.574	1298.831	1061.123
153.760	27.616	1297.771	1060.409
154.775	27.589	1296.806	1059.366
155.789	27.622	1296.048	1058.845
156.804	27.527	1295.286	1057.579
157.819	27.587	1294.038	1056.816
158.833	27.545	1293.170	1055.767
159.848	27.502	1293.015	1055.298
160.862	27.613	1292.024	1055.038
161.877	27.592	1291.008	1053.994
162.892	27.661	1290.363	1053.774
163.906	27.647	1290.027	1053.329
164.921	27.620	1289.129	1052.343
165.935	27.690	1288.112	1051.824
166.950	27.662	1287.384	1050.976
167.964	27.635	1287.121	1050.510
168.979	27.792	1285.970	1050.384
169.994	27.631	1286.249	1049.593
171.008	27.700	1284.921	1048.810
172.023	27.803	1283.947	1048.515
173.037	27.807	1283.674	1048.222
174.052	27.832	1282.507	1047.320
175.067	27.818	1281.452	1046.285
176.081	27.842	1280.795	1045.793
177.096	27.664	1280.632	1044.552
178.110	27.740	1279.156	1043.687
179.125	27.745	1277.888	1042.588
180.140	27.747	1277.183	1041.933
181.154	27.707	1276.375	1040.955
182.169	27.825	1274.819	1040.263
183.183	27.724	1274.262	1039.143
184.198	27.895	1272.687	1038.737
185.213	27.853	1271.859	1037.735
186.227	27.875	1270.894	1036.980
187.242	27.794	1270.379	1036.009
188.256	27.769	1269.599	1035.141
189.271	27.827	1268.674	1034.620
190.286	27.905	1267.743	1034.210
191.300	27.764	1267.452	1033.082
192.315	27.686	1266.986	1032.173
193.329	27.780	1266.755	1032.421
194.344	27.783	1266.258	1031.942
195.359	27.864	1265.747	1031.895
196.373	27.712	1265.222	1030.517
197.388	27.773	1264.746	1030.384
198.402	27.716	1264.502	1029.769
199.417	27.834	1263.603	1029.610
200.432	27.697	1263.816	1028.920
201.446	27.788	1262.825	1028.539
202.461	27.881	1261.664	1028.027
203.475	27.921	1261.060	1027.664
204.490	27.810	1260.038	1026.120
205.504	27.912	1258.683	1025.495
206.519	27.867	1258.223	1024.780
207.534	27.846	1256.977	1023.553
208.548	27.835	1256.287	1022.844
209.563	27.855	1255.350	1022.100
210.577	27.867	1255.160	1021.923
211.592	27.898	1253.963	1021.031
212.607	27.956	1252.909	1020.405
213.621	27.903	1252.449	1019.644
214.636	27.872	1251.842	1018.888
215.650	27.941	1251.036	1018.525
216.665	27.956	1249.893	1017.590
217.680	27.916	1249.105	1016.637
218.694	27.985	1247.978	1016.014
219.709	28.015	1247.658	1015.825
220.723	27.909	1247.090	1014.687
221.738	27.869	1246.075	1013.546
222.753	27.820	1245.295	1012.552
223.767	27.920	1244.544	1012.408
224.782	27.853	1244.319	1011.760
225.796	28.080	1243.737	1012.454
226.811	28.057	1242.846	1011.516
227.826	28.026	1242.717	1011.151
228.840	28.097	1241.596	1010.541
229.855	27.992	1241.599	1009.872
230.869	28.129	1240.228	1009.422
231.884	28.033	1239.727	1008.398
232.899	27.962	1238.944	1007.282
233.913	28.095	1238.224	1007.336
234.928	28.031	1238.225	1006.898
235.942	28.063	1237.463	1006.365
236.957	28.060	1236.651	1005.597
237.972	28.079	1235.901	1005.005
238.986	28.023	1235.700	1004.446
240.001	28.131	1234.608	1004.058
241.015	28.199	1233.890	1003.760
242.030	28.217	1233.355	1003.338
243.045	28.230	1231.932	1002.163
244.059	28.209	1231.284	1001.430
245.074	28.203	1230.673	1000.810
246.088	28.186	1229.740	999.874
247.103	28.233	1228.991	999.433
248.117	28.201	1228.555	998.811
249.132	28.273	1227.404	998.183
250.147	28.250	1226.946	997.596
251.161	28.318	1226.015	997.122
252.176	28.216	1225.843	996.339
253.190	28.261	1224.836	995.673
254.205	28.335	1224.214	995.485
255.220	28.343	1223.312	994.704
256.234	28.290	1222.978	994.058
257.249	28.256	1222.511	993.403
258.263	28.335	1221.812	993.179
259.278	28.271	1221.493	992.484
260.293	28.133	1221.167	991.385
261.307	28.256	1220.474	991.400
262.322	28.340	1219.625	991.078
263.336	28.331	1218.650	990.146
264.351	28.410	1217.761	989.765
265.366	28.281	1217.971	989.152
266.380	28.414	1216.770	988.803
267.395	28.285	1216.366	987.693
268.409	28.375	1215.277	987.210
269.424	28.377	1214.822	986.758
270.439	28.327	1214.847	986.424
271.453	28.339	1213.976	985.695
272.468	28.330	1213.374	985.069
273.482	28.347	1212.314	984.217
274.497	28.513	1211.864	984.654
275.512	28.435	1211.758	984.060
276.526	28.401	1210.860	983.060
277.541	28.495	1210.022	982.800
278.555	28.506	1209.386	982.257
279.570	28.461	1208.622	981.304
280.585	28.417	1207.816	980.327
281.599	28.491	1206.653	979.695
282.614	28.525	1205.655	978.976
283.628	28.439	1205.391	978.216
284.643	28.441	1204.905	977.746
285.657	28.442	1203.753	976.732
286.672	28.388	1202.904	975.667
287.687	28.601	1201.609	975.664
288.701	28.519	1201.298	974.891
289.716	28.582	1200.378	974.390
290.730	28.571	1199.930	973.884
291.745	28.602	1198.900	973.125
292.760	28.671	1198.432	973.029
293.774	28.640	1198.143	972.541
294.789	28.494	1197.856	971.448
295.803	28.558	1197.324	971.273
296.818	28.612	1196.384	970.706
297.833	28.742	1195.425	970.531
298.847	28.764	1194.798	970.051
299.862	28.637	1194.362	968.943
300.876	28.731	1193.102	968.328
301.891	28.706	1193.123	968.129
302.906	28.688	1192.321	967.299
303.920	28.692	1191.583	966.632
304.935	28.739	1191.456	966.690
305.949	28.872	1190.014	966.138
306.964	28.789	1189.643	965.312
307.979	28.816	1188.756	964.650
308.993	28.666	1188.714	963.742
310.008	28.817	1187.423	963.404
311.022	28.758	1186.721	962.440
312.037	28.762	1185.783	961.612
313.052	28.735	1185.486	961.148
314.066	28.744	1184.270	960.122
315.081	28.805	1183.482	959.719
316.095	28.743	1183.342	959.196
317.110	28.829	1182.746	959.077
318.125	28.780	1181.827	957.990
319.139	28.872	1180.979	957.698
320.154	28.872	1180.155	956.945
321.168	28.775	1180.248	956.429
322.183	28.833	1179.360	955.930
323.197	28.883	1178.513	955.419
324.212	28.864	1178.043	954.854
325.227	28.849	1178.050	954.695
326.241	28.834	1177.512	954.097
327.256	28.827	1176.391	953.067
328.270	28.893	1175.573	952.662
329.285	28.982	1174.682	952.317
330.300	28.955	1173.626	951.240
331.314	28.944	1173.014	950.601
332.329	29.130	1172.109	950.745
333.343	29.151	1171.351	950.153
334.358	29.082	1170.677	949.167
335.373	29.108	1169.941	948.620
336.387	29.121	1169.592	948.319
337.402	28.988	1168.997	947.066
338.416	29.069	1168.484	946.985
339.431	29.031	1167.879	946.219
340.446	29.169	1166.915	946.061
341.460	29.163	1166.538	945.639
342.475	29.076	1165.539	944.300
343.489	29.084	1164.801	943.660
344.504	29.187	1163.387	942.960
345.519	29.171	1162.695	942.232
346.533	29.095	1162.102	941.279
347.548	29.282	1161.299	941.503
348.562	29.163	1160.550	940.206
349.577	29.125	1159.846	939.356
350.592	29.127	1158.967	938.572
351.606	29.163	1158.413	938.221
352.621	29.150	1158.091	937.813
353.635	29.214	1157.344	937.453
354.650	29.309	1156.417	937.101
355.665	29.257	1155.936	936.361
356.679	29.423	1155.086	936.436
357.694	29.316	1154.661	935.464
358.708	29.306	1154.530	935.226
359.723	29.275	1153.343	934.023
360.738	29.278	1152.660	933.405
361.752	29.215	1152.296	932.707
362.767	29.360	1151.683	932.859
363.781	29.388	1151.316	932.623
364.796	29.373	1150.487	931.795
365.810	29.265	1149.929	930.712
366.825	29.339	1149.348	930.536
367.840	29.374	1148.891	930.260
368.854	29.494	1148.288	930.293
369.869	29.428	1147.540	929.273
370.883	29.391	1147.128	928.671
371.898	29.408	1146.210	927.932
372.913	29.426	1145.240	927.155
373.927	29.565	1144.741	927.365
374.942	29.636	1144.206	927.205
375.956	29.581	1143.840	926.550
376.971	29.368	1143.567	925.179
377.986	29.535	1142.796	925.309
379.000	29.450	1142.517	924.580
380.015	29.557	1141.894	924.528
381.029	29.510	1141.504	923.895
382.044	29.483	1140.652	922.989
383.059	29.513	1140.022	922.548
384.073	29.626	1138.943	922.154
385.088	29.653	1137.918	921.378
386.102	29.652	1137.163	920.682
387.117	29.680	1136.320	920.054
388.132	29.588	1135.635	918.964
389.146	29.642	1134.750	918.434
390.161	29.571	1134.771	918.017
391.175	29.673	1133.650	917.532
392.190	29.725	1133.109	917.274
393.205	29.661	1132.253	916.181
394.219	29.681	1131.654	915.717
395.234	29.699	1130.843	915.068
396.248	29.761	1130.022	914.627
397.263	29.758	1129.385	914.018
398.278	29.849	1128.596	913.746
399.292	29.728	1128.031	912.611
400.307	29.837	1127.405	912.564
401.321	29.712	1126.813	911.389
402.336	29.814	1126.523	911.572
403.350	29.717	1125.850	910.472
404.365	29.777	1125.084	910.065
405.380	29.926	1123.927	909.780
406.394	29.872	1123.822	909.353
407.409	29.903	1122.917	908.690
408.423	29.979	1121.705	908.003
409.438	29.908	1121.346	907.285
410.453	29.889	1120.907	906.756
411.467	29.990	1119.792	906.265
412.482	29.962	1119.118	905.504
413.496	29.944	1118.470	904.814
414.511	29.914	1117.936	904.153
415.526	30.018	1117.658	904.356
416.540	30.061	1117.117	904.049
417.555	30.053	1116.249	903.229
418.569	30.128	1115.986	903.302
419.584	30.058	1115.632	902.595
420.599	30.074	1115.043	902.112
421.613	89.999	1305.534	1383.559
422.628	84.542	1333.295	1383.706
