DTS Sentinel unit serial number:	SN413079Multiplexer serial number:	ORYXHardware model number:	OX4-SRSoftware version number:	ORYX F/W v4.00 Oryx Data Collector v3.7.2.0data status	okinstallation	princeton_trtdifferential loss correction	single-endedforward channel	channel 2reverse channel	N/Adate	2019/09/12time	00:05:11forward acquisition time	60.00reverse acquisition time	0.00gamma	496.2192k internal	0.2325k external	0.2325temperature offset calibration	1.0083default loss term (dB/km)	0.3790temperature slope calibration	1.0000multiplexer offset coefficient	1.0000multiplexer slope coefficient	1.0000fibre end	0.00T internal ref (°C)	33.69T ext. ref 1 (°C)	1.99T ext. ref 2 (°C)	28.17length (m)	temperature (°C)	Stokes	anti-Stokes-747.200	26.023	0.032	-0.027
-746.185	-200.000	0.036	0.192
-745.171	800.000	0.064	0.276
-744.156	308.513	-0.055	-0.104
-743.142	-195.389	0.249	0.002
-742.127	85.014	0.123	-0.136
-741.112	-98.744	0.105	0.027
-740.098	-135.810	-0.097	-0.012
-739.083	-74.121	0.060	-0.022
-738.069	-200.000	-0.045	0.542
-737.054	177.969	0.083	0.122
-736.039	134.692	0.254	0.333
-735.025	-40.603	0.397	0.208
-734.010	-200.000	-0.340	0.000
-732.996	376.614	-0.182	-0.375
-731.981	281.396	0.128	-0.231
-730.966	67.955	-0.195	-0.201
-729.952	-106.530	0.238	0.054
-728.937	321.083	0.081	0.155
-727.923	-5.233	-0.295	0.205
-726.908	-200.000	0.010	-0.409
-725.894	800.000	0.072	-0.278
-724.879	-200.000	0.011	-0.058
-723.864	80.690	-0.158	-0.172
-722.850	182.886	0.159	-0.236
-721.835	-85.605	-0.342	-0.107
-720.821	800.000	0.046	-0.183
-719.806	800.000	0.033	-0.109
-718.791	-3.332	-0.185	-0.130
-717.777	465.743	-0.036	0.081
-716.762	-200.000	0.025	-0.257
-715.748	-125.323	-0.145	-0.022
-714.733	161.498	-0.161	-0.226
-713.718	-200.000	0.045	0.254
-712.704	355.949	0.083	-0.166
-711.689	20.741	-0.112	-0.091
-710.675	-138.489	0.132	-0.015
-709.660	-5.828	0.342	-0.236
-708.645	15.617	-0.272	-0.215
-707.631	800.000	0.024	0.099
-706.616	209.279	-0.126	-0.199
-705.602	419.249	-0.048	-0.103
-704.587	-173.874	0.411	-0.012
-703.572	-187.315	-0.369	-0.005
-702.558	-14.931	0.287	0.185
-701.543	-101.491	-0.298	-0.073
-700.529	-200.000	-0.015	-0.133
-699.514	18.660	-0.038	0.031
-698.499	800.000	-0.052	-0.195
-697.485	-200.000	0.001	-0.452
-696.470	-73.257	-0.321	0.118
-695.456	-171.244	0.105	-0.004
-694.441	-31.868	0.036	-0.021
-693.426	-53.523	-0.166	-0.076
-692.412	-4.382	-0.347	0.242
-691.397	363.929	-0.042	-0.085
-690.383	258.258	0.158	0.273
-689.368	467.380	0.034	0.077
-688.354	-82.055	0.217	-0.071
-687.339	213.796	-0.162	0.258
-686.324	89.735	-0.201	0.226
-685.310	-200.000	0.009	-0.231
-684.295	56.047	-0.072	0.071
-683.281	-44.003	-0.022	0.011
-682.266	800.000	0.143	-0.444
-681.251	52.460	-0.066	0.063
-680.237	800.000	-0.049	0.190
-679.222	223.131	-0.077	-0.125
-678.208	195.941	-0.212	-0.325
-677.193	267.420	-0.127	0.224
-676.178	97.380	0.137	0.159
-675.164	-200.000	-0.037	0.210
-674.149	800.000	0.060	0.248
-673.135	-3.447	0.273	0.191
-672.120	288.393	-0.165	-0.301
-671.105	-200.000	0.024	-0.324
-670.091	17.913	-0.055	0.044
-669.076	-200.000	0.020	0.222
-668.062	67.765	0.048	0.049
-667.047	-200.000	-0.016	0.077
-666.032	-167.178	-0.198	0.008
-665.018	-72.448	0.074	0.027
-664.003	-97.873	-0.189	-0.049
-662.989	-8.626	-0.232	-0.157
-661.974	-200.000	-0.005	-0.024
-660.959	-200.000	0.009	-0.199
-659.945	212.172	0.195	-0.310
-658.930	172.601	0.146	-0.212
-657.916	-129.612	-0.013	-0.002
-656.901	-200.000	0.027	-0.237
-655.886	226.987	-0.073	-0.118
-654.872	-128.327	-0.112	-0.016
-653.857	-200.000	0.028	-0.234
-652.843	-200.000	0.002	-0.307
-651.828	800.000	0.041	-0.129
-650.814	41.820	0.107	0.097
-649.799	-90.813	-0.165	-0.048
-648.784	481.496	0.187	0.427
-647.770	698.104	0.078	-0.205
-646.755	23.561	0.348	-0.288
-645.741	-200.000	0.078	0.379
-644.726	-49.531	0.373	0.179
-643.711	-31.610	-0.366	0.207
-642.697	-177.970	0.155	0.004
-641.682	-69.508	-0.187	0.072
-640.668	168.620	-0.162	0.232
-639.653	-200.000	-0.005	0.112
-638.638	-72.516	0.100	0.037
-637.624	40.506	0.152	-0.137
-636.609	800.000	0.114	-0.479
-635.595	-200.000	-0.016	-0.088
-634.580	-101.812	0.174	-0.042
-633.565	-200.000	-0.019	-0.091
-632.551	71.086	0.098	-0.102
-631.536	-121.940	-0.076	-0.013
-630.522	531.959	-0.132	-0.313
-629.507	-126.007	0.469	-0.071
-628.492	-200.000	-0.024	0.118
-627.478	-71.101	-0.266	0.100
-626.463	147.546	0.180	-0.244
-625.449	800.000	0.039	0.108
-624.434	-23.097	0.219	-0.133
-623.419	-79.244	0.344	-0.117
-622.405	-48.927	-0.121	-0.058
-621.390	800.000	0.113	-0.316
-620.376	800.000	0.074	0.286
-619.361	142.339	-0.178	-0.237
-618.346	-93.065	-0.189	0.053
-617.332	-114.223	0.439	-0.085
-616.317	-74.772	0.097	0.035
-615.303	-17.896	0.266	0.168
-614.288	-200.000	0.001	-0.040
-613.273	-200.000	0.069	-0.323
-612.259	75.984	-0.117	0.124
-611.244	-200.000	0.033	0.289
-610.230	-36.545	-0.108	-0.058
-609.215	-65.383	0.237	-0.096
-608.201	288.561	0.080	0.146
-607.186	-77.324	-0.174	0.061
-606.171	492.255	0.081	-0.185
-605.157	620.549	-0.069	-0.174
-604.142	97.071	-0.159	-0.182
-603.128	-144.205	0.104	-0.010
-602.113	345.665	-0.117	-0.230
-601.098	-56.894	-0.106	-0.047
-600.084	-200.000	-0.025	-0.231
-599.069	-187.116	0.372	-0.005
-598.055	-122.130	0.206	-0.034
-597.040	540.489	0.081	-0.193
-596.025	84.938	0.118	-0.130
-595.011	-200.000	0.024	-0.200
-593.996	168.804	0.175	0.251
-592.982	-114.029	-0.397	0.077
-591.967	-88.200	0.311	0.093
-590.952	208.550	-0.103	0.162
-589.938	83.582	-0.064	-0.070
-588.923	-200.000	-0.005	-0.037
-587.909	-81.180	-0.312	0.103
-586.894	224.090	-0.082	0.132
-585.879	340.652	0.057	0.111
-584.865	-36.669	0.201	0.108
-583.850	-95.790	0.043	0.012
-582.836	-106.086	0.252	0.057
-581.821	113.959	-0.190	-0.231
-580.806	-20.139	0.090	0.055
-579.792	269.586	-0.107	0.188
-578.777	800.000	0.080	-0.264
-577.763	94.840	-0.018	-0.021
-576.748	38.796	-0.132	-0.118
-575.733	-123.230	0.012	0.002
-574.719	15.413	0.045	-0.036
-573.704	-33.428	0.250	0.138
-572.690	276.112	0.156	-0.277
-571.675	-103.407	0.176	-0.042
-570.661	800.000	-0.087	-0.255
-569.646	800.000	-0.045	0.192
-568.631	-160.424	0.225	0.012
-567.617	85.438	-0.157	0.173
-566.602	800.000	-0.113	0.403
-565.588	800.000	0.106	0.312
-564.573	-23.206	-0.285	-0.172
-563.558	164.738	-0.104	0.147
-562.544	255.658	-0.082	-0.141
-561.529	-77.492	-0.228	0.079
-560.515	800.000	-0.010	-0.031
-559.500	800.000	-0.114	-0.329
-558.485	38.879	0.216	0.193
-557.471	98.618	0.320	-0.370
-556.456	800.000	0.069	0.220
-555.442	121.965	0.123	-0.154
-554.427	0.047	0.097	-0.070
-553.412	-20.938	-0.258	-0.158
-552.398	-104.437	-0.164	0.038
-551.383	-60.822	0.081	-0.034
-550.369	16.681	0.167	0.132
-549.354	257.669	-0.182	0.313
-548.339	-138.752	-0.406	-0.044
-547.325	800.000	-0.041	0.116
-546.310	-200.000	-0.030	-0.284
-545.296	-67.279	0.151	0.059
-544.281	-107.072	-0.170	0.038
-543.266	-52.223	-0.196	-0.091
-542.252	-200.000	-0.004	0.074
-541.237	-200.000	-0.044	0.199
-540.223	-57.959	0.238	0.104
-539.208	800.000	0.121	0.362
-538.193	405.857	-0.028	0.059
-537.179	259.461	-0.065	-0.113
-536.164	-34.502	-0.228	0.125
-535.150	-64.769	0.354	0.143
-534.135	-13.463	-0.134	-0.087
-533.121	-200.000	-0.009	-0.106
-532.106	-109.850	-0.229	-0.048
-531.091	73.898	-0.241	0.253
-530.077	301.326	0.152	0.281
-529.062	19.618	0.262	-0.211
-528.048	72.221	0.148	-0.154
-527.033	-170.800	-0.207	-0.007
-526.018	-2.995	-0.259	0.181
-525.004	-12.454	-0.068	-0.044
-523.989	359.714	0.287	-0.574
-522.975	109.194	0.066	-0.080
-521.960	-170.264	0.132	-0.005
-520.945	-200.000	-0.024	-0.159
-519.931	-130.132	-0.084	-0.011
-518.916	48.640	-0.332	0.311
-517.902	180.840	-0.121	-0.177
-516.887	-128.748	0.175	0.025
-515.872	36.007	0.109	-0.096
-514.858	745.991	0.117	0.315
-513.843	-0.893	0.099	-0.070
-512.829	-31.591	-0.235	-0.132
-511.814	192.991	-0.086	0.129
-510.799	-200.000	0.032	0.156
-509.785	514.733	-0.058	0.135
-508.770	-152.281	-0.481	0.035
-507.756	480.150	-0.068	-0.154
-506.741	65.832	-0.071	-0.072
-505.726	-200.000	0.017	-0.130
-504.712	67.062	-0.193	-0.197
-503.697	-67.547	0.157	0.062
-502.683	449.490	-0.041	-0.090
-501.668	85.633	0.169	0.186
-500.653	-75.188	-0.197	0.070
-499.639	171.233	-0.098	-0.140
-498.624	35.203	0.207	-0.181
-497.610	21.871	-0.257	-0.209
-496.595	-7.616	-0.048	-0.033
-495.581	-155.379	0.477	-0.031
-494.566	-14.082	0.327	-0.211
-493.551	800.000	0.025	0.099
-492.537	-86.871	0.102	0.031
-491.522	-72.002	-0.141	0.052
-490.508	-162.613	-0.314	-0.015
-489.493	28.904	-0.070	-0.059
-488.478	-200.000	-0.041	0.331
-487.464	800.000	-0.103	0.395
-486.449	66.951	0.147	0.150
-485.435	395.963	0.200	0.417
-484.420	800.000	-0.049	-0.201
-483.405	-30.411	-0.413	-0.234
-482.391	610.891	0.026	-0.066
-481.376	-97.502	0.243	-0.063
-480.362	-189.263	-0.215	0.003
-479.347	96.714	-0.093	0.106
-478.332	-200.000	0.028	-0.280
-477.318	85.223	-0.159	-0.174
-476.303	-146.653	0.261	0.023
-475.289	52.824	-0.033	0.032
-474.274	339.518	-0.108	0.210
-473.259	24.143	-0.118	-0.097
-472.245	-70.225	-0.161	0.061
-471.230	-8.149	-0.111	0.074
-470.216	-200.000	0.040	0.287
-469.201	-200.000	-0.010	0.055
-468.186	86.102	-0.179	-0.197
-467.172	-103.319	-0.138	-0.032
-466.157	-16.362	-0.224	-0.142
-465.143	78.553	-0.133	0.142
-464.128	305.906	-0.086	0.159
-463.113	-200.000	0.060	0.433
-462.099	-58.584	-0.297	0.129
-461.084	-200.000	0.000	0.048
-460.070	0.000	0.193	-0.137
-459.055	573.031	0.133	-0.324
-458.040	800.000	-0.064	-0.242
-457.026	245.500	-0.111	0.187
-456.011	-5.202	0.091	0.063
-454.997	-15.424	0.293	-0.187
-453.982	171.759	-0.144	-0.206
-452.968	-200.000	-0.020	0.147
-451.953	-200.000	-0.016	0.244
-450.938	84.694	0.187	0.204
-449.924	-200.000	0.079	-0.466
-448.909	-200.000	0.019	-0.201
-447.895	-35.001	-0.230	-0.125
-446.880	-6.291	0.217	0.148
-445.865	144.267	0.121	0.161
-444.851	-112.279	-0.206	-0.041
-443.836	-102.635	0.251	-0.060
-442.822	464.327	0.026	-0.057
-441.807	-172.665	0.351	0.011
-440.792	-132.414	-0.388	-0.050
-439.778	-162.214	-0.354	-0.018
-438.763	-200.000	-0.010	-0.135
-437.749	-89.281	0.108	-0.032
-436.734	156.313	-0.160	0.220
-435.719	-110.733	0.183	-0.038
-434.705	37.658	-0.075	-0.067
-433.690	325.793	0.127	0.243
-432.676	-88.615	0.212	0.063
-431.661	-135.824	0.252	-0.030
-430.646	-200.000	-0.017	0.259
-429.632	-200.000	0.013	-0.169
-428.617	-37.815	0.109	-0.058
-427.603	800.000	-0.015	0.046
-426.588	274.377	-0.113	-0.199
-425.573	-102.506	-0.112	0.027
-424.559	-16.132	0.244	-0.155
-423.544	-77.825	-0.244	0.084
-422.530	-140.455	-0.428	-0.044
-421.515	-115.212	0.405	-0.076
-420.500	-200.000	0.004	-0.083
-419.486	-200.000	0.033	0.182
-418.471	126.497	0.136	0.171
-417.457	186.602	-0.156	-0.231
-416.442	133.723	0.037	-0.048
-415.428	401.460	0.169	-0.353
-414.413	779.821	0.014	0.037
-413.398	105.208	-0.089	0.105
-412.384	-111.937	-0.386	0.078
-411.369	186.770	0.133	-0.197
-410.355	800.000	0.038	-0.154
-409.340	660.549	-0.034	-0.087
-408.325	139.128	0.142	-0.186
-407.311	561.020	0.091	-0.218
-406.296	800.000	-0.066	-0.223
-405.282	-200.000	-0.028	-0.288
-404.267	133.668	0.152	-0.196
-403.252	-108.790	0.303	-0.065
-402.238	-168.067	-0.166	-0.006
-401.223	-125.094	-0.221	0.034
-400.209	800.000	0.050	0.166
-399.194	-22.145	0.316	0.191
-398.179	-5.674	-0.312	0.213
-397.165	800.000	-0.083	0.256
-396.150	105.700	-0.105	-0.124
-395.136	16.719	-0.081	-0.063
-394.121	-200.000	-0.003	0.172
-393.106	436.649	-0.045	0.098
-392.092	800.000	-0.036	-0.128
-391.077	587.943	0.114	-0.279
-390.063	-37.617	-0.254	-0.135
-389.048	334.597	0.119	0.229
-388.033	44.342	-0.198	-0.181
-387.019	111.751	0.301	-0.362
-386.004	-97.239	-0.140	0.036
-384.990	13.345	-0.203	0.156
-383.975	141.971	0.229	-0.302
-382.960	97.545	-0.069	-0.079
-381.946	-19.749	0.197	0.121
-380.931	-2.573	-0.204	0.142
-379.917	85.359	0.002	0.002
-378.902	197.859	-0.048	0.073
-377.888	-200.000	-0.320	0.000
-376.873	-139.893	0.123	0.013
-375.858	800.000	-0.023	0.094
-374.844	-72.732	0.159	0.058
-373.829	800.000	0.073	0.201
-372.815	-12.225	-0.149	-0.097
-371.800	-200.000	-0.063	0.283
-370.785	-79.828	0.418	0.140
-369.771	-200.000	0.025	-0.118
-368.756	507.921	0.051	0.119
-367.742	43.874	-0.070	0.064
-366.727	-121.242	0.052	0.009
-365.712	-200.000	-0.028	0.243
-364.698	464.390	-0.071	-0.157
-363.683	58.693	0.069	-0.067
-362.669	252.214	0.097	-0.165
-361.654	227.996	0.168	0.272
-360.639	800.000	0.033	0.107
-359.625	-32.959	-0.285	-0.157
-358.610	800.000	-0.047	0.160
-357.596	110.375	0.198	-0.236
-356.581	50.395	-0.347	0.326
-355.566	-78.836	-0.198	0.067
-354.552	392.910	0.079	-0.162
-353.537	-92.718	-0.062	0.017
-352.523	2.897	0.103	-0.074
-351.508	-200.000	-0.027	0.266
-350.493	-115.004	-0.240	0.045
-349.479	-135.283	-0.079	0.009
-348.464	244.052	-0.059	-0.099
-347.450	-72.071	0.165	0.061
-346.435	35.163	0.086	-0.075
-345.420	-71.246	-0.121	-0.045
-344.406	-200.000	-0.019	0.218
-343.391	159.005	0.145	-0.200
-342.377	-71.210	-0.174	0.065
-341.362	525.887	-0.083	0.195
-340.348	108.832	0.157	0.187
-339.333	362.019	0.044	-0.088
-338.318	-126.602	-0.301	-0.044
-337.304	-137.015	0.260	0.030
-336.289	-141.462	-0.072	0.007
-335.275	20.592	0.272	0.218
-334.260	-126.514	-0.189	-0.028
-333.245	101.300	0.123	0.142
-332.231	-200.000	0.044	0.276
-331.216	800.000	-0.084	0.249
-330.202	690.078	-0.034	0.090
-329.187	158.108	0.138	0.190
-328.172	-200.000	0.021	-0.216
-327.158	-200.000	-0.013	-0.109
-326.143	-82.626	-0.113	-0.036
-325.129	490.945	-0.060	0.136
-324.114	25.738	0.286	0.236
-323.099	-142.291	-0.365	-0.036
-322.085	-85.040	0.268	-0.083
-321.070	800.000	0.017	0.065
-320.056	-168.627	-0.232	0.009
-319.041	-177.397	0.337	0.008
-318.026	4.093	0.147	-0.107
-317.012	-51.895	-0.149	-0.069
-315.997	509.331	0.080	0.185
-314.983	-24.402	-0.022	0.013
-313.968	55.011	0.163	0.156
-312.953	-186.616	-0.153	-0.002
-311.939	-200.000	0.016	0.110
-310.924	-64.029	-0.395	-0.160
-309.910	-200.000	-0.002	0.154
-308.895	226.510	-0.096	0.154
-307.880	72.880	-0.089	0.092
-306.866	363.132	-0.103	-0.205
-305.851	-130.960	0.358	-0.047
-304.837	800.000	0.099	0.413
-303.822	-47.769	-0.022	-0.010
-302.807	19.435	-0.232	0.185
-301.793	142.348	0.049	-0.064
-300.778	651.827	-0.039	0.098
-299.764	23.970	-0.393	-0.321
-298.749	-200.000	0.042	-0.292
-297.735	67.886	-0.120	-0.122
-296.720	-115.400	-0.150	-0.028
-295.705	24.983	-0.088	-0.073
-294.691	4.363	-0.302	0.220
-293.676	214.663	-0.108	-0.170
-292.662	34.246	0.107	-0.093
-291.647	-200.000	-0.025	-0.353
-290.632	511.974	0.059	-0.135
-289.618	-19.575	-0.194	0.119
-288.603	240.940	-0.155	-0.256
-287.589	-200.000	-0.014	-0.104
-286.574	-16.403	0.183	0.115
-285.559	20.127	-0.213	0.170
-284.545	-200.000	-0.022	-0.142
-283.530	183.798	-0.206	0.302
-282.516	141.225	0.037	0.049
-281.501	800.000	0.070	-0.262
-280.486	-200.000	-0.030	-0.147
-279.472	146.512	-0.171	-0.228
-278.457	682.960	0.066	0.170
-277.443	-200.000	0.002	-0.166
-276.428	-200.000	-0.028	-0.258
-275.413	-15.708	0.287	-0.181
-274.399	-112.187	0.373	-0.074
-273.384	19.440	0.103	0.082
-272.370	656.224	-0.013	0.032
-271.355	-55.282	0.075	-0.034
-270.340	68.238	-0.048	-0.049
-269.326	800.000	-0.090	0.382
-268.311	474.466	-0.101	0.226
-267.297	-200.000	-0.009	0.073
-266.282	-200.000	-0.019	0.082
-265.267	800.000	-0.084	-0.271
-264.253	-200.000	-0.015	0.403
-263.238	-93.468	0.377	-0.103
-262.224	435.777	-0.103	0.221
-261.209	-41.399	-0.235	-0.120
-260.195	54.405	0.051	-0.049
-259.180	503.000	0.176	0.404
-258.165	23.309	-0.196	0.159
-257.151	-21.585	-0.223	-0.135
-256.136	8.085	-0.232	-0.172
-255.122	553.714	0.071	-0.169
-254.107	385.331	0.156	-0.318
-253.092	24.702	-0.326	-0.267
-252.078	800.000	0.034	-0.143
-251.063	175.314	-0.135	0.193
-250.049	-117.066	0.462	-0.083
-249.034	165.784	0.041	-0.057
-248.019	9.575	0.192	-0.144
-247.005	-200.000	0.063	-0.307
-245.990	-163.187	0.248	-0.012
-244.976	-59.931	-0.095	0.040
-243.961	800.000	-0.030	0.097
-242.946	152.386	-0.027	0.036
-241.932	-57.588	0.170	-0.074
-240.917	313.936	0.138	-0.257
-239.903	800.000	-0.057	0.209
-238.888	-25.725	0.076	0.044
-237.873	29.648	0.157	0.132
-236.859	-200.000	-0.032	0.286
-235.844	800.000	0.182	0.500
-234.830	-13.282	0.194	0.125
-233.815	30.695	0.218	-0.185
-232.800	-36.189	0.045	0.024
-231.786	-200.000	0.011	-0.076
-230.771	-82.348	-0.276	0.089
-229.757	305.175	0.132	-0.242
-228.742	-166.058	-0.173	0.007
-227.727	476.545	0.050	0.113
-226.713	283.276	-0.176	0.312
-225.698	800.000	-0.062	-0.182
-224.684	-71.667	0.203	0.075
-223.669	-123.821	-0.317	0.049
-222.655	-200.000	0.035	0.262
-221.640	-87.089	0.244	0.073
-220.625	371.595	-0.114	-0.229
-219.611	-45.052	0.030	0.015
-218.596	67.579	-0.084	-0.085
-217.582	-33.089	0.127	0.070
-216.567	-102.723	0.276	0.065
-215.552	-54.869	-0.478	-0.213
-214.538	-200.000	0.003	-0.057
-213.523	313.807	-0.036	-0.067
-212.509	-10.193	-0.140	0.092
-211.494	-200.000	0.028	0.132
-210.479	-67.891	-0.313	-0.121
-209.465	182.053	-0.075	0.110
-208.450	-200.000	-0.032	0.201
-207.436	95.000	0.029	-0.032
-206.421	463.857	-0.039	-0.087
-205.406	285.222	0.149	-0.265
-204.392	109.361	0.245	0.290
-203.377	-32.941	-0.397	-0.218
-202.363	208.656	0.181	0.280
-201.348	161.987	0.226	-0.312
-200.333	-200.000	-0.045	-0.357
-199.319	-200.000	0.078	-0.349
-198.304	-200.000	0.004	-0.051
-197.290	-54.315	-0.096	0.043
-196.275	-137.304	-0.285	0.032
-195.260	-177.845	0.254	0.006
-194.246	-55.096	-0.180	-0.080
-193.231	109.759	0.066	0.078
-192.217	-132.882	-0.128	-0.016
-191.202	-72.993	-0.239	0.087
-190.187	2.734	-0.443	0.317
-189.173	-200.000	-0.026	-0.138
-188.158	346.984	-0.050	-0.097
-187.144	341.062	0.157	-0.302
-186.129	-95.976	0.183	0.048
-185.114	-107.408	0.152	0.033
-184.100	482.760	0.109	0.244
-183.085	-200.000	0.014	0.174
-182.071	-200.000	0.031	0.335
-181.056	294.110	0.021	-0.037
-180.042	-76.830	-0.410	0.142
-179.027	40.732	-0.116	0.104
-178.012	-22.091	-0.263	-0.157
-176.998	800.000	0.093	0.294
-175.983	-200.000	0.013	-0.363
-174.969	101.721	-0.073	-0.083
-173.954	-6.272	0.104	-0.070
-172.939	800.000	-0.046	0.182
-171.925	213.510	-0.125	0.195
-170.910	-141.877	-0.138	0.014
-169.896	174.482	0.127	-0.181
-168.881	-200.000	-0.001	0.171
-167.866	-110.773	0.058	0.012
-166.852	22.638	0.297	0.240
-165.837	-64.828	0.409	-0.164
-164.823	-200.000	0.075	-0.340
-163.808	67.541	0.107	-0.108
-162.793	-69.400	0.191	-0.072
-161.779	-200.000	0.034	0.208
-160.764	25.863	-0.228	-0.187
-159.750	89.950	0.269	0.296
-158.735	-200.000	0.045	0.273
-157.720	-99.001	0.215	0.054
-156.706	-200.000	-0.070	0.324
-155.691	-115.456	0.282	-0.052
-154.677	-167.932	0.044	-0.002
-153.662	-200.000	-0.024	0.212
-152.647	-10.592	0.200	-0.131
-151.633	-200.000	-0.040	-0.295
-150.618	-200.000	0.039	-0.396
-149.604	-95.040	0.104	-0.028
-148.589	365.209	-0.206	-0.408
-147.574	174.787	0.063	0.091
-146.560	800.000	-0.073	-0.266
-145.545	18.647	-0.173	-0.136
-144.531	109.164	0.195	0.230
-143.516	-123.955	0.355	-0.055
-142.502	-112.697	0.372	-0.073
-141.487	266.290	-0.022	-0.038
-140.472	396.905	-0.130	-0.268
-139.458	-200.000	0.001	0.083
-138.443	40.278	-0.063	0.056
-137.429	-81.311	-0.099	-0.032
-136.414	-200.000	-0.000	-0.077
-135.399	-16.733	-0.223	0.139
-134.385	84.270	0.260	0.280
-133.370	-47.058	-0.094	0.045
-132.356	-22.676	0.151	0.090
-131.341	75.204	-0.151	-0.157
-130.326	-114.621	-0.105	0.020
-129.312	-200.000	0.023	0.234
-128.297	241.704	0.148	-0.243
-127.283	-79.552	0.415	-0.138
-126.268	-71.981	0.257	-0.094
-125.253	-200.000	-0.018	-0.128
-124.239	-107.498	-0.228	-0.049
-123.224	-200.000	-0.019	-0.130
-122.210	800.000	0.044	-0.171
-121.195	800.000	0.074	0.310
-120.180	313.328	-0.022	-0.041
-119.166	-63.778	0.329	0.133
-118.151	-32.791	-0.218	0.119
-117.137	-82.319	-0.327	-0.105
-116.122	-76.020	0.134	-0.047
-115.107	-124.906	0.121	0.018
-114.093	-200.000	-0.016	-0.177
-113.078	-62.366	-0.271	0.111
-112.064	-119.391	0.122	0.021
-111.049	-4.468	-0.106	0.072
-110.034	148.394	-0.210	-0.280
-109.020	-29.152	0.069	-0.039
-108.005	-154.317	-0.212	0.014
-106.991	-147.135	0.295	0.025
-105.976	-50.302	0.052	-0.024
-104.962	-5.017	0.099	0.067
-103.947	-64.843	-0.320	0.127
-102.932	800.000	-0.013	0.054
-101.918	-101.335	0.143	0.034
-100.903	57.584	0.344	0.331
-99.889	-58.912	0.152	0.065
-98.874	-13.937	0.128	0.081
-97.859	187.453	-0.112	0.164
-96.845	11.835	0.363	-0.274
-95.830	-98.309	-0.317	-0.080
-94.816	17.877	0.144	0.113
-93.801	-178.091	0.131	0.003
-92.786	102.362	0.094	0.108
-91.772	127.930	0.111	0.139
-90.757	-0.221	-0.143	0.100
-89.743	53.441	-0.013	0.013
-88.728	-124.725	0.088	-0.013
-87.713	20.762	-0.142	-0.113
-86.699	-24.391	0.254	-0.149
-85.684	-52.036	0.090	-0.041
-84.670	734.777	-0.124	0.326
-83.655	218.873	-0.166	-0.261
-82.640	38.562	0.171	0.150
-81.626	140.427	0.085	-0.111
-80.611	10.495	-0.284	-0.213
-79.597	648.434	-0.008	-0.019
-78.582	3.658	-0.084	-0.060
-77.567	52.661	0.271	0.255
-76.553	-128.393	-0.098	-0.014
-75.538	-200.000	-0.005	0.189
-74.524	170.966	-0.147	-0.207
-73.509	3.025	0.140	0.100
-72.494	800.000	-0.062	0.245
-71.480	181.037	0.143	0.206
-70.465	-52.400	-0.111	-0.051
-69.451	-82.858	0.245	0.078
-68.436	746.441	0.019	0.050
-67.422	201.743	0.259	0.392
-66.407	-100.273	-0.199	-0.049
-65.392	-53.610	0.358	0.161
-64.378	-158.209	-0.344	0.020
-63.363	-133.715	0.175	-0.021
-62.349	251.848	-0.203	-0.340
-61.334	38.438	-0.831	-0.728
-60.319	-27.473	0.374	0.213
-59.305	800.000	-0.217	-0.834
-58.290	308.733	0.511	0.938
-57.276	324.443	0.856	1.606
-56.261	-200.000	96.840	578.044
-55.246	546.944	1386.841	3259.484
-54.232	155.888	2584.207	3498.761
-53.217	105.676	2275.424	2642.744
-52.203	42.759	1897.377	1697.579
-51.188	36.940	1688.521	1466.777
-50.173	34.180	1644.009	1407.681
-49.159	51.828	1691.083	1580.615
-48.144	53.680	1707.850	1610.097
-47.130	36.573	1666.745	1444.892
-46.115	33.908	1651.748	1412.059
-45.100	33.652	1647.464	1406.444
-44.086	33.554	1645.243	1403.765
-43.071	33.513	1642.456	1401.032
-42.057	33.492	1640.123	1398.827
-41.042	33.563	1637.494	1397.055
-40.027	33.495	1635.632	1394.912
-39.013	33.500	1634.002	1393.504
-37.998	33.492	1632.511	1392.114
-36.984	33.567	1630.908	1391.242
-35.969	33.665	1629.143	1390.404
-34.954	33.739	1627.774	1389.719
-33.940	33.651	1625.832	1387.362
-32.925	33.663	1623.923	1385.768
-31.911	33.667	1622.232	1384.299
-30.896	33.647	1620.959	1383.009
-29.881	33.743	1618.829	1381.840
-28.867	33.666	1617.324	1379.941
-27.852	33.689	1616.070	1378.983
-26.838	33.726	1614.067	1377.482
-25.823	33.706	1612.802	1376.205
-24.809	33.759	1611.079	1375.061
-23.794	33.662	1609.982	1373.368
-22.779	33.693	1608.768	1372.506
-21.765	33.696	1606.669	1370.681
-20.750	33.643	1605.382	1369.146
-19.736	33.692	1604.249	1368.481
-18.721	33.742	1602.612	1367.393
-17.706	33.781	1600.928	1366.179
-16.692	33.759	1599.538	1364.782
-15.677	33.712	1597.899	1362.989
-14.663	33.845	1596.080	1362.342
-13.648	33.653	1595.703	1360.583
-12.633	33.654	1593.904	1359.005
-11.619	33.764	1592.163	1358.257
-10.604	33.793	1590.821	1357.264
-9.590	33.756	1589.441	1355.769
-8.575	33.784	1588.092	1354.763
-7.560	33.745	1586.984	1353.482
-6.546	33.651	1585.702	1351.667
-5.531	33.712	1584.901	1351.367
-4.517	33.729	1583.887	1350.571
-3.502	33.648	1582.991	1349.173
-2.487	33.808	1581.086	1348.635
-1.473	33.448	1569.591	1336.236
-0.458	30.687	1550.943	1301.036
0.556	27.687	1551.612	1271.919
1.571	25.547	1575.873	1276.514
2.586	25.223	1589.740	1285.312
3.600	22.546	1536.545	1223.634
4.615	12.894	1425.036	1072.263
5.629	3.777	1358.126	965.104
6.644	2.141	1349.170	948.497
7.659	2.016	1347.564	946.506
8.673	1.992	1346.409	945.467
9.688	1.822	1345.152	943.443
10.702	1.567	1341.692	939.364
11.717	5.205	1348.504	966.599
12.731	15.508	1368.242	1045.085
13.746	23.954	1382.008	1108.371
14.761	26.040	1384.859	1123.567
15.775	26.349	1385.143	1125.624
16.790	26.365	1384.674	1125.244
17.804	26.513	1383.796	1125.350
18.819	26.721	1383.492	1126.295
19.834	26.793	1382.940	1126.190
20.848	26.759	1382.384	1125.429
21.863	26.852	1381.088	1124.855
22.877	26.756	1380.653	1123.802
23.892	26.809	1379.424	1123.029
24.907	26.772	1378.876	1122.254
25.921	26.818	1377.987	1121.716
26.936	26.805	1377.009	1120.744
27.950	26.789	1376.019	1119.740
28.965	26.804	1374.698	1118.658
29.980	26.682	1373.579	1116.893
30.994	26.773	1372.234	1116.265
32.009	26.723	1371.398	1115.178
33.023	26.762	1369.874	1114.081
34.038	26.894	1368.315	1113.520
35.053	26.873	1367.755	1112.839
36.067	26.822	1366.472	1111.382
37.082	26.803	1365.607	1110.465
38.096	26.794	1365.051	1109.862
39.111	26.856	1364.338	1109.564
40.126	26.743	1363.704	1108.260
41.140	26.815	1362.820	1107.882
42.155	26.847	1362.539	1107.747
43.169	26.845	1362.684	1107.756
44.184	26.694	1362.785	1106.817
45.199	26.788	1362.153	1106.782
46.213	26.842	1361.306	1106.322
47.228	26.876	1360.492	1105.771
48.242	26.806	1359.129	1104.139
49.257	26.835	1357.934	1103.249
50.271	26.805	1356.611	1101.893
51.286	26.835	1355.376	1100.972
52.301	26.706	1354.268	1099.197
53.315	26.738	1353.307	1098.511
54.330	26.736	1352.521	1097.765
55.344	26.732	1351.429	1096.754
56.359	26.736	1350.519	1095.946
57.374	26.680	1349.972	1095.068
58.388	26.779	1348.942	1094.731
59.403	26.837	1348.698	1094.790
60.417	26.762	1347.866	1093.565
61.432	26.828	1347.089	1093.234
62.447	26.770	1346.134	1092.012
63.461	26.851	1344.781	1091.303
64.476	26.805	1344.284	1090.531
65.490	26.837	1342.969	1089.559
66.505	26.807	1341.841	1088.369
67.520	26.838	1340.246	1087.164
68.534	26.827	1339.315	1086.245
69.549	26.726	1338.575	1084.945
70.563	26.874	1337.342	1084.735
71.578	26.696	1336.916	1083.226
72.593	26.803	1335.497	1082.619
73.607	26.887	1334.903	1082.545
74.622	26.781	1334.567	1081.548
75.636	26.822	1333.700	1080.990
76.651	26.709	1333.508	1080.065
77.666	26.723	1333.079	1079.705
78.680	26.748	1332.182	1079.035
79.695	26.781	1331.306	1078.426
80.709	26.720	1330.481	1077.296
81.724	26.824	1329.612	1077.115
82.739	26.825	1328.349	1076.006
83.753	26.787	1327.482	1074.980
84.768	26.801	1326.559	1074.219
85.782	26.748	1325.862	1073.251
86.797	26.780	1324.364	1072.131
87.812	26.805	1322.967	1071.052
88.826	26.786	1322.083	1070.132
89.841	26.817	1321.443	1069.698
90.855	26.880	1320.306	1069.053
91.870	26.882	1319.692	1068.474
92.884	26.900	1318.722	1067.705
93.899	26.860	1318.191	1066.943
94.914	26.822	1317.387	1065.976
95.928	26.848	1316.555	1065.358
96.943	26.844	1315.868	1064.684
97.957	26.946	1314.581	1064.149
98.972	26.875	1314.353	1063.454
99.987	26.855	1313.131	1062.252
101.001	26.811	1312.646	1061.508
102.016	26.852	1311.246	1060.525
103.030	26.821	1310.960	1060.014
104.045	26.802	1309.825	1058.895
105.060	26.854	1308.828	1058.298
106.074	26.873	1307.707	1057.406
107.089	26.882	1306.729	1056.579
108.103	26.911	1305.959	1056.030
109.118	26.870	1305.267	1055.136
110.133	26.982	1303.691	1054.419
111.147	26.882	1302.967	1053.162
112.162	26.872	1301.894	1052.143
113.176	26.912	1300.811	1051.407
114.191	26.938	1299.461	1050.373
115.206	26.842	1298.957	1049.317
116.220	26.922	1297.818	1048.768
117.235	26.972	1296.600	1047.979
118.249	26.842	1296.093	1046.723
119.264	26.989	1295.127	1046.699
120.279	26.940	1294.559	1045.865
121.293	26.979	1293.633	1045.250
122.308	27.008	1292.972	1044.792
123.322	26.977	1291.721	1043.510
124.337	26.949	1291.465	1043.051
125.352	27.058	1290.228	1042.582
126.366	26.924	1289.710	1041.305
127.381	26.991	1288.876	1040.921
128.395	27.051	1287.765	1040.275
129.410	27.031	1286.797	1039.286
130.424	27.018	1286.149	1038.596
131.439	26.963	1285.927	1038.015
132.454	26.974	1284.743	1037.029
133.468	26.947	1284.648	1036.706
134.483	26.957	1283.610	1035.833
135.497	26.987	1283.244	1035.620
136.512	26.979	1281.959	1034.444
137.527	27.069	1280.403	1033.608
138.541	26.955	1279.417	1032.072
139.556	26.952	1278.384	1031.129
140.570	27.011	1277.392	1030.572
141.585	26.914	1276.542	1029.249
142.600	27.028	1274.989	1028.548
143.614	26.948	1274.284	1027.435
144.629	26.944	1273.522	1026.708
145.643	26.913	1272.535	1025.648
146.658	26.803	1271.752	1024.304
147.673	26.881	1270.398	1023.566
148.687	26.960	1269.397	1023.111
149.702	26.783	1268.406	1021.225
150.716	26.933	1267.127	1020.952
151.731	26.913	1266.213	1020.011
152.746	27.063	1265.151	1019.910
153.760	26.949	1264.418	1018.585
154.775	26.955	1263.242	1017.582
155.789	26.991	1262.323	1016.954
156.804	26.945	1261.646	1016.061
157.819	26.953	1261.159	1015.626
158.833	26.931	1260.095	1014.551
159.848	27.093	1259.236	1014.676
160.862	27.079	1258.570	1013.973
161.877	27.154	1258.064	1013.894
162.892	26.964	1257.379	1012.194
163.906	27.056	1256.672	1012.047
164.921	27.070	1255.752	1011.295
165.935	27.150	1254.928	1010.988
166.950	27.000	1254.551	1009.760
167.964	27.170	1253.787	1009.997
168.979	27.057	1253.262	1008.860
169.994	27.150	1252.456	1008.634
171.008	27.145	1251.839	1008.021
172.023	27.100	1251.050	1007.046
173.037	27.043	1250.234	1005.990
174.052	27.090	1249.443	1005.523
175.067	27.054	1248.771	1004.691
176.081	27.182	1248.159	1004.820
177.096	27.107	1247.108	1003.468
178.110	27.098	1246.387	1002.749
179.125	27.117	1244.968	1001.628
180.140	27.119	1244.217	1000.945
181.154	27.037	1243.053	999.469
182.169	27.065	1242.345	998.965
183.183	27.165	1241.135	998.455
184.198	27.197	1239.940	997.578
185.213	27.182	1238.981	996.635
186.227	27.231	1238.546	996.466
187.242	27.214	1237.526	995.467
188.256	27.290	1236.345	994.845
189.271	27.181	1235.938	993.831
190.286	27.223	1235.177	993.359
191.300	27.208	1234.718	992.824
192.315	27.233	1234.169	992.431
193.329	27.297	1233.456	992.119
194.344	27.227	1233.209	991.451
195.359	27.193	1232.814	990.857
196.373	27.011	1232.726	989.706
197.388	27.050	1232.425	989.593
198.402	27.152	1231.936	989.667
199.417	27.144	1231.342	989.055
200.432	27.148	1230.716	988.491
201.446	27.193	1230.266	988.282
202.461	27.177	1229.423	987.432
203.475	27.222	1228.603	986.933
204.490	27.185	1227.612	985.850
205.504	27.126	1226.605	984.629
206.519	27.337	1225.766	985.016
207.534	27.399	1224.216	984.014
208.548	27.268	1223.579	982.709
209.563	27.322	1222.816	982.299
210.577	27.259	1222.403	981.544
211.592	27.288	1221.264	980.699
212.607	27.367	1220.344	980.296
213.621	27.435	1219.801	980.139
214.636	27.393	1219.283	979.412
215.650	27.282	1218.323	977.960
216.665	27.295	1217.369	977.174
217.680	27.279	1216.138	976.015
218.694	27.422	1215.406	976.105
219.709	27.329	1215.078	975.260
220.723	27.289	1214.438	974.443
221.738	27.410	1213.123	973.950
222.753	27.291	1212.940	973.081
223.767	27.431	1211.927	972.930
224.782	27.271	1212.289	972.282
225.796	27.493	1211.369	972.642
226.811	27.386	1210.514	971.298
227.826	27.336	1210.211	970.705
228.840	27.366	1210.240	970.798
229.855	27.380	1208.921	969.727
230.869	27.357	1207.855	968.664
231.884	27.395	1207.289	968.329
232.899	27.475	1206.230	967.819
233.913	27.427	1206.038	967.322
234.928	27.512	1205.598	967.339
235.942	27.661	1204.708	967.326
236.957	27.314	1204.583	965.303
237.972	27.451	1203.910	965.403
238.986	27.446	1202.758	964.369
240.001	27.609	1202.182	964.686
241.015	27.638	1201.158	963.929
242.030	27.628	1200.834	963.531
243.045	27.658	1200.188	963.086
244.059	27.626	1199.364	962.173
245.074	27.658	1198.429	961.505
246.088	27.685	1197.687	960.968
247.103	27.573	1196.752	959.539
248.117	27.604	1196.234	959.203
249.132	27.627	1195.588	958.722
250.147	27.588	1195.219	958.137
251.161	27.732	1193.694	957.584
252.176	27.647	1193.529	956.923
253.190	27.731	1192.832	956.719
254.205	27.783	1191.743	956.032
255.220	27.633	1191.896	955.284
256.234	27.626	1191.322	954.702
257.249	27.727	1190.471	954.466
258.263	27.582	1189.812	953.094
259.278	27.785	1189.321	953.679
260.293	27.775	1188.647	953.001
261.307	27.799	1188.321	952.779
262.322	27.710	1187.647	951.692
263.336	27.760	1186.473	950.926
264.351	27.668	1186.586	950.452
265.366	27.741	1185.903	950.204
266.380	27.729	1184.968	949.310
267.395	27.760	1184.498	949.008
268.409	27.762	1183.500	948.136
269.424	27.741	1183.378	947.842
270.439	27.748	1182.881	947.397
271.453	27.745	1182.467	946.966
272.468	27.831	1181.211	946.325
273.482	27.717	1180.212	944.847
274.497	27.794	1180.128	945.096
275.512	27.832	1179.575	944.767
276.526	27.820	1178.708	943.927
277.541	27.832	1178.049	943.379
278.555	27.875	1177.648	943.197
279.570	27.796	1177.349	942.465
280.585	27.920	1175.956	941.907
281.599	27.876	1175.157	940.955
282.614	27.878	1174.302	940.197
283.628	28.051	1173.019	939.976
284.643	27.910	1172.538	938.784
285.657	27.892	1171.893	938.094
286.672	27.961	1170.739	937.437
287.687	27.878	1170.599	936.817
288.701	27.995	1169.739	936.649
289.716	27.910	1169.358	935.825
290.730	27.921	1168.693	935.266
291.745	27.957	1167.851	934.694
292.760	27.986	1167.025	934.097
293.774	27.990	1166.517	933.626
294.789	28.108	1165.907	933.660
295.803	27.964	1165.600	932.594
296.818	27.992	1164.991	932.171
297.833	27.933	1164.460	931.361
298.847	28.009	1163.452	930.861
299.862	28.115	1162.735	930.744
300.876	28.058	1162.425	930.121
301.891	28.162	1161.564	929.881
302.906	28.141	1161.030	929.266
303.920	28.116	1160.314	928.484
304.935	28.205	1159.224	927.976
305.949	28.099	1158.788	927.009
306.964	28.083	1158.304	926.462
307.979	28.111	1157.861	926.164
308.993	28.136	1157.317	925.774
310.008	28.178	1156.136	924.958
311.022	28.246	1155.062	924.363
312.037	28.245	1154.711	923.993
313.052	28.175	1154.063	923.041
314.066	28.172	1152.950	922.055
315.081	28.247	1152.084	921.659
316.095	28.132	1151.776	920.751
317.110	28.257	1151.096	920.752
318.125	28.343	1150.579	920.691
319.139	28.280	1149.835	919.697
320.154	28.379	1149.078	919.508
321.168	28.201	1148.934	918.420
322.183	28.342	1148.077	918.360
323.197	28.215	1147.703	917.340
324.212	28.228	1147.142	916.878
325.227	28.210	1146.801	916.435
326.241	28.294	1145.920	916.072
327.256	28.397	1145.211	915.937
328.270	28.336	1144.495	914.976
329.285	28.333	1143.820	914.342
330.300	28.336	1142.918	913.557
331.314	28.273	1142.427	912.766
332.329	28.351	1141.757	912.542
333.343	28.494	1141.087	912.635
334.358	28.437	1139.927	911.343
335.373	28.528	1139.005	910.980
336.387	28.462	1138.727	910.348
337.402	28.483	1137.917	909.724
338.416	28.603	1137.135	909.613
339.431	28.507	1136.660	908.676
340.446	28.488	1136.190	908.125
341.460	28.495	1135.571	907.586
342.475	28.601	1134.516	907.185
343.489	28.674	1133.553	906.699
344.504	28.470	1133.122	905.265
345.519	28.584	1132.056	904.895
346.533	28.565	1131.393	904.192
347.548	28.601	1130.653	903.696
348.562	28.648	1129.943	903.281
349.577	28.555	1129.364	902.282
350.592	28.529	1128.612	901.472
351.606	28.395	1128.274	900.466
352.621	28.484	1128.092	900.679
353.635	28.664	1126.904	900.531
354.650	28.729	1125.919	899.983
355.665	28.545	1125.699	898.828
356.679	28.697	1125.263	899.143
357.694	28.700	1124.340	898.341
358.708	28.677	1123.761	897.689
359.723	28.613	1123.093	896.758
360.738	28.613	1122.288	896.040
361.752	28.687	1121.960	896.060
362.767	28.739	1121.244	895.660
363.781	28.752	1120.735	895.236
364.796	28.791	1120.128	894.866
365.810	28.853	1119.065	894.238
366.825	28.844	1118.996	894.060
367.840	28.840	1118.613	893.657
368.854	28.938	1117.774	893.383
369.869	28.799	1117.608	892.497
370.883	28.857	1116.318	891.666
371.898	28.899	1115.762	891.345
372.913	28.841	1115.454	890.744
373.927	28.787	1114.975	890.018
374.942	28.954	1114.582	890.436
375.956	28.877	1113.775	889.338
376.971	28.922	1113.312	889.110
377.986	28.968	1112.760	888.809
379.000	28.998	1112.402	888.593
380.015	28.934	1111.621	887.578
381.029	28.947	1111.147	887.187
382.044	29.012	1110.285	886.730
383.059	28.935	1109.655	885.779
384.073	28.978	1108.920	885.321
385.088	29.058	1108.022	884.909
386.102	28.996	1107.296	883.955
387.117	29.109	1106.122	883.480
388.132	28.983	1105.546	882.339
389.146	28.990	1105.121	881.955
390.161	29.123	1104.359	881.904
391.175	28.982	1103.708	880.633
392.190	29.230	1102.551	880.817
393.205	29.037	1102.265	879.589
394.219	29.013	1101.404	878.708
395.234	29.147	1100.978	878.931
396.248	29.222	1100.098	878.509
397.263	29.214	1099.296	877.754
398.278	29.292	1098.835	877.680
399.292	29.285	1098.171	877.038
400.307	29.277	1097.640	876.496
401.321	29.260	1096.683	875.575
402.336	29.217	1096.354	875.029
403.350	29.179	1095.644	874.206
404.365	29.162	1095.495	873.927
405.380	29.309	1094.211	873.525
406.394	29.168	1094.113	872.702
407.409	29.317	1093.153	872.561
408.423	29.374	1092.170	871.970
409.438	29.325	1091.918	871.459
410.453	29.288	1091.125	870.577
411.467	29.338	1090.044	869.874
412.482	29.411	1089.315	869.555
413.496	29.476	1088.558	869.183
414.511	29.412	1088.017	868.372
415.526	29.388	1087.787	867.998
416.540	29.403	1087.639	867.874
417.555	29.425	1087.135	867.501
418.569	29.443	1086.311	866.851
419.584	29.451	1086.189	866.712
420.599	29.601	1085.516	866.801
421.613	102.885	1320.233	1450.844
422.628	95.782	1354.421	1450.946
