DTS Sentinel unit serial number:	SN413079Multiplexer serial number:	ORYXHardware model number:	OX4-SRSoftware version number:	ORYX F/W v4.00 Oryx Data Collector v3.7.2.0data status	okinstallation	princeton_trtdifferential loss correction	single-endedforward channel	channel 2reverse channel	N/Adate	2019/09/12time	19:14:49forward acquisition time	15.00reverse acquisition time	0.00gamma	496.2192k internal	0.2325k external	0.2325temperature offset calibration	1.0143default loss term (dB/km)	0.3790temperature slope calibration	1.0000multiplexer offset coefficient	1.0000multiplexer slope coefficient	1.0000fibre end	0.00T internal ref (°C)	32.50T ext. ref 1 (°C)	3.20T ext. ref 2 (°C)	27.09length (m)	temperature (°C)	Stokes	anti-Stokes-747.200	42.154	0.573	0.525
-746.185	427.249	0.417	0.908
-745.171	198.483	0.540	-0.834
-744.156	-200.000	-0.012	-0.441
-743.142	364.205	-0.383	-0.778
-742.127	-40.962	-0.846	0.441
-741.112	626.149	-0.245	-0.624
-740.098	-72.514	0.588	0.219
-739.083	-168.006	0.125	-0.005
-738.069	221.592	0.285	0.463
-737.054	-145.052	-0.125	-0.011
-736.039	62.102	-0.478	-0.481
-735.025	-200.000	-0.014	0.340
-734.010	800.000	-0.287	-1.117
-732.996	219.988	-0.155	-0.250
-731.981	271.804	-0.121	0.215
-730.966	-200.000	-0.013	0.337
-729.952	800.000	-0.160	-0.566
-728.937	295.482	-0.277	0.511
-727.923	370.973	-0.425	0.869
-726.908	113.499	0.543	0.665
-725.894	448.986	0.247	0.549
-724.879	474.731	-0.452	1.027
-723.864	293.594	-0.158	-0.291
-722.850	-35.707	0.870	0.475
-721.835	103.453	0.244	0.289
-720.821	-195.044	-1.401	0.011
-719.806	-81.671	-0.229	0.076
-718.791	-119.633	0.422	0.074
-717.777	5.331	-0.655	-0.487
-716.762	-29.523	-0.672	0.387
-715.748	512.111	-0.146	0.344
-714.733	-28.906	0.108	0.063
-713.718	-200.000	0.106	0.620
-712.704	800.000	0.179	-0.568
-711.689	181.718	-0.212	-0.315
-710.675	-200.000	0.022	0.496
-709.660	-200.000	-0.087	0.404
-708.645	-132.664	-1.055	-0.136
-707.631	-129.006	-0.541	-0.076
-706.616	-144.655	-0.321	-0.030
-705.602	20.538	-0.261	0.213
-704.587	800.000	0.211	0.649
-703.572	17.258	-0.144	-0.115
-702.558	258.052	0.293	0.509
-701.543	800.000	0.355	1.110
-700.529	-48.444	-0.272	-0.132
-699.514	-200.000	0.169	0.840
-698.499	149.991	-0.438	0.599
-697.485	191.808	0.081	0.123
-696.470	-112.858	-1.180	0.236
-695.456	-179.425	-1.058	-0.023
-694.441	-83.393	0.295	0.095
-693.426	-113.273	-0.592	-0.117
-692.412	226.797	0.217	-0.355
-691.397	317.259	0.066	0.125
-690.383	156.595	0.074	-0.103
-689.368	-82.956	-0.640	-0.208
-688.354	102.303	-0.166	-0.196
-687.339	-44.537	-0.508	0.256
-686.324	-200.000	-0.000	0.672
-685.310	-114.676	0.151	-0.029
-684.295	50.943	-0.259	0.247
-683.281	800.000	0.146	0.602
-682.266	98.661	-0.333	-0.387
-681.251	800.000	0.155	-0.519
-680.237	-52.573	-0.524	-0.244
-679.222	213.424	-0.119	-0.190
-678.208	-25.129	0.642	-0.383
-677.193	-157.340	-0.811	-0.049
-676.178	800.000	0.132	-0.549
-675.164	-160.955	-0.258	0.014
-674.149	-121.661	-0.350	-0.058
-673.135	-200.000	-0.138	-0.640
-672.120	84.853	-0.652	-0.719
-671.105	136.437	0.355	0.466
-670.091	-200.000	0.068	0.642
-669.076	-76.885	0.193	-0.068
-668.062	-200.000	-0.114	0.877
-667.047	-95.408	0.388	-0.105
-666.032	-154.261	0.415	0.028
-665.018	-108.168	0.183	0.040
-664.003	-26.681	-1.495	0.880
-662.989	800.000	-0.215	0.697
-661.974	-13.919	-0.134	0.087
-660.959	800.000	-0.237	-0.661
-659.945	-112.954	0.897	-0.179
-658.930	-76.965	0.300	0.105
-657.916	683.635	0.103	0.271
-656.901	-50.149	0.733	0.349
-655.886	-84.384	-1.014	0.322
-654.872	-57.508	0.371	-0.164
-653.857	-122.714	0.552	0.090
-652.843	69.425	-0.375	-0.388
-651.828	-134.339	-0.449	0.055
-650.814	800.000	0.044	0.127
-649.799	-200.000	0.042	0.600
-648.784	-101.477	-0.365	0.089
-647.770	-122.577	0.987	0.161
-646.755	800.000	0.091	0.308
-645.741	17.506	-0.843	-0.673
-644.726	126.751	-0.201	-0.256
-643.711	800.000	0.100	0.327
-642.697	-108.227	0.626	0.136
-641.682	83.634	-0.611	-0.669
-640.668	-200.000	0.038	0.317
-639.653	-66.945	-0.295	-0.117
-638.638	-165.121	-0.411	-0.018
-637.624	314.978	0.305	-0.578
-636.609	800.000	-0.218	0.803
-635.595	800.000	0.165	-0.473
-634.580	70.391	0.537	0.558
-633.565	398.355	-0.157	-0.329
-632.551	-72.789	-1.213	0.449
-631.536	-157.122	-0.384	-0.024
-630.522	800.000	0.053	-0.221
-629.507	53.904	0.208	0.201
-628.492	94.360	-0.363	-0.414
-627.478	-107.722	-1.049	0.230
-626.463	-65.295	-0.645	0.261
-625.449	143.720	0.362	0.485
-624.434	122.831	0.133	0.168
-623.419	-200.000	-0.014	0.197
-622.405	-82.915	0.659	0.214
-621.390	-91.417	-0.581	-0.167
-620.376	-200.000	-0.011	0.202
-619.361	198.698	-0.126	-0.194
-618.346	-98.490	-0.236	-0.061
-617.332	-136.001	-0.473	0.056
-616.317	-123.097	-0.731	0.118
-615.303	529.603	0.328	-0.778
-614.288	-129.840	-0.255	0.035
-613.273	-169.977	-0.413	-0.015
-612.259	800.000	0.212	0.723
-611.244	123.884	0.359	0.453
-610.230	-200.000	-0.086	-0.506
-609.215	646.235	-0.233	0.596
-608.201	-86.425	-0.228	0.070
-607.186	-12.124	0.593	-0.390
-606.171	88.145	-0.440	-0.490
-605.157	-85.752	-0.552	0.172
-604.142	-200.000	0.009	0.286
-603.128	130.843	-0.376	0.484
-602.113	163.476	0.216	-0.305
-601.098	434.064	-0.233	0.509
-600.084	-200.000	0.029	-0.268
-599.069	-45.238	-0.778	0.388
-598.055	-163.694	1.783	-0.084
-597.040	247.095	0.297	0.503
-596.025	-200.000	-0.039	-0.224
-595.011	-149.100	1.074	0.086
-593.996	-200.000	-0.077	0.701
-592.982	-126.822	0.815	-0.121
-591.967	128.754	-0.093	-0.118
-590.952	-200.000	0.029	0.289
-589.938	182.940	-0.064	-0.095
-588.923	-163.197	0.402	-0.019
-587.909	329.345	-0.397	-0.765
-586.894	-200.000	0.107	0.685
-585.879	35.919	-0.165	-0.146
-584.865	-200.000	-0.033	0.175
-583.850	282.946	-0.346	-0.622
-582.836	-200.000	-0.022	0.098
-581.821	-96.974	0.363	-0.095
-580.806	800.000	0.092	0.326
-579.792	121.590	0.524	-0.655
-578.777	800.000	0.176	0.566
-577.763	37.289	-0.597	0.530
-576.748	-116.781	-0.553	0.102
-575.733	202.860	0.315	0.488
-574.719	230.674	0.285	-0.468
-573.704	-200.000	-0.003	0.047
-572.690	-112.344	0.536	0.108
-571.675	-65.867	-0.481	0.193
-570.661	3.821	0.321	0.235
-569.646	-200.000	-0.091	-0.857
-568.631	-33.098	0.473	0.263
-567.617	63.144	-0.853	-0.856
-566.602	-24.675	-0.090	0.054
-565.588	-200.000	0.032	0.646
-564.573	800.000	-0.271	1.011
-563.558	-13.625	0.694	-0.450
-562.544	122.226	0.384	-0.481
-561.529	-200.000	0.055	-0.766
-560.515	-7.116	-0.507	0.344
-559.500	7.927	-0.473	-0.355
-558.485	-161.961	0.640	-0.032
-557.471	-160.108	-0.659	0.036
-556.456	127.279	0.297	0.378
-555.442	8.983	0.806	0.609
-554.427	-200.000	-0.136	0.721
-553.412	-200.000	-0.073	0.443
-552.398	364.175	0.257	0.517
-551.383	18.176	0.496	-0.397
-550.369	34.499	-0.009	0.007
-549.354	260.683	0.222	0.385
-548.339	-25.828	0.306	0.181
-547.325	-4.866	-0.286	0.198
-546.310	-58.771	0.683	0.296
-545.296	103.731	0.872	1.025
-544.281	-144.262	-0.126	0.012
-543.266	-137.745	-0.355	0.040
-542.252	131.238	0.252	0.324
-541.237	-27.950	0.148	-0.086
-540.223	299.620	0.090	0.167
-539.208	-49.321	-0.853	-0.407
-538.193	273.190	-0.329	0.581
-537.179	-4.123	-0.385	0.267
-536.164	22.368	-0.601	0.492
-535.150	-57.059	-0.320	-0.141
-534.135	317.344	0.186	-0.351
-533.121	-153.795	0.741	-0.051
-532.106	-200.000	0.016	-0.136
-531.091	-115.873	-0.904	-0.169
-530.077	24.615	0.026	-0.021
-529.062	-124.085	-0.476	-0.075
-528.048	800.000	0.258	-0.888
-527.033	558.745	-0.165	-0.398
-526.018	800.000	0.125	0.432
-525.004	510.298	0.071	0.165
-523.989	-200.000	-0.002	0.626
-522.975	140.893	-0.173	-0.228
-521.960	-149.399	0.169	0.013
-520.945	-78.637	0.751	0.257
-519.931	-30.853	0.129	-0.073
-518.916	-134.793	-0.570	-0.069
-517.902	800.000	0.276	-0.872
-516.887	-7.477	-0.529	0.358
-515.872	420.317	-0.312	-0.668
-514.858	37.530	-0.494	-0.439
-513.843	-32.093	-0.281	-0.157
-512.829	-21.136	0.108	0.066
-511.814	800.000	0.053	0.147
-510.799	-22.831	-0.455	0.275
-509.785	-153.197	0.512	-0.036
-508.770	-27.662	-0.628	0.364
-507.756	739.750	-0.173	0.464
-506.741	9.835	-0.239	-0.181
-505.726	-80.232	0.117	0.039
-504.712	295.475	-0.262	-0.479
-503.697	-200.000	-0.026	0.667
-502.683	-127.609	1.014	0.147
-501.668	260.727	0.363	-0.627
-500.653	-100.367	1.285	-0.318
-499.639	800.000	-0.228	-0.815
-498.624	204.901	-0.415	0.644
-497.610	-69.626	-0.679	0.260
-496.595	650.953	0.379	0.969
-495.581	-22.780	0.877	-0.529
-494.566	-200.000	-0.070	-0.776
-493.551	-200.000	0.076	1.238
-492.537	24.419	-0.251	0.207
-491.522	-107.356	-0.184	0.040
-490.508	800.000	0.182	0.681
-489.493	-130.448	-0.698	0.094
-488.478	-81.753	1.072	0.351
-487.464	12.978	0.781	-0.604
-486.449	-200.000	-0.043	-0.904
-485.435	-68.142	-0.738	-0.287
-484.420	-80.452	0.682	-0.227
-483.405	-200.000	-0.022	-0.438
-482.391	-200.000	0.011	0.057
-481.376	-200.000	-0.109	-0.535
-480.362	-58.280	-0.246	-0.107
-479.347	555.187	0.187	-0.449
-478.332	-109.178	-0.218	0.046
-477.318	-72.919	-0.224	0.082
-476.303	800.000	0.093	0.369
-475.289	-55.298	0.522	-0.234
-474.274	-45.846	-0.741	-0.365
-473.259	29.624	0.840	0.713
-472.245	-24.668	0.365	-0.217
-471.230	800.000	0.160	-0.622
-470.216	-136.306	0.889	0.103
-469.201	-200.000	-0.101	-0.892
-468.186	800.000	-0.286	-0.917
-467.172	-200.000	0.024	0.262
-466.157	-56.556	1.187	0.525
-465.143	-200.000	0.080	-0.393
-464.128	-200.000	0.073	0.348
-463.113	-109.246	-0.216	0.046
-462.099	245.891	0.445	-0.748
-461.084	122.035	-0.358	-0.446
-460.070	-200.000	-0.015	-0.219
-459.055	800.000	-0.102	0.402
-458.040	-200.000	0.094	0.414
-457.026	-72.862	-0.647	0.238
-456.011	-99.674	1.171	0.293
-454.997	-157.067	-1.313	0.080
-453.982	-24.653	0.678	0.402
-452.968	54.730	-0.123	0.119
-451.953	-73.849	0.458	-0.166
-450.938	-134.238	0.439	0.054
-449.924	278.873	-0.050	-0.088
-448.909	-112.388	-0.605	0.121
-447.895	234.510	-0.457	-0.751
-446.880	-141.412	-0.967	0.098
-445.865	-85.970	0.771	0.238
-444.851	-200.000	0.011	0.103
-443.836	-35.550	-0.783	0.424
-442.822	-130.280	-0.404	-0.055
-441.807	3.142	0.204	0.148
-440.792	-200.000	-0.044	0.712
-439.778	-37.086	0.145	0.077
-438.763	-92.389	-0.561	-0.158
-437.749	-64.321	-0.339	-0.138
-436.734	800.000	0.144	-0.483
-435.719	141.119	0.035	0.046
-434.705	-200.000	0.067	1.008
-433.690	417.520	0.577	-1.229
-432.676	-32.140	0.395	-0.220
-431.661	-94.824	0.161	0.044
-430.646	158.310	0.099	-0.137
-429.632	197.448	0.259	-0.394
-428.617	-200.000	0.018	0.318
-427.603	126.920	0.471	-0.595
-426.588	-200.000	-0.031	-0.779
-425.573	312.678	-0.267	-0.500
-424.559	136.808	0.113	0.148
-423.544	434.576	0.219	-0.475
-422.530	87.638	0.304	0.336
-421.515	300.375	-0.083	-0.153
-420.500	72.334	0.193	0.200
-419.486	35.589	0.946	0.828
-418.471	-161.446	-0.873	-0.045
-417.457	-200.000	-0.033	0.484
-416.442	94.930	0.182	0.207
-415.428	772.052	0.161	-0.438
-414.413	249.044	-0.238	0.401
-413.398	155.502	0.091	-0.125
-412.384	-103.669	1.423	0.332
-411.369	-113.888	0.399	-0.077
-410.355	-123.227	0.152	-0.024
-409.340	-119.387	-0.456	-0.079
-408.325	50.860	-0.425	0.401
-407.311	533.462	-0.286	0.675
-406.296	-51.913	0.277	0.128
-405.282	635.829	-0.442	1.118
-404.267	190.422	-0.367	0.549
-403.252	-0.247	-0.191	0.135
-402.238	-200.000	-0.061	0.736
-401.223	136.031	0.321	-0.416
-400.209	-200.000	0.012	0.412
-399.194	-200.000	-0.234	1.029
-398.179	-154.591	-0.816	0.054
-397.165	-64.254	-0.511	0.207
-396.150	74.070	0.168	-0.176
-395.136	303.905	-0.112	0.207
-394.121	141.457	-0.279	-0.368
-393.106	543.411	0.097	-0.229
-392.092	-200.000	-0.051	-0.425
-391.077	-200.000	-0.022	-0.361
-390.063	-179.196	-0.142	-0.003
-389.048	21.691	-0.086	0.069
-388.033	305.289	-0.197	0.364
-387.019	-122.710	0.071	-0.011
-386.004	-32.190	0.529	0.294
-384.990	-186.440	-1.057	0.015
-383.975	336.152	-0.347	-0.671
-382.960	-200.000	0.029	0.345
-381.946	41.126	-0.586	-0.527
-380.931	-24.647	-0.190	-0.112
-379.917	-197.135	-0.119	0.001
-378.902	-89.961	0.834	-0.242
-377.888	161.454	0.450	0.626
-376.873	10.135	0.351	-0.266
-375.858	-101.132	-0.496	-0.121
-374.844	-149.017	0.368	-0.029
-373.829	159.299	0.534	-0.739
-372.815	-200.000	0.016	0.570
-371.800	800.000	-0.087	-0.286
-370.785	-200.000	0.640	0.002
-369.771	-88.755	0.760	-0.225
-368.756	-27.778	-0.800	0.462
-367.742	-93.776	0.469	0.129
-366.727	-76.135	0.054	0.019
-365.712	40.589	-0.278	0.249
-364.698	-200.000	-0.076	-0.523
-363.683	-174.405	-0.285	-0.008
-362.669	23.124	-0.319	-0.260
-361.654	-97.234	-0.347	0.090
-360.639	30.949	-0.348	0.296
-359.625	-200.000	-0.038	-0.175
-358.610	-38.620	-0.585	-0.307
-357.596	-108.715	0.254	-0.054
-356.581	120.464	0.073	0.090
-355.566	21.874	0.037	0.030
-354.552	-112.544	-0.347	-0.069
-353.537	-16.586	-0.409	0.258
-352.523	-131.993	0.033	-0.004
-351.508	33.345	-0.396	0.341
-350.493	-95.565	-0.431	0.115
-349.479	-126.964	-0.591	-0.086
-348.464	800.000	-0.071	0.267
-347.450	-95.223	0.468	0.125
-346.435	800.000	0.152	0.563
-345.420	32.039	-0.481	-0.412
-344.406	800.000	-0.182	-0.524
-343.391	-99.114	0.711	0.179
-342.377	800.000	0.126	-0.346
-341.362	-200.000	0.103	-0.550
-340.348	-124.221	0.079	0.012
-339.333	-110.591	0.548	0.113
-338.318	214.543	-0.255	0.401
-337.304	-200.000	0.053	0.512
-336.289	-78.289	0.720	-0.245
-335.275	299.358	0.136	0.248
-334.260	800.000	-0.378	-1.355
-333.245	-200.000	0.046	-0.228
-332.231	-74.903	-0.754	0.269
-331.216	-166.891	-0.596	-0.024
-330.202	-2.727	0.176	0.122
-329.187	-200.000	-0.032	0.667
-328.172	82.035	-0.070	0.076
-327.158	-107.597	0.318	-0.069
-326.143	-95.209	0.164	0.044
-325.129	-0.881	0.459	0.323
-324.114	196.651	0.086	-0.130
-323.099	30.295	0.353	-0.299
-322.085	478.008	-0.121	-0.272
-321.070	-27.961	-0.516	-0.297
-320.056	-7.972	-0.076	-0.051
-319.041	-118.431	-0.519	0.091
-318.026	69.210	-0.540	0.551
-317.012	-200.000	0.252	-0.001
-315.997	341.820	-0.172	-0.334
-314.983	-160.753	-0.265	-0.014
-313.968	-106.883	0.597	-0.131
-312.953	-200.000	0.028	0.722
-311.939	-116.009	-0.657	-0.121
-310.924	320.925	-0.312	-0.588
-309.910	-200.000	-0.020	-0.322
-308.895	-74.395	0.233	-0.083
-307.880	-162.554	-0.870	0.043
-306.866	-88.206	-0.127	0.038
-305.851	2.695	-0.186	0.134
-304.837	-134.887	0.317	0.038
-303.822	-140.509	0.982	-0.101
-302.807	353.654	-0.301	-0.593
-301.793	16.951	0.633	-0.497
-300.778	-95.012	-0.867	-0.232
-299.764	-130.119	0.331	0.045
-298.749	-137.754	-0.399	0.044
-297.735	200.912	0.220	-0.335
-296.720	784.915	-0.124	0.337
-295.705	-31.149	0.421	0.235
-294.691	-180.435	-0.882	-0.018
-293.676	800.000	0.034	0.124
-292.662	-200.000	-0.002	-0.540
-291.647	-85.445	-0.311	-0.096
-290.632	800.000	-0.180	-0.561
-289.618	-8.894	0.133	0.088
-288.603	-200.000	-0.019	-0.181
-287.589	-173.063	-0.140	0.004
-286.574	-118.676	0.460	-0.080
-285.559	800.000	0.312	-0.928
-284.545	269.035	0.305	0.531
-283.530	800.000	0.109	0.434
-282.516	46.340	-0.187	0.172
-281.501	-98.461	0.757	-0.192
-280.486	-93.488	-0.332	-0.091
-279.472	708.214	-0.017	-0.045
-278.457	-132.837	-0.455	-0.058
-277.443	-142.427	0.551	0.054
-276.428	-22.136	0.395	-0.238
-275.413	496.171	-0.490	-1.115
-274.399	-200.000	-0.038	0.682
-273.384	800.000	-0.264	0.766
-272.370	-200.000	0.093	0.706
-271.355	-200.000	-0.008	0.385
-270.340	60.254	-0.536	-0.525
-269.326	-200.000	0.000	0.122
-268.311	91.422	-0.657	-0.731
-267.297	6.263	0.594	-0.436
-266.282	-122.286	0.414	-0.067
-265.267	-6.874	-0.318	-0.214
-264.253	482.232	0.282	-0.634
-263.238	-112.431	-0.820	0.162
-262.224	-200.000	-0.053	0.628
-261.209	362.336	0.206	0.409
-260.195	-129.760	-1.170	-0.159
-259.180	-104.824	-0.311	-0.071
-258.165	-11.218	-0.278	-0.181
-257.151	229.851	-0.543	-0.879
-256.136	99.436	0.261	-0.299
-255.122	405.805	-0.524	-1.095
-254.107	30.949	0.541	-0.459
-253.092	-200.000	0.061	0.534
-252.078	800.000	-0.195	-0.723
-251.063	237.534	0.184	0.301
-250.049	-30.430	-0.353	0.198
-249.034	800.000	-0.037	0.142
-248.019	-53.282	-0.097	-0.044
-247.005	-200.000	0.002	-0.525
-245.990	129.231	0.149	-0.188
-244.976	240.637	-0.094	-0.156
-243.961	-94.415	0.610	-0.165
-242.946	-181.017	0.524	0.010
-241.932	203.523	0.536	-0.821
-240.917	720.474	0.228	-0.600
-239.903	200.934	-0.309	0.470
-238.888	-169.895	-0.617	-0.022
-237.873	63.900	0.712	-0.708
-236.859	-89.219	-0.326	-0.095
-235.844	-200.000	0.057	-0.379
-234.830	61.551	0.196	-0.193
-233.815	-200.000	-0.154	-0.771
-232.800	-51.593	-0.122	-0.056
-231.786	-200.000	0.087	-0.421
-230.771	-109.142	0.272	0.057
-229.757	296.365	0.057	-0.103
-228.742	-200.000	-0.044	0.350
-227.727	-56.313	0.521	-0.229
-226.713	-92.481	0.888	0.247
-225.698	-133.521	0.998	-0.124
-224.684	676.588	-0.203	0.522
-223.669	-33.278	0.554	0.303
-222.655	-91.755	-0.230	0.065
-221.640	91.002	-0.528	0.585
-220.625	76.868	-0.411	0.432
-219.611	-71.658	0.626	0.231
-218.596	-20.425	0.762	0.463
-217.582	380.903	-0.249	-0.505
-216.567	-200.000	-0.029	-0.246
-215.552	-104.325	0.984	0.225
-214.538	-21.386	0.250	-0.151
-213.523	-1.613	0.318	-0.221
-212.509	-15.941	-0.618	-0.389
-211.494	800.000	-0.118	-0.342
-210.479	43.099	0.361	-0.326
-209.465	117.826	-0.308	0.375
-208.450	-77.859	-0.843	0.288
-207.436	-60.502	0.500	0.210
-206.421	447.564	0.152	0.332
-205.406	-52.431	0.230	0.105
-204.392	123.535	0.189	-0.235
-203.377	182.933	0.308	-0.450
-202.363	498.553	-0.047	-0.108
-201.348	-163.584	0.543	0.025
-200.333	143.680	0.467	0.615
-199.319	191.631	0.505	-0.751
-198.304	-57.830	0.487	0.210
-197.290	203.636	-0.209	0.320
-196.275	800.000	-0.110	0.437
-195.260	-116.289	0.444	0.081
-194.246	-87.668	0.387	0.115
-193.231	787.983	-0.312	0.845
-192.217	800.000	-0.240	0.695
-191.202	-35.405	0.086	-0.046
-190.187	26.071	-0.789	0.650
-189.173	800.000	-0.204	-0.739
-188.158	-41.250	-0.295	0.150
-187.144	800.000	-0.027	-0.079
-186.129	17.314	0.616	-0.483
-185.114	-29.731	-0.406	-0.229
-184.100	-74.779	-0.475	0.169
-183.085	-58.813	-0.141	0.060
-182.071	-200.000	0.003	-0.123
-181.056	-0.896	-0.337	0.236
-180.042	101.395	0.212	0.243
-179.027	800.000	-0.266	-0.812
-178.012	-170.468	0.732	-0.025
-176.998	45.795	0.748	-0.682
-175.983	107.426	-0.607	0.713
-174.969	-30.190	0.754	0.423
-173.954	-90.445	0.484	-0.139
-172.939	800.000	0.036	0.141
-171.925	800.000	-0.139	0.490
-170.910	-8.361	-0.538	-0.357
-169.896	92.316	-0.744	-0.827
-168.881	58.698	-0.556	-0.539
-167.866	-118.128	0.426	-0.075
-166.852	483.021	-0.356	0.798
-165.837	598.096	-0.225	-0.549
-164.823	-200.000	0.082	0.457
-163.808	95.811	0.057	0.064
-162.793	-200.000	-0.061	0.454
-161.779	-61.224	-0.628	0.261
-160.764	-121.419	0.506	-0.083
-159.750	-171.898	-0.251	-0.008
-158.735	-125.775	0.508	0.076
-157.720	-179.815	0.401	0.009
-156.706	-164.059	-0.918	-0.042
-155.691	-167.588	-0.438	0.017
-154.677	-148.437	0.636	0.051
-153.662	-120.657	-0.238	0.040
-152.647	569.379	-0.307	-0.737
-151.633	42.278	0.887	0.795
-150.618	180.350	0.372	-0.538
-149.604	-200.000	-0.017	-0.225
-148.589	-200.000	-0.093	0.495
-147.574	800.000	-0.115	0.451
-146.560	-200.000	0.106	0.593
-145.545	-112.626	-0.630	0.124
-144.531	-12.587	0.345	0.222
-143.516	375.367	-0.587	-1.179
-142.502	84.742	-0.522	-0.564
-141.487	258.910	0.106	-0.181
-140.472	44.156	-0.364	-0.329
-139.458	-102.241	-0.311	0.074
-138.443	20.042	-0.370	0.294
-137.429	142.160	0.116	0.152
-136.414	-200.000	0.110	-1.350
-135.399	800.000	-0.096	-0.399
-134.385	315.716	0.384	0.713
-133.370	-50.108	-0.084	0.039
-132.356	-68.006	0.484	-0.186
-131.341	24.264	0.778	0.633
-130.326	-101.940	1.422	0.338
-129.312	401.247	0.370	0.765
-128.297	174.284	-0.719	1.024
-127.283	-89.087	0.530	-0.154
-126.268	-164.719	-1.068	-0.047
-125.253	-200.000	0.103	-0.509
-124.239	-200.000	-0.010	0.553
-123.224	530.517	-0.131	0.305
-122.210	-137.515	0.335	0.037
-121.195	-39.490	0.671	0.346
-120.180	-77.920	0.191	0.065
-119.166	-0.243	-0.247	-0.173
-118.151	-200.000	0.009	-0.758
-117.137	-176.119	0.925	0.024
-116.122	243.374	0.365	-0.602
-115.107	314.512	-0.229	-0.425
-114.093	-74.500	-0.516	-0.183
-113.078	65.857	-0.230	0.230
-112.064	121.627	-0.120	0.147
-111.049	-200.000	0.002	-0.343
-110.034	-5.059	0.423	-0.287
-109.020	-152.059	-0.587	-0.042
-108.005	800.000	0.098	-0.385
-106.991	-200.000	-0.180	-1.060
-105.976	-95.019	-0.201	0.054
-104.962	146.841	-0.278	0.367
-103.947	563.352	0.110	-0.262
-102.932	800.000	0.053	0.161
-101.918	567.639	-0.251	-0.600
-100.903	473.399	0.392	0.870
-99.889	645.880	0.234	-0.588
-98.874	-97.445	-0.111	-0.028
-97.859	-60.139	0.369	0.155
-96.845	-32.086	-0.447	-0.246
-95.830	800.000	-0.173	0.652
-94.816	800.000	0.148	0.594
-93.801	-10.134	0.597	0.390
-92.786	800.000	-0.193	0.736
-91.772	-141.588	0.883	-0.088
-90.757	-154.191	0.682	0.045
-89.743	102.598	0.312	0.359
-88.728	235.734	-0.372	-0.604
-87.713	-85.185	0.166	0.051
-86.699	-9.074	0.129	-0.085
-85.684	180.475	-0.494	-0.713
-84.670	217.253	0.303	-0.474
-83.655	342.235	0.362	-0.697
-82.640	44.896	-0.228	0.206
-81.626	247.289	0.105	-0.174
-80.611	-200.000	0.163	0.778
-79.597	17.784	-0.299	-0.234
-78.582	-75.306	0.786	-0.276
-77.567	-200.000	-0.090	-0.483
-76.553	-32.051	-0.717	0.394
-75.538	762.782	0.211	0.562
-74.524	-20.586	-0.215	-0.130
-73.509	-108.528	-0.324	0.068
-72.494	-37.963	0.728	-0.380
-71.480	-31.878	0.168	-0.092
-70.465	-56.950	-0.233	-0.101
-69.451	-200.000	0.089	-0.727
-68.436	800.000	0.290	-0.797
-67.422	-200.000	-0.010	-0.713
-66.407	102.547	-0.564	-0.649
-65.392	-135.024	-0.632	-0.075
-64.378	800.000	0.160	0.439
-63.363	56.284	-0.185	0.177
-62.349	107.352	0.159	-0.185
-61.334	-1.326	-0.772	-0.535
-60.319	119.163	1.020	1.240
-59.305	800.000	-0.213	-0.896
-58.290	57.538	1.203	1.154
-57.276	249.868	0.929	1.549
-56.261	-200.000	95.752	594.359
-55.246	678.249	1354.887	3461.462
-54.232	204.235	2522.810	3839.811
-53.217	113.222	2246.207	2676.203
-52.203	41.844	1880.412	1674.618
-51.188	35.633	1673.789	1444.055
-50.173	33.051	1630.745	1387.933
-49.159	51.264	1679.553	1565.563
-48.144	51.951	1694.618	1584.655
-47.130	35.160	1657.144	1425.952
-46.115	32.693	1641.061	1393.842
-45.100	32.537	1636.411	1388.687
-44.086	32.402	1633.055	1384.789
-43.071	32.398	1630.519	1382.555
-42.057	32.309	1629.177	1380.706
-41.042	32.379	1626.335	1378.759
-40.027	32.722	1623.948	1379.185
-39.013	32.424	1623.500	1376.574
-37.998	32.254	1621.101	1373.246
-36.984	32.350	1620.778	1373.619
-35.969	32.439	1618.785	1372.520
-34.954	32.433	1616.561	1370.540
-33.940	32.466	1614.780	1369.213
-32.925	32.395	1613.422	1367.496
-31.911	32.305	1612.378	1365.900
-30.896	32.683	1608.846	1365.594
-29.881	32.437	1608.601	1363.548
-28.867	32.514	1607.544	1363.152
-27.852	32.518	1604.936	1360.919
-26.838	32.241	1603.994	1358.065
-25.823	32.410	1602.873	1358.285
-24.809	32.596	1600.836	1357.841
-23.794	32.578	1598.554	1355.727
-22.779	32.440	1598.083	1354.278
-21.765	32.335	1597.874	1353.290
-20.750	32.516	1595.317	1352.375
-19.736	32.703	1592.698	1351.441
-18.721	32.493	1592.576	1349.775
-17.706	32.451	1590.619	1347.764
-16.692	32.843	1587.955	1348.255
-15.677	32.738	1586.304	1346.051
-14.663	32.618	1586.938	1345.679
-13.648	32.463	1584.364	1342.335
-12.633	32.633	1583.532	1342.789
-11.619	32.535	1582.488	1341.155
-10.604	32.601	1580.747	1340.097
-9.590	32.687	1578.207	1338.496
-8.575	32.389	1578.236	1336.355
-7.560	32.791	1575.742	1337.036
-6.546	32.476	1574.955	1334.083
-5.531	32.507	1574.343	1333.731
-4.517	32.609	1572.872	1333.156
-3.502	32.411	1572.577	1331.450
-2.487	32.570	1570.428	1330.704
-1.473	32.058	1559.494	1317.794
-0.458	29.247	1539.107	1281.009
0.556	26.864	1539.846	1249.106
1.571	24.457	1562.206	1250.294
2.586	23.733	1575.524	1255.721
3.600	21.187	1521.559	1195.201
4.615	12.451	1413.003	1054.048
5.629	4.608	1349.627	958.487
6.644	3.390	1341.345	945.053
7.659	3.086	1340.857	942.764
8.673	3.184	1339.837	942.565
9.688	3.141	1337.344	940.461
10.702	3.198	1334.038	938.404
11.717	6.707	1341.342	964.939
12.731	16.276	1358.504	1036.195
13.746	23.463	1371.410	1090.317
14.761	24.981	1372.165	1100.152
15.775	24.854	1371.350	1098.623
16.790	24.676	1370.796	1096.989
17.804	24.453	1369.480	1094.468
18.819	24.528	1369.041	1094.483
19.834	24.470	1368.055	1093.244
20.848	24.978	1366.653	1095.129
21.863	24.558	1366.893	1092.656
22.877	24.815	1365.794	1093.254
23.892	24.477	1363.517	1089.273
24.907	24.498	1364.946	1090.445
25.921	24.926	1362.813	1091.254
26.936	24.701	1362.743	1089.734
27.950	24.618	1361.119	1087.828
28.965	24.990	1359.760	1088.912
29.980	24.862	1359.086	1087.496
30.994	24.831	1358.557	1086.786
32.009	25.021	1356.744	1086.393
33.023	24.957	1356.724	1085.894
34.038	24.713	1356.022	1083.757
35.053	24.745	1353.751	1082.038
36.067	24.690	1353.042	1081.043
37.082	24.722	1351.391	1079.823
38.096	24.922	1350.257	1080.030
39.111	24.736	1349.912	1078.532
40.126	24.665	1349.562	1077.733
41.140	24.734	1348.635	1077.313
42.155	24.677	1347.173	1075.707
43.169	24.137	1347.937	1072.967
44.184	24.443	1347.841	1074.639
45.199	24.373	1347.354	1073.734
46.213	24.420	1347.642	1074.154
47.228	24.776	1345.952	1074.850
48.242	24.688	1346.477	1074.646
49.257	24.801	1343.599	1072.934
50.271	24.504	1342.964	1070.546
51.286	24.922	1341.883	1072.093
52.301	24.875	1340.474	1070.594
53.315	24.539	1339.898	1068.030
54.330	24.712	1337.290	1066.889
55.344	24.607	1337.512	1066.343
56.359	24.531	1337.039	1065.421
57.374	24.397	1336.500	1064.095
58.388	24.584	1334.538	1063.552
59.403	24.164	1335.013	1061.336
60.417	24.432	1332.924	1061.175
61.432	24.412	1333.467	1061.397
62.447	24.426	1333.094	1061.088
63.461	24.377	1331.417	1059.370
64.476	24.337	1329.406	1057.439
65.490	24.331	1329.036	1057.017
66.505	24.169	1327.897	1055.055
67.520	24.277	1325.885	1054.003
68.534	24.464	1325.015	1054.319
69.549	24.457	1323.398	1052.901
70.563	24.267	1323.845	1052.044
71.578	24.812	1321.856	1053.578
72.593	24.041	1321.769	1048.875
73.607	24.304	1321.095	1049.795
74.622	24.065	1321.084	1048.286
75.636	24.220	1319.973	1048.224
76.651	24.274	1318.648	1047.400
77.666	24.110	1319.094	1046.696
78.680	24.327	1318.849	1047.680
79.695	24.102	1317.402	1045.122
80.709	24.246	1316.352	1045.041
81.724	24.555	1316.594	1046.949
82.739	24.322	1316.006	1045.027
83.753	24.710	1313.751	1045.410
84.768	24.867	1313.408	1045.961
85.782	24.920	1312.937	1045.806
86.797	24.850	1311.662	1044.287
87.812	24.786	1309.639	1042.209
88.826	24.595	1310.421	1041.628
89.841	24.872	1307.668	1040.958
90.855	25.031	1306.922	1041.199
91.870	25.031	1306.626	1040.871
92.884	24.939	1306.348	1040.020
93.899	24.932	1305.344	1039.091
94.914	25.086	1304.724	1039.396
95.928	25.208	1303.160	1038.763
96.943	24.717	1303.415	1036.035
97.957	24.623	1303.605	1035.548
98.972	24.881	1300.208	1034.249
99.987	24.808	1300.446	1033.927
101.001	24.838	1299.000	1032.858
102.016	25.161	1297.630	1033.537
103.030	24.683	1297.544	1030.624
104.045	24.760	1296.902	1030.465
105.060	24.662	1295.866	1028.985
106.074	24.275	1294.829	1025.846
107.089	24.598	1292.108	1025.453
108.103	24.218	1291.619	1022.796
109.118	24.450	1289.716	1022.526
110.133	24.424	1288.426	1021.262
111.147	24.592	1286.698	1020.767
112.162	24.320	1287.613	1019.844
113.176	24.421	1286.257	1019.257
114.191	24.405	1285.083	1018.145
115.206	24.633	1283.351	1017.985
116.220	24.394	1283.887	1016.955
117.235	24.474	1282.439	1016.174
118.249	24.429	1280.998	1014.688
119.264	24.048	1280.470	1012.012
120.279	24.517	1278.455	1012.989
121.293	24.466	1278.371	1012.543
122.308	24.376	1277.058	1010.905
123.322	23.999	1277.406	1008.954
124.337	24.151	1275.262	1008.033
125.352	24.244	1274.897	1008.183
126.366	24.055	1274.943	1007.056
127.381	24.253	1273.405	1006.876
128.395	24.289	1271.943	1005.835
129.410	24.010	1271.064	1003.474
130.424	24.246	1269.934	1003.821
131.439	23.998	1270.188	1002.537
132.454	24.337	1269.085	1003.484
133.468	24.449	1268.805	1003.805
134.483	24.415	1268.499	1003.286
135.497	24.490	1267.254	1002.631
136.512	24.533	1266.085	1001.857
137.527	24.064	1265.032	998.308
138.541	24.528	1263.356	999.497
139.556	24.413	1263.194	998.635
140.570	24.606	1262.414	999.011
141.585	24.598	1262.225	998.728
142.600	24.855	1260.457	998.673
143.614	24.750	1260.532	998.057
144.629	25.033	1259.583	998.798
145.643	24.726	1257.629	995.450
146.658	24.596	1257.332	994.401
147.673	24.509	1255.740	992.575
148.687	24.695	1254.892	992.847
149.702	24.459	1253.444	990.306
150.716	24.179	1250.643	986.453
151.731	24.225	1249.227	985.506
152.746	24.445	1248.746	986.252
153.760	24.684	1247.910	986.828
154.775	24.628	1247.722	986.282
155.789	24.695	1247.793	986.620
156.804	24.561	1246.875	985.070
157.819	24.492	1245.075	983.177
158.833	24.494	1245.452	983.401
159.848	24.781	1243.959	983.712
160.862	24.768	1242.748	982.595
161.877	24.717	1241.679	981.384
162.892	24.415	1241.236	979.292
163.906	24.243	1240.779	977.898
164.921	24.179	1239.550	976.491
165.935	24.509	1238.141	977.102
166.950	24.640	1237.557	977.274
167.964	24.601	1237.001	976.535
168.979	24.598	1236.774	976.251
169.994	24.489	1235.472	974.542
171.008	24.466	1236.076	974.807
172.023	24.547	1234.979	974.297
173.037	24.827	1234.079	975.030
174.052	24.740	1233.112	973.705
175.067	24.479	1232.039	971.349
176.081	24.397	1230.813	969.850
177.096	24.247	1230.203	968.468
178.110	24.231	1229.396	967.661
179.125	24.510	1227.314	967.452
180.140	24.184	1227.643	965.859
181.154	24.659	1226.308	967.291
182.169	24.444	1225.331	965.276
183.183	24.533	1225.608	965.889
184.198	24.738	1224.149	965.762
185.213	24.851	1223.089	965.451
186.227	24.790	1221.443	963.737
187.242	25.097	1220.295	964.397
188.256	24.945	1219.929	963.203
189.271	24.900	1219.523	962.558
190.286	25.008	1217.556	961.496
191.300	24.564	1217.667	959.118
192.315	24.408	1217.586	958.130
193.329	24.708	1216.608	958.885
194.344	24.554	1215.044	956.743
195.359	24.567	1214.500	956.299
196.373	24.057	1213.802	952.934
197.388	24.182	1214.150	953.795
198.402	24.626	1213.602	955.655
199.417	25.046	1213.811	957.978
200.432	24.816	1214.292	957.042
201.446	24.863	1212.567	955.851
202.461	24.961	1211.683	955.593
203.475	24.667	1210.534	953.037
204.490	24.377	1210.360	951.267
205.504	24.227	1209.261	949.522
206.519	24.524	1207.546	949.672
207.534	24.479	1205.111	947.430
208.548	23.991	1205.095	944.743
209.563	23.999	1204.851	944.512
210.577	24.175	1203.291	944.138
211.592	24.132	1203.223	943.771
212.607	24.978	1202.132	947.312
213.621	24.524	1202.284	944.946
214.636	24.652	1200.855	944.417
215.650	24.614	1199.655	943.188
216.665	24.809	1199.331	943.877
217.680	24.905	1198.985	944.030
218.694	24.681	1197.767	941.806
219.709	24.686	1197.342	941.413
220.723	24.856	1196.364	941.459
221.738	25.058	1194.908	941.289
222.753	24.905	1193.239	939.089
223.767	24.515	1193.750	937.358
224.782	24.982	1192.788	938.971
225.796	25.103	1193.329	939.946
226.811	24.822	1192.237	937.533
227.826	24.842	1192.181	937.511
228.840	24.687	1191.391	935.994
229.855	24.377	1190.896	933.902
230.869	24.470	1188.506	932.428
231.884	24.777	1187.519	933.173
232.899	24.474	1186.859	930.991
233.913	24.359	1187.342	930.689
234.928	24.514	1186.124	930.460
235.942	24.227	1185.588	928.461
236.957	24.294	1184.383	927.785
237.972	24.137	1183.272	926.020
238.986	24.137	1183.425	926.056
240.001	24.118	1182.726	925.326
241.015	24.170	1182.146	925.062
242.030	24.365	1181.310	925.337
243.045	24.819	1179.734	926.371
244.059	24.560	1180.639	925.656
245.074	24.753	1179.659	925.807
246.088	24.831	1178.718	925.391
247.103	25.041	1177.193	925.194
248.117	24.972	1177.007	924.610
249.132	25.072	1176.715	924.815
250.147	25.192	1176.347	925.063
251.161	25.336	1176.309	925.693
252.176	25.563	1174.186	925.110
253.190	25.437	1174.984	925.009
254.205	25.239	1174.446	923.482
255.220	25.616	1174.055	925.035
256.234	25.590	1173.379	924.283
257.249	25.618	1172.299	923.495
258.263	25.604	1170.768	922.137
259.278	25.170	1171.714	920.572
260.293	25.394	1170.474	920.667
261.307	25.404	1170.591	920.728
262.322	25.486	1169.001	919.814
263.336	25.399	1168.642	919.006
264.351	25.555	1168.417	919.548
265.366	25.394	1167.544	917.954
266.380	25.368	1167.411	917.635
267.395	25.700	1165.624	917.845
268.409	25.364	1165.027	915.581
269.424	25.237	1164.351	914.320
270.439	25.282	1164.611	914.675
271.453	25.215	1163.506	913.382
272.468	25.088	1163.044	912.291
273.482	25.269	1161.228	911.709
274.497	25.206	1160.825	910.990
275.512	25.167	1159.971	910.043
276.526	24.991	1159.169	908.441
277.541	24.941	1158.321	907.440
278.555	25.221	1158.020	908.546
279.570	25.269	1158.381	908.992
280.585	25.624	1157.094	909.694
281.599	25.580	1156.058	908.578
282.614	25.315	1155.407	906.646
283.628	25.397	1153.210	905.257
284.643	25.020	1153.426	903.444
285.657	25.205	1152.235	903.366
286.672	25.102	1151.791	902.419
287.687	25.400	1150.339	902.699
288.701	25.258	1149.939	901.591
289.716	25.284	1149.549	901.338
290.730	25.554	1147.324	900.864
291.745	24.921	1148.356	898.421
292.760	25.336	1147.469	899.729
293.774	25.327	1146.560	898.890
294.789	25.493	1146.398	899.513
295.803	25.820	1146.484	901.140
296.818	25.259	1145.647	897.596
297.833	25.213	1144.318	896.243
298.847	25.307	1143.453	895.959
299.862	25.125	1143.112	894.700
300.876	25.210	1141.526	893.806
301.891	25.207	1141.810	893.936
302.906	25.582	1140.978	895.071
303.920	25.798	1141.139	896.193
304.935	25.550	1139.922	893.923
305.949	25.694	1139.507	894.234
306.964	26.054	1138.315	895.005
307.979	25.522	1138.103	892.122
308.993	25.489	1136.824	890.877
310.008	25.516	1136.498	890.677
311.022	25.806	1134.887	890.767
312.037	25.434	1135.396	889.247
313.052	25.722	1133.694	889.263
314.066	25.454	1132.329	886.790
315.081	24.938	1132.911	884.617
316.095	25.018	1131.781	884.051
317.110	25.336	1130.218	884.319
318.125	25.366	1129.120	883.528
319.139	25.462	1127.980	883.030
320.154	25.088	1129.091	881.983
321.168	24.780	1128.890	880.232
322.183	25.065	1127.622	880.567
323.197	25.237	1126.043	880.097
324.212	25.314	1126.582	880.822
325.227	25.467	1125.750	880.844
326.241	25.403	1125.874	880.548
327.256	25.224	1124.093	878.198
328.270	25.147	1124.276	877.890
329.285	25.124	1121.858	875.812
330.300	25.370	1122.366	877.332
331.314	25.496	1120.732	876.593
332.329	25.236	1120.681	875.204
333.343	25.338	1119.319	874.563
334.358	25.546	1119.216	875.417
335.373	25.673	1119.154	875.911
336.387	25.751	1118.285	875.532
337.402	25.667	1117.703	874.588
338.416	25.901	1115.310	873.772
339.431	25.852	1115.773	873.820
340.446	25.825	1116.199	873.949
341.460	25.992	1115.740	874.319
342.475	26.203	1113.926	873.843
343.489	25.824	1113.481	871.585
344.504	26.146	1112.973	872.663
345.519	26.287	1110.827	871.585
346.533	26.050	1111.449	870.852
347.548	26.108	1110.982	870.691
348.562	25.990	1110.239	869.463
349.577	25.720	1108.414	866.653
350.592	25.754	1106.284	865.075
351.606	25.385	1107.712	864.342
352.621	25.226	1106.280	862.381
353.635	25.360	1104.958	861.920
354.650	25.107	1105.075	860.717
355.665	25.316	1103.941	860.762
356.679	25.768	1102.870	862.016
357.694	25.547	1103.071	861.040
358.708	25.922	1101.967	861.894
359.723	26.027	1101.300	861.796
360.738	25.686	1101.761	860.452
361.752	25.915	1100.459	860.450
362.767	25.885	1099.146	859.207
363.781	25.619	1099.253	857.945
364.796	26.079	1098.350	859.356
365.810	26.107	1098.759	859.735
366.825	26.121	1097.954	859.095
367.840	26.391	1096.884	859.465
368.854	26.245	1097.705	859.338
369.869	26.267	1097.200	858.969
370.883	26.265	1094.802	857.006
371.898	26.182	1095.064	856.741
372.913	25.740	1094.673	854.264
373.927	26.024	1093.373	854.518
374.942	25.915	1093.911	854.346
375.956	26.303	1092.766	855.215
376.971	25.755	1092.341	852.213
377.986	25.991	1091.421	852.535
379.000	26.280	1091.031	853.521
380.015	26.624	1090.514	854.665
381.029	26.376	1090.130	853.117
382.044	26.151	1089.521	851.506
383.059	26.254	1088.705	851.276
384.073	26.165	1088.304	850.471
385.088	26.726	1086.234	851.414
386.102	26.440	1086.071	849.865
387.117	25.975	1084.595	846.452
388.132	25.793	1084.361	845.345
389.146	26.001	1083.325	845.434
390.161	25.803	1082.155	843.519
391.175	25.943	1081.389	843.505
392.190	25.966	1081.250	843.428
393.205	26.218	1081.422	844.668
394.219	26.051	1081.014	843.490
395.234	26.082	1079.334	842.249
396.248	25.969	1077.761	840.423
397.263	25.568	1076.724	837.675
398.278	26.136	1075.569	839.343
399.292	25.800	1076.451	838.390
400.307	25.881	1075.409	837.883
401.321	25.982	1074.696	837.721
402.336	25.818	1073.105	835.648
403.350	25.366	1073.770	833.995
404.365	25.911	1073.076	835.910
405.380	25.975	1071.617	834.991
406.394	25.805	1071.253	833.851
407.409	25.866	1070.881	833.769
408.423	26.211	1070.121	834.698
409.438	26.400	1069.712	835.176
410.453	26.397	1069.153	834.653
411.467	26.637	1067.213	834.168
412.482	26.444	1066.881	832.949
413.496	26.863	1066.320	834.368
414.511	26.471	1066.507	832.636
415.526	26.479	1066.318	832.448
416.540	26.548	1065.436	832.003
417.555	26.657	1064.928	832.036
418.569	26.335	1064.675	830.283
419.584	26.296	1064.633	829.999
420.599	26.434	1063.591	829.745
421.613	153.297	1404.410	1793.183
422.628	140.988	1454.043	1793.284
