DTS Sentinel unit serial number:	SN413079Multiplexer serial number:	ORYXHardware model number:	OX4-SRSoftware version number:	ORYX F/W v4.00 Oryx Data Collector v3.7.2.0data status	okinstallation	princeton_trtdifferential loss correction	single-endedforward channel	channel 2reverse channel	N/Adate	2019/09/11time	18:29:11forward acquisition time	60.00reverse acquisition time	0.00gamma	496.2192k internal	0.2286k external	0.2286temperature offset calibration	1.0024default loss term (dB/km)	0.3790temperature slope calibration	1.0000multiplexer offset coefficient	1.0000multiplexer slope coefficient	1.0000fibre end	0.00T internal ref (°C)	43.87T ext. ref 1 (°C)	1.16T ext. ref 2 (°C)	37.51length (m)	temperature (°C)	Stokes	anti-Stokes-747.200	-103.138	0.207	-0.050
-746.185	407.715	-0.063	0.136
-745.171	-148.676	0.204	0.017
-744.156	-34.312	0.278	0.156
-743.142	47.646	0.163	-0.156
-742.127	-142.517	0.176	-0.018
-741.112	-7.193	-0.116	-0.081
-740.098	742.940	-0.043	-0.117
-739.083	59.059	0.020	0.020
-738.069	-90.332	0.310	0.092
-737.054	-200.000	-0.045	0.290
-736.039	800.000	0.097	0.275
-735.025	-67.016	0.121	0.049
-734.010	83.634	-0.027	0.030
-732.996	-100.152	0.305	-0.078
-731.981	236.963	0.050	-0.085
-730.966	-70.681	-0.255	0.099
-729.952	101.527	-0.119	0.142
-728.937	-55.617	0.059	-0.027
-727.923	-56.666	-0.264	0.120
-726.908	327.581	0.097	-0.191
-725.894	32.493	0.117	-0.103
-724.879	107.579	-0.106	-0.130
-723.864	297.219	0.243	-0.458
-722.850	449.313	0.124	0.280
-721.835	-18.760	-0.081	0.052
-720.821	794.765	-0.135	-0.380
-719.806	-130.790	-0.150	-0.021
-718.791	-31.982	-0.446	0.256
-717.777	-66.095	0.211	-0.086
-716.762	324.977	0.064	-0.125
-715.748	-200.000	-0.047	-0.402
-714.733	449.748	0.050	0.113
-713.718	800.000	-0.029	-0.086
-712.704	571.888	-0.115	-0.288
-711.689	-108.459	0.286	-0.063
-710.675	-20.888	0.092	-0.058
-709.660	398.871	-0.053	0.113
-708.645	-82.946	-0.131	-0.043
-707.631	188.368	0.126	-0.192
-706.616	41.229	0.110	-0.102
-705.602	59.258	-0.101	-0.102
-704.587	-147.401	0.080	0.007
-703.572	-200.000	0.029	-0.192
-702.558	112.321	0.111	-0.138
-701.543	-114.278	0.078	0.015
-700.529	-165.526	-0.196	-0.009
-699.514	677.854	-0.046	0.123
-698.499	-200.000	-0.026	0.259
-697.485	800.000	-0.060	-0.211
-696.470	258.830	-0.095	0.169
-695.456	687.662	-0.055	-0.147
-694.441	-47.485	0.125	0.062
-693.426	-100.372	-0.171	0.043
-692.412	-166.663	-0.189	0.008
-691.397	-98.438	-0.188	-0.049
-690.383	-200.000	-0.045	-0.335
-689.368	-92.485	-0.263	0.076
-688.354	-200.000	-0.019	-0.158
-687.339	-59.250	0.291	-0.128
-686.324	384.224	0.061	-0.128
-685.310	-200.000	0.022	0.211
-684.295	-48.160	0.154	-0.076
-683.281	-72.863	0.215	0.081
-682.266	48.344	-0.268	0.257
-681.251	10.725	0.179	0.140
-680.237	52.169	0.170	-0.166
-679.222	127.425	0.054	-0.070
-678.208	-111.656	0.192	0.040
-677.193	138.744	-0.106	-0.143
-676.178	157.888	-0.099	-0.140
-675.164	-200.000	-0.040	-0.439
-674.149	-112.188	0.126	0.026
-673.135	19.260	-0.184	0.151
-672.120	-200.000	-0.004	0.143
-671.105	-97.833	-0.458	0.121
-670.091	-200.000	-0.024	-0.131
-669.076	800.000	0.030	-0.108
-668.062	-119.045	0.112	0.020
-667.047	-200.000	-0.026	0.350
-666.032	-89.213	0.461	-0.139
-665.018	800.000	0.024	-0.074
-664.003	-143.043	-0.083	0.008
-662.989	18.524	-0.071	-0.058
-661.974	97.767	-0.086	0.101
-660.959	-82.513	0.306	0.102
-659.945	800.000	-0.009	-0.034
-658.930	-106.440	0.281	-0.064
-657.916	-67.263	0.261	-0.105
-656.901	-61.454	0.391	0.168
-655.886	-36.500	0.099	0.054
-654.872	-80.147	0.482	0.165
-653.857	204.207	-0.139	-0.220
-652.843	23.415	-0.259	-0.218
-651.828	-200.000	-0.004	-0.103
-650.814	-125.188	-0.319	-0.050
-649.799	-200.000	-0.013	0.065
-648.784	22.976	-0.100	0.084
-647.770	-96.976	-0.285	0.076
-646.755	-200.000	0.005	-0.187
-645.741	11.211	0.224	0.175
-644.726	10.216	0.066	-0.052
-643.711	59.104	0.107	-0.108
-642.697	329.546	-0.123	0.241
-641.682	-146.283	-0.492	-0.044
-640.668	-200.000	0.030	-0.305
-639.653	98.044	-0.038	0.045
-638.638	800.000	-0.105	0.346
-637.624	433.355	0.115	0.254
-636.609	-19.199	0.120	0.076
-635.595	313.132	0.093	-0.178
-634.580	-37.494	-0.194	-0.106
-633.565	-200.000	0.015	0.135
-632.551	-32.214	-0.470	0.268
-631.536	-75.671	0.178	0.065
-630.522	349.131	0.054	-0.109
-629.507	20.092	-0.042	0.034
-628.492	280.480	0.164	-0.300
-627.478	133.608	0.130	0.172
-626.463	-75.126	-0.369	0.135
-625.449	-200.000	0.002	-0.139
-624.434	-58.969	-0.197	-0.087
-623.419	497.943	-0.106	-0.249
-622.405	-132.700	0.404	-0.053
-621.390	-71.927	0.081	0.031
-620.376	585.662	-0.075	0.189
-619.361	800.000	-0.086	0.250
-618.346	77.390	0.154	0.168
-617.332	-200.000	0.028	-0.242
-616.317	-200.000	0.043	-0.197
-615.303	-96.990	-0.245	0.066
-614.288	-21.460	0.193	-0.120
-613.273	-124.087	-0.110	-0.018
-612.259	-117.307	-0.312	0.058
-611.244	-89.413	-0.151	0.045
-610.230	20.296	0.224	0.185
-609.215	-180.440	-0.203	0.004
-608.201	-81.907	-0.291	-0.097
-607.186	-157.868	-0.295	0.018
-606.171	-139.394	0.225	-0.025
-605.157	136.761	-0.128	-0.170
-604.142	-200.000	-0.015	-0.216
-603.128	-46.718	-0.365	0.182
-602.113	214.205	-0.023	0.037
-601.098	10.274	0.304	-0.236
-600.084	-2.433	0.240	0.171
-599.069	296.456	0.125	0.233
-598.055	-200.000	-0.014	-0.107
-597.040	-110.262	-0.432	0.092
-596.025	-50.520	-0.100	0.048
-595.011	218.461	0.116	-0.189
-593.996	-83.045	-0.224	-0.074
-592.982	-54.715	0.192	-0.088
-591.967	85.403	-0.100	0.111
-590.952	-200.000	0.041	0.231
-589.938	161.798	-0.048	-0.068
-588.923	800.000	-0.037	-0.135
-587.909	359.080	-0.019	0.038
-586.894	-85.478	-0.051	-0.016
-585.879	-200.000	-0.018	0.111
-584.865	201.360	-0.090	-0.141
-583.850	800.000	-0.023	0.074
-582.836	-87.142	-0.265	0.082
-581.821	310.289	-0.076	-0.144
-580.806	-20.072	-0.240	-0.151
-579.792	-200.000	-0.001	0.022
-578.777	47.238	-0.080	-0.076
-577.763	800.000	0.042	-0.176
-576.748	37.556	0.090	0.081
-575.733	44.792	0.261	0.245
-574.719	534.183	-0.085	-0.206
-573.704	78.841	0.056	-0.061
-572.690	-131.125	-0.309	-0.042
-571.675	501.191	0.122	0.288
-570.661	-188.278	-0.287	-0.004
-569.646	2.540	0.090	0.066
-568.631	-63.796	-0.346	0.144
-567.617	-124.188	-0.042	-0.007
-566.602	166.284	-0.179	-0.258
-565.588	-74.667	-0.259	-0.095
-564.573	-133.839	-0.199	-0.025
-563.558	-63.248	0.157	-0.066
-562.544	-200.000	0.063	0.317
-561.529	800.000	0.078	-0.226
-560.515	27.111	-0.147	-0.126
-559.500	54.305	0.012	-0.012
-558.485	76.837	0.154	0.166
-557.471	63.348	-0.193	-0.198
-556.456	-137.943	-0.316	0.036
-555.442	-49.669	0.124	-0.060
-554.427	-187.165	-0.245	0.003
-553.412	299.205	-0.032	0.061
-552.398	-85.862	0.188	-0.059
-551.383	-51.984	-0.114	-0.054
-550.369	-40.817	-0.222	-0.117
-549.354	-123.783	0.388	0.063
-548.339	-200.000	0.018	0.254
-547.325	-106.318	-0.363	0.083
-546.310	268.221	0.116	-0.207
-545.296	-89.350	0.204	-0.061
-544.281	800.000	0.094	-0.281
-543.266	209.833	-0.097	-0.155
-542.252	-111.083	0.514	0.107
-541.237	-200.000	-0.038	-0.280
-540.223	-50.954	-0.110	-0.052
-539.208	-25.554	0.147	0.088
-538.193	731.716	-0.090	0.244
-537.179	138.145	-0.104	0.139
-536.164	415.775	0.091	0.198
-535.150	36.041	-0.173	-0.155
-534.135	-126.947	0.121	-0.018
-533.121	-200.000	0.028	0.247
-532.106	-191.161	-0.184	0.002
-531.091	433.125	0.044	0.098
-530.077	-165.003	-0.160	-0.007
-529.062	193.038	0.147	0.226
-528.048	-117.558	-0.201	-0.037
-527.033	-63.981	-0.174	0.072
-526.018	800.000	-0.144	0.454
-525.004	445.545	0.060	-0.134
-523.989	-142.004	-0.031	0.003
-522.975	-175.324	0.198	0.006
-521.960	-107.062	-0.225	0.050
-520.945	800.000	-0.066	0.185
-519.931	-0.322	-0.329	-0.238
-518.916	-69.115	-0.015	0.006
-517.902	800.000	0.099	-0.334
-516.887	-146.235	0.309	0.028
-515.872	-200.000	-0.010	-0.171
-514.858	-200.000	0.046	-0.377
-513.843	127.505	0.142	0.183
-512.829	-11.689	0.225	-0.151
-511.814	33.439	0.134	-0.119
-510.799	-70.079	0.139	0.054
-509.785	-2.306	-0.190	-0.135
-508.770	800.000	-0.090	-0.259
-507.756	136.864	-0.204	0.271
-506.741	-120.999	-0.211	-0.036
-505.726	-200.000	0.022	-0.113
-504.712	369.258	-0.117	-0.241
-503.697	147.497	-0.129	0.177
-502.683	-135.260	-0.150	-0.018
-501.668	68.568	-0.048	0.050
-500.653	142.677	0.078	0.106
-499.639	800.000	0.157	0.534
-498.624	51.481	0.154	-0.149
-497.610	-4.036	-0.105	0.074
-496.595	-200.000	0.003	0.181
-495.581	800.000	0.040	0.128
-494.566	-61.398	0.067	-0.029
-493.551	488.592	0.114	0.265
-492.537	-57.318	0.187	-0.083
-491.522	800.000	-0.075	0.245
-490.508	403.462	0.033	0.070
-489.493	-175.124	0.137	0.004
-488.478	-89.940	-0.307	-0.091
-487.464	-200.000	0.016	0.180
-486.449	-168.395	-0.138	0.005
-485.435	690.978	-0.075	-0.200
-484.420	-49.199	0.005	0.002
-483.405	142.556	-0.172	0.232
-482.391	-2.023	0.144	-0.103
-481.376	-98.287	0.270	-0.070
-480.362	551.062	-0.042	-0.103
-479.347	800.000	-0.070	0.252
-478.332	-200.000	0.032	0.305
-477.318	67.467	-0.128	-0.133
-476.303	51.462	-0.079	-0.077
-475.289	677.343	-0.034	0.089
-474.274	800.000	0.089	-0.265
-473.259	8.376	0.228	0.174
-472.245	94.758	-0.117	0.136
-471.230	-200.000	-0.063	0.292
-470.216	-71.010	0.188	-0.072
-469.201	-200.000	0.008	-0.095
-468.186	-19.537	-0.195	-0.123
-467.172	-200.000	-0.026	-0.175
-466.157	50.310	0.282	-0.271
-465.143	-59.622	0.189	0.082
-464.128	47.742	0.153	0.145
-463.113	-200.000	-0.067	-0.298
-462.099	-159.324	-0.182	-0.010
-461.084	-200.000	0.038	-0.253
-460.070	800.000	-0.050	-0.212
-459.055	165.086	-0.224	0.321
-458.040	179.879	-0.059	-0.088
-457.026	-3.063	-0.125	0.088
-456.011	49.164	0.136	-0.130
-454.997	56.447	0.085	-0.084
-453.982	-200.000	-0.003	-0.029
-452.968	800.000	-0.093	-0.303
-451.953	-54.849	0.216	-0.099
-450.938	-17.202	0.103	-0.066
-449.924	4.239	-0.355	0.264
-448.909	411.413	-0.140	-0.301
-447.895	-29.067	-0.280	-0.163
-446.880	-200.000	0.023	-0.157
-445.865	-200.000	0.093	0.420
-444.851	166.607	-0.066	-0.094
-443.836	-114.746	0.102	0.020
-442.822	373.532	-0.043	0.089
-441.807	-200.000	0.002	0.050
-440.792	800.000	0.083	-0.250
-439.778	19.147	-0.077	-0.063
-438.763	800.000	-0.056	0.208
-437.749	539.474	0.049	0.118
-436.734	343.160	-0.091	0.181
-435.719	-160.154	-0.411	0.023
-434.705	800.000	-0.125	-0.462
-433.690	405.142	0.090	0.193
-432.676	-91.025	0.254	0.074
-431.661	-66.137	0.102	-0.041
-430.646	800.000	0.048	0.212
-429.632	377.848	-0.138	-0.286
-428.617	239.763	0.145	-0.244
-427.603	167.110	-0.221	-0.318
-426.588	-10.983	0.073	-0.049
-425.573	-43.876	0.149	0.076
-424.559	438.224	0.134	-0.297
-423.544	-89.959	0.061	-0.018
-422.530	-1.024	0.185	-0.133
-421.515	-130.991	0.242	-0.033
-420.500	527.950	-0.074	0.178
-419.486	-99.395	-0.206	-0.053
-418.471	-173.865	-0.233	0.007
-417.457	235.598	-0.098	0.164
-416.442	-200.000	-0.006	-0.049
-415.428	316.713	-0.053	-0.101
-414.413	3.194	0.120	-0.088
-413.398	-200.000	0.006	0.133
-412.384	96.821	-0.114	-0.133
-411.369	7.760	-0.163	-0.124
-410.355	76.243	-0.053	-0.056
-409.340	800.000	0.104	0.294
-408.325	56.756	-0.035	-0.035
-407.311	-11.340	0.237	0.158
-406.296	-78.607	0.238	-0.083
-405.282	232.054	-0.048	-0.080
-404.267	800.000	0.013	-0.054
-403.252	-29.248	-0.097	0.056
-402.238	-200.000	-0.043	0.228
-401.223	800.000	0.056	0.234
-400.209	257.090	-0.122	-0.212
-399.194	-19.165	0.232	0.146
-398.179	-77.175	0.369	0.130
-397.165	246.191	-0.177	0.302
-396.150	92.951	0.199	-0.227
-395.136	-123.984	0.226	0.036
-394.121	800.000	0.074	0.323
-393.106	56.115	0.108	-0.106
-392.092	400.467	0.093	-0.198
-391.077	85.022	0.092	0.102
-390.063	-120.745	-0.131	-0.022
-389.048	-126.439	0.414	0.062
-388.033	-53.659	0.199	-0.092
-387.019	-98.926	0.274	0.070
-386.004	-25.975	-0.112	0.067
-384.990	1.448	0.349	0.254
-383.975	-200.000	-0.053	0.242
-382.960	800.000	-0.082	-0.286
-381.946	-40.758	-0.042	-0.022
-380.931	-200.000	-0.019	-0.112
-379.917	-118.598	-0.110	-0.020
-378.902	327.809	-0.067	-0.130
-377.888	-130.756	0.079	-0.011
-376.873	-26.642	0.396	0.235
-375.858	-40.120	0.237	-0.125
-374.844	40.624	-0.300	-0.274
-373.829	11.750	0.268	0.208
-372.815	98.771	0.270	0.315
-371.800	-134.488	0.198	-0.024
-370.785	-160.972	0.198	-0.011
-369.771	800.000	-0.026	0.110
-368.756	-81.293	-0.308	-0.103
-367.742	329.982	0.034	0.067
-366.727	28.980	-0.363	0.311
-365.712	-200.000	-0.003	-0.195
-364.698	95.917	0.243	0.281
-363.683	-200.000	0.003	-0.052
-362.669	800.000	0.154	-0.468
-361.654	-61.658	0.329	-0.139
-360.639	-39.827	-0.200	0.106
-359.625	-180.538	-0.334	0.007
-358.610	-100.093	-0.569	-0.143
-357.596	-91.473	-0.172	0.050
-356.581	211.903	-0.173	-0.275
-355.566	273.696	-0.181	0.324
-354.552	-52.866	-0.119	-0.055
-353.537	-200.000	0.015	0.093
-352.523	-70.200	0.182	0.070
-351.508	800.000	-0.042	0.149
-350.493	-57.504	0.178	0.079
-349.479	-13.155	0.155	-0.101
-348.464	285.468	0.029	-0.053
-347.450	-71.618	0.308	0.116
-346.435	304.862	0.047	0.089
-345.420	110.945	-0.037	-0.045
-344.406	-57.494	0.302	-0.134
-343.391	-31.150	0.182	0.103
-342.377	-16.405	0.210	-0.135
-341.362	26.970	-0.321	0.272
-340.348	133.407	-0.174	0.227
-339.333	800.000	0.038	-0.155
-338.318	-49.207	-0.250	0.121
-337.304	-200.000	0.033	0.217
-336.289	401.551	-0.142	0.301
-335.275	-43.870	0.157	-0.080
-334.260	-200.000	0.052	0.296
-333.245	211.762	-0.105	-0.167
-332.231	-37.339	0.141	-0.076
-331.216	-200.000	0.035	0.166
-330.202	-66.784	-0.086	0.034
-329.187	-32.270	0.199	-0.112
-328.172	63.638	-0.271	-0.275
-327.158	-33.204	0.299	-0.167
-326.143	-27.263	-0.271	-0.159
-325.129	-63.990	-0.426	0.176
-324.114	482.671	0.171	-0.391
-323.099	-155.651	-0.247	-0.016
-322.085	310.650	0.146	-0.276
-321.070	203.100	0.161	-0.251
-320.056	-200.000	0.013	0.132
-319.041	-200.000	0.000	-0.181
-318.026	388.887	0.055	0.115
-317.012	-88.231	0.358	0.108
-315.997	-12.134	-0.484	-0.320
-314.983	453.847	0.063	-0.141
-313.968	731.924	-0.062	-0.168
-312.953	-5.355	-0.255	0.177
-311.939	-200.000	-0.027	0.234
-310.924	-28.554	0.298	-0.173
-309.910	-66.520	0.082	0.033
-308.895	-200.000	-0.022	-0.235
-307.880	-200.000	-0.012	0.091
-306.866	-200.000	-0.047	0.268
-305.851	-34.024	-0.087	0.049
-304.837	16.732	0.086	0.068
-303.822	-107.589	-0.239	0.053
-302.807	511.763	0.071	0.166
-301.793	110.294	0.367	0.444
-300.778	540.577	0.077	-0.184
-299.764	312.812	-0.148	0.281
-298.749	-200.000	0.017	0.411
-297.735	-173.494	0.351	-0.011
-296.720	-21.900	-0.154	-0.094
-295.705	18.302	-0.131	0.105
-294.691	-142.141	0.093	0.009
-293.676	-52.367	-0.181	-0.085
-292.662	-63.640	0.441	-0.183
-291.647	-96.669	-0.047	-0.012
-290.632	706.389	-0.054	-0.143
-289.618	-118.508	-0.321	-0.057
-288.603	-109.165	0.262	-0.056
-287.589	-200.000	0.003	-0.031
-286.574	132.352	-0.045	0.058
-285.559	-94.304	0.301	-0.083
-284.545	318.333	0.292	-0.556
-283.530	-157.852	0.183	-0.011
-282.516	11.213	0.174	-0.134
-281.501	68.969	-0.193	-0.200
-280.486	-37.396	-0.149	-0.080
-279.472	-168.727	-0.417	0.016
-278.457	-200.000	0.038	0.334
-277.443	159.164	0.040	0.056
-276.428	-119.861	0.078	-0.014
-275.413	800.000	0.038	-0.111
-274.399	-73.833	-0.048	0.018
-273.384	42.150	-0.156	0.143
-272.370	-107.024	0.209	-0.046
-271.355	-82.505	0.045	0.015
-270.340	-111.906	0.160	-0.032
-269.326	-90.742	0.230	0.067
-268.311	47.483	-0.088	-0.083
-267.297	28.565	-0.332	-0.283
-266.282	134.883	0.072	0.094
-265.267	136.170	-0.092	0.121
-264.253	52.702	0.066	0.064
-263.238	181.856	0.110	-0.163
-262.224	-10.556	0.154	-0.103
-261.209	45.398	-0.086	-0.080
-260.195	-200.000	-0.031	-0.220
-259.180	-73.429	0.313	0.115
-258.165	122.129	-0.059	0.074
-257.151	222.171	-0.093	0.151
-256.136	174.943	-0.107	0.155
-255.122	505.939	0.071	-0.165
-254.107	207.438	0.294	0.462
-253.092	13.939	0.158	0.124
-252.078	-200.000	-0.007	-0.238
-251.063	-145.432	0.099	0.009
-250.049	-200.000	0.024	0.197
-249.034	280.976	0.166	0.299
-248.019	-200.000	-0.027	0.135
-247.005	55.938	0.114	0.111
-245.990	27.700	0.036	-0.030
-244.976	408.360	0.080	0.170
-243.961	-55.936	0.211	0.095
-242.946	-200.000	0.016	-0.179
-241.932	148.886	0.171	-0.233
-240.917	-21.631	-0.315	0.193
-239.903	-47.015	0.227	-0.112
-238.888	25.412	-0.112	-0.094
-237.873	800.000	-0.110	0.462
-236.859	-86.165	0.199	-0.062
-235.844	570.479	0.076	-0.187
-234.830	-89.474	-0.056	-0.016
-233.815	-88.446	0.242	-0.073
-232.800	-200.000	0.051	0.314
-231.786	-200.000	0.019	-0.218
-230.771	12.383	0.296	-0.230
-229.757	87.048	0.122	-0.135
-228.742	-200.000	0.024	-0.259
-227.727	-21.921	-0.314	0.192
-226.713	-145.312	0.114	-0.010
-225.698	684.144	-0.123	0.323
-224.684	101.464	-0.033	0.039
-223.669	-200.000	0.052	0.233
-222.655	682.071	0.065	-0.170
-221.640	433.022	0.120	-0.261
-220.625	164.927	-0.013	-0.019
-219.611	554.636	0.135	0.327
-218.596	-34.028	-0.170	0.094
-217.582	428.020	0.047	-0.103
-216.567	82.284	-0.084	-0.092
-215.552	800.000	0.051	0.152
-214.538	31.326	0.268	0.231
-213.523	-106.755	-0.225	0.050
-212.509	124.440	-0.175	-0.221
-211.494	93.778	0.163	-0.185
-210.479	-121.071	0.241	-0.041
-209.465	1.854	0.235	-0.170
-208.450	68.273	-0.087	-0.089
-207.436	800.000	-0.068	-0.276
-206.421	-200.000	0.003	-0.337
-205.406	-200.000	-0.014	0.195
-204.392	-32.664	0.199	-0.112
-203.377	800.000	-0.065	-0.240
-202.363	-175.806	-0.144	0.004
-201.348	3.103	0.358	-0.262
-200.333	12.573	-0.173	-0.134
-199.319	120.208	0.142	0.176
-198.304	422.052	-0.122	0.263
-197.290	-97.140	-0.224	-0.059
-196.275	418.874	0.117	0.252
-195.260	-38.128	0.120	-0.064
-194.246	297.179	0.147	0.270
-193.231	800.000	0.078	0.342
-192.217	-65.018	-0.349	0.142
-191.202	-200.000	-0.050	-0.265
-190.187	800.000	-0.076	0.282
-189.173	-169.768	-0.152	-0.005
-188.158	-191.198	-0.170	-0.002
-187.144	-143.447	-0.241	-0.023
-186.129	-23.973	0.164	-0.099
-185.114	395.492	0.130	0.272
-184.100	232.703	0.055	0.091
-183.085	-37.563	0.068	0.036
-182.071	-93.698	0.267	-0.074
-181.056	-200.000	-0.036	-0.188
-180.042	-105.190	0.194	0.044
-179.027	-113.831	-0.264	0.052
-178.012	-164.137	0.249	-0.012
-176.998	-62.259	0.102	0.043
-175.983	8.788	0.102	-0.077
-174.969	2.388	-0.359	0.261
-173.954	-128.701	-0.197	-0.028
-172.939	-79.796	0.382	-0.129
-171.925	-200.000	-0.031	0.288
-170.910	-77.780	-0.139	0.048
-169.896	-200.000	-0.008	-0.292
-168.881	-67.760	-0.118	-0.046
-167.866	-63.704	-0.041	0.017
-166.852	117.892	0.125	0.154
-165.837	66.308	0.092	0.094
-164.823	-97.234	-0.300	-0.079
-163.808	-180.841	0.271	0.006
-162.793	-11.841	0.048	0.032
-161.779	-200.000	-0.061	-0.292
-160.764	56.995	0.271	-0.265
-159.750	-29.608	-0.174	-0.100
-158.735	-74.251	-0.278	0.101
-157.720	-200.000	-0.025	0.486
-156.706	-17.655	0.125	0.079
-155.691	-200.000	-0.056	-0.283
-154.677	-200.000	0.009	-0.169
-153.662	-5.386	0.046	-0.032
-152.647	-200.000	-0.035	-0.378
-151.633	-124.005	-0.469	-0.074
-150.618	203.023	0.133	0.206
-149.604	800.000	0.041	0.127
-148.589	-95.127	-0.240	-0.065
-147.574	532.075	0.119	0.282
-146.560	-166.326	0.053	0.002
-145.545	-7.736	-0.136	-0.092
-144.531	-2.416	0.351	-0.246
-143.516	170.163	0.164	-0.235
-142.502	482.456	-0.244	-0.555
-141.487	-60.691	0.155	0.066
-140.472	574.171	-0.102	0.249
-139.458	-116.339	-0.028	-0.005
-138.443	80.331	0.255	0.275
-137.429	402.194	0.072	0.152
-136.414	94.189	-0.193	0.220
-135.399	10.130	0.067	-0.051
-134.385	-200.000	-0.006	-0.092
-133.370	-81.492	-0.098	-0.032
-132.356	-200.000	-0.030	-0.209
-131.341	49.046	-0.127	0.119
-130.326	90.598	0.208	-0.234
-129.312	777.247	-0.048	-0.131
-128.297	-98.709	0.416	-0.106
-127.283	131.383	0.217	0.279
-126.268	-172.207	0.129	0.004
-125.253	-3.729	-0.182	-0.127
-124.239	221.341	0.207	0.333
-123.224	-43.698	0.093	0.047
-122.210	7.057	-0.221	0.165
-121.195	-87.472	-0.075	0.023
-120.180	695.942	0.079	-0.207
-119.166	64.862	0.293	-0.296
-118.151	98.372	0.012	-0.014
-117.137	710.991	0.022	-0.059
-116.122	800.000	0.005	0.020
-115.107	-58.351	0.171	0.075
-114.093	-200.000	0.042	0.298
-113.078	-200.000	0.052	0.252
-112.064	-200.000	-0.006	0.037
-111.049	387.165	0.029	0.060
-110.034	-68.631	0.150	-0.058
-109.020	-55.791	-0.118	-0.053
-108.005	-114.187	0.289	0.056
-106.991	-102.294	-0.229	0.055
-105.976	-75.071	-0.141	-0.050
-104.962	-80.515	0.186	0.062
-103.947	-123.893	0.139	-0.022
-102.932	4.351	-0.113	0.083
-101.918	-144.704	-0.355	0.033
-100.903	42.295	0.136	0.124
-99.889	-180.859	0.271	-0.005
-98.874	800.000	0.143	0.457
-97.859	-112.214	0.120	0.024
-96.845	118.322	-0.070	-0.087
-95.830	-57.567	0.229	0.100
-94.816	-91.561	-0.110	0.031
-93.801	800.000	0.059	-0.213
-92.786	60.265	-0.235	0.232
-91.772	513.937	-0.018	0.043
-90.757	196.572	-0.252	-0.385
-89.743	-28.832	-0.193	-0.111
-88.728	800.000	0.017	-0.052
-87.713	-48.603	-0.272	-0.131
-86.699	606.298	-0.100	0.248
-85.684	-22.168	0.231	0.140
-84.670	-62.093	0.167	0.070
-83.655	800.000	0.035	0.141
-82.640	300.725	0.145	0.267
-81.626	-101.922	-0.010	0.002
-80.611	-200.000	-0.017	0.119
-79.597	81.410	-0.190	0.206
-78.582	471.473	0.145	0.327
-77.567	800.000	0.043	0.118
-76.553	-200.000	0.000	0.328
-75.538	124.224	0.160	0.201
-74.524	432.885	0.074	-0.160
-73.509	-200.000	-0.025	-0.154
-72.494	117.113	0.107	0.132
-71.480	98.852	-0.100	0.115
-70.465	800.000	-0.056	-0.224
-69.451	-200.000	-0.002	-0.286
-68.436	-200.000	-0.030	0.151
-67.422	-200.000	-0.018	-0.189
-66.407	-141.311	0.072	0.007
-65.392	-200.000	-0.052	-0.307
-64.378	-144.289	-0.083	0.008
-63.363	674.472	-0.119	0.308
-62.349	-15.830	-0.129	-0.082
-61.334	-58.881	-0.540	-0.233
-60.319	592.486	0.146	0.360
-59.305	-200.000	0.063	-0.728
-58.290	69.027	0.339	0.348
-57.276	418.530	0.772	1.649
-56.261	-200.000	72.553	532.128
-55.246	598.773	1276.231	3161.897
-54.232	145.901	2502.735	3352.024
-53.217	114.161	2341.921	2846.449
-52.203	53.680	1960.004	1879.333
-51.188	47.546	1748.548	1628.529
-50.173	44.474	1701.120	1560.762
-49.159	57.877	1732.458	1693.242
-48.144	64.433	1751.046	1761.891
-47.130	47.200	1716.187	1595.469
-46.115	43.859	1702.566	1557.111
-45.100	43.741	1697.180	1551.220
-44.086	43.603	1695.183	1548.281
-43.071	43.704	1692.651	1546.677
-42.057	43.687	1689.630	1543.723
-41.042	43.714	1687.976	1542.358
-40.027	43.679	1686.298	1540.496
-39.013	43.679	1683.944	1538.288
-37.998	43.752	1681.791	1536.810
-36.984	43.736	1680.886	1535.800
-35.969	43.857	1678.899	1534.844
-34.954	43.823	1677.876	1533.590
-33.940	43.907	1675.459	1531.956
-32.925	43.843	1673.983	1530.062
-31.911	43.895	1672.044	1528.623
-30.896	43.766	1670.864	1526.505
-29.881	43.924	1668.922	1525.863
-28.867	43.838	1667.296	1523.672
-27.852	43.900	1665.499	1522.433
-26.838	43.804	1664.347	1520.596
-25.823	43.975	1662.622	1520.241
-24.809	43.993	1661.070	1518.900
-23.794	43.928	1660.007	1517.378
-22.779	43.876	1658.440	1515.495
-21.765	43.968	1656.173	1514.055
-20.750	43.848	1654.762	1511.807
-19.736	43.868	1653.534	1510.774
-18.721	44.003	1651.897	1510.225
-17.706	43.954	1649.928	1508.000
-16.692	43.817	1648.766	1505.858
-15.677	43.915	1647.003	1504.922
-14.663	43.939	1645.971	1504.093
-13.648	43.983	1644.382	1502.911
-12.633	43.896	1643.162	1501.088
-11.619	43.923	1641.461	1499.675
-10.604	43.961	1639.613	1498.209
-9.590	43.946	1638.981	1497.460
-8.575	43.902	1637.314	1495.552
-7.560	43.867	1636.170	1494.191
-6.546	43.892	1634.857	1493.120
-5.531	43.847	1633.757	1491.726
-4.517	43.870	1632.319	1490.520
-3.502	43.883	1631.253	1489.584
-2.487	43.994	1629.834	1489.042
-1.473	43.719	1618.083	1476.244
-0.458	40.771	1597.039	1435.715
0.556	35.487	1593.493	1392.972
1.571	32.273	1615.982	1388.803
2.586	31.112	1630.758	1392.723
3.600	27.307	1578.416	1320.344
4.615	15.070	1457.652	1136.656
5.629	3.552	1380.994	1002.314
6.644	1.346	1370.533	980.402
7.659	1.189	1368.670	977.968
8.673	1.098	1367.675	976.589
9.688	1.007	1366.077	974.774
10.702	0.786	1363.523	971.447
11.717	4.564	1371.048	1001.088
12.731	15.524	1392.473	1088.000
13.746	23.642	1406.291	1151.591
14.761	24.912	1407.019	1160.322
15.775	25.172	1406.393	1161.387
16.790	25.063	1406.155	1160.383
17.804	25.129	1405.051	1159.800
18.819	25.272	1405.772	1161.217
19.834	25.339	1404.524	1160.513
20.848	25.435	1403.132	1159.882
21.863	25.392	1402.973	1159.369
22.877	25.444	1401.467	1158.358
23.892	25.332	1401.326	1157.420
24.907	25.413	1400.492	1157.150
25.921	25.363	1398.723	1155.263
26.936	25.416	1398.445	1155.273
27.950	25.381	1397.298	1153.995
28.965	25.398	1396.048	1152.975
29.980	25.412	1394.496	1151.679
30.994	25.393	1393.132	1150.328
32.009	25.443	1392.129	1149.716
33.023	25.418	1390.768	1148.331
34.038	25.460	1389.266	1147.260
35.053	25.475	1388.262	1146.422
36.067	25.494	1387.746	1146.020
37.082	25.378	1386.656	1144.274
38.096	25.374	1385.864	1143.495
39.111	25.380	1385.161	1142.854
40.126	25.391	1384.402	1142.195
41.140	25.492	1383.749	1142.196
42.155	25.429	1383.459	1141.455
43.169	25.342	1383.444	1140.794
44.184	25.399	1383.159	1140.819
45.199	25.275	1383.018	1139.812
46.213	25.420	1382.213	1139.968
47.228	25.431	1380.858	1138.822
48.242	25.346	1379.878	1137.371
49.257	25.411	1378.354	1136.424
50.271	25.504	1376.712	1135.558
51.286	25.491	1375.273	1134.188
52.301	25.444	1374.486	1133.142
53.315	25.301	1374.283	1131.973
54.330	25.374	1372.977	1131.257
55.344	25.480	1371.543	1130.645
56.359	25.407	1370.425	1129.165
57.374	25.375	1370.196	1128.675
58.388	25.448	1369.331	1128.321
59.403	25.458	1368.780	1127.828
60.417	25.363	1368.341	1126.773
61.432	25.365	1367.738	1126.189
62.447	25.395	1366.517	1125.271
63.461	25.407	1365.567	1124.467
64.476	25.339	1364.978	1123.454
65.490	25.373	1363.380	1122.250
66.505	25.409	1361.950	1121.199
67.520	25.427	1360.851	1120.309
68.534	25.404	1359.494	1118.951
69.549	25.470	1358.698	1118.606
70.563	25.477	1357.419	1117.497
71.578	25.393	1356.972	1116.511
72.593	25.464	1355.770	1115.861
73.607	25.479	1354.982	1115.207
74.622	25.416	1354.197	1114.075
75.636	25.436	1353.367	1113.413
76.651	25.399	1353.042	1112.819
77.666	25.406	1352.907	1112.655
78.680	25.474	1351.988	1112.221
79.695	25.480	1350.838	1111.211
80.709	25.485	1350.370	1110.761
81.724	25.403	1349.732	1109.629
82.739	25.540	1348.670	1109.502
83.753	25.379	1347.884	1107.768
84.768	25.369	1346.801	1106.718
85.782	25.441	1345.278	1105.808
86.797	25.400	1344.440	1104.773
87.812	25.421	1343.133	1103.729
88.826	25.342	1342.540	1102.661
89.841	25.475	1341.170	1102.252
90.855	25.469	1339.940	1101.105
91.870	25.490	1339.123	1100.465
92.884	25.435	1338.654	1099.648
93.899	25.498	1337.574	1099.048
94.914	25.349	1337.244	1097.768
95.928	25.440	1336.592	1097.692
96.943	25.504	1335.370	1096.982
97.957	25.561	1334.383	1096.425
98.972	25.509	1333.672	1095.426
99.987	25.498	1332.544	1094.335
101.001	25.364	1332.201	1093.140
102.016	25.451	1330.706	1092.346
103.030	25.411	1330.294	1091.669
104.045	25.398	1329.434	1090.789
105.060	25.513	1328.494	1090.614
106.074	25.433	1327.417	1089.153
107.089	25.457	1326.451	1088.405
108.103	25.488	1325.599	1087.797
109.118	25.560	1323.855	1086.708
110.133	25.501	1323.121	1085.654
111.147	25.440	1322.059	1084.315
112.162	25.641	1320.425	1084.092
113.176	25.553	1319.780	1082.934
114.191	25.574	1318.551	1081.959
115.206	25.526	1317.713	1080.887
116.220	25.548	1316.490	1079.919
117.235	25.422	1316.124	1078.765
118.249	25.434	1314.904	1077.746
119.264	25.431	1314.465	1077.271
120.279	25.503	1313.367	1076.709
121.293	25.579	1312.120	1076.047
122.308	25.631	1311.553	1075.793
123.322	25.717	1310.907	1075.684
124.337	25.524	1310.382	1074.007
125.352	25.638	1309.341	1073.734
126.366	25.639	1308.203	1072.713
127.381	25.639	1307.454	1072.008
128.395	25.711	1306.131	1071.252
129.410	25.711	1305.726	1070.827
130.424	25.640	1304.852	1069.597
131.439	25.589	1304.377	1068.805
132.454	25.624	1303.344	1068.071
133.468	25.647	1303.027	1067.854
134.483	25.595	1302.561	1067.073
135.497	25.666	1301.210	1066.290
136.512	25.614	1300.939	1065.667
137.527	25.595	1299.525	1064.300
138.541	25.828	1297.765	1064.145
139.556	25.662	1296.807	1062.281
140.570	25.549	1296.378	1061.171
141.585	25.740	1294.633	1060.772
142.600	25.526	1294.083	1058.969
143.614	25.714	1293.620	1059.603
144.629	25.526	1292.330	1057.350
145.643	25.668	1290.778	1056.819
146.658	25.550	1290.147	1055.516
147.673	25.568	1289.155	1054.712
148.687	25.617	1288.088	1054.035
149.702	25.502	1286.800	1052.217
150.716	25.499	1286.151	1051.574
151.731	25.587	1284.660	1050.774
152.746	25.624	1283.492	1049.944
153.760	25.677	1282.496	1049.344
154.775	25.554	1281.810	1047.973
155.789	25.514	1281.232	1047.176
156.804	25.542	1279.830	1046.102
157.819	25.519	1279.160	1045.326
158.833	25.644	1278.268	1045.233
159.848	25.609	1277.353	1044.188
160.862	25.577	1277.218	1043.800
161.877	25.631	1276.153	1043.152
162.892	25.710	1275.018	1042.585
163.906	25.755	1274.224	1042.108
164.921	25.737	1273.673	1041.460
165.935	25.695	1272.866	1040.466
166.950	25.667	1272.103	1039.586
167.964	25.592	1271.416	1038.500
168.979	25.654	1270.806	1038.270
169.994	25.685	1270.429	1038.049
171.008	25.691	1269.682	1037.379
172.023	25.719	1269.156	1037.020
173.037	25.753	1268.487	1036.576
174.052	25.757	1267.294	1035.535
175.067	25.724	1266.558	1034.652
176.081	25.633	1265.797	1033.415
177.096	25.734	1265.217	1033.432
178.110	25.689	1264.165	1032.221
179.125	25.757	1262.945	1031.520
180.140	25.800	1261.927	1030.843
181.154	25.756	1260.783	1029.567
182.169	25.703	1259.624	1028.226
183.183	25.650	1258.816	1027.176
184.198	25.756	1257.950	1026.981
185.213	25.742	1257.089	1026.110
186.227	25.798	1256.245	1025.650
187.242	25.847	1255.056	1024.867
188.256	25.828	1254.425	1024.152
189.271	25.741	1253.531	1022.838
190.286	25.712	1253.083	1022.218
191.300	25.684	1252.309	1021.335
192.315	25.724	1251.879	1021.120
193.329	25.719	1251.265	1020.503
194.344	25.766	1251.064	1020.514
195.359	25.871	1250.119	1020.246
196.373	25.743	1250.191	1019.493
197.388	25.813	1249.276	1019.051
198.402	25.799	1249.362	1018.951
199.417	25.644	1249.076	1017.750
200.432	25.751	1248.338	1017.664
201.446	25.864	1247.265	1017.336
202.461	25.704	1246.643	1015.837
203.475	25.764	1246.202	1015.723
204.490	25.832	1244.992	1015.032
205.504	25.760	1243.886	1013.634
206.519	25.842	1242.970	1013.260
207.534	25.876	1241.541	1012.200
208.548	25.848	1240.855	1011.393
209.563	25.800	1240.444	1010.696
210.577	25.847	1239.756	1010.311
211.592	25.860	1238.543	1009.306
212.607	25.904	1237.685	1008.767
213.621	25.872	1237.063	1007.988
214.636	25.841	1236.604	1007.350
215.650	25.814	1235.710	1006.385
216.665	25.901	1234.238	1005.582
217.680	25.918	1233.469	1004.961
218.694	25.907	1232.683	1004.169
219.709	25.956	1232.188	1003.952
220.723	25.922	1231.522	1003.132
221.738	25.857	1230.903	1002.177
222.753	25.780	1230.238	1001.118
223.767	25.931	1229.350	1001.145
224.782	25.986	1228.683	1000.821
225.796	25.939	1228.516	1000.331
226.811	26.024	1227.687	1000.043
227.826	26.006	1227.718	999.877
228.840	25.919	1226.487	998.307
229.855	26.050	1225.896	998.461
230.869	26.084	1224.764	997.637
231.884	25.975	1224.697	996.895
232.899	25.971	1223.784	996.039
233.913	26.047	1223.381	996.044
234.928	26.098	1222.773	995.744
235.942	26.074	1222.179	995.039
236.957	26.052	1221.448	994.235
237.972	26.042	1220.951	993.684
238.986	25.954	1220.364	992.636
240.001	25.957	1220.194	992.424
241.015	26.137	1218.952	992.316
242.030	26.198	1217.899	991.709
243.045	26.099	1217.127	990.449
244.059	26.160	1216.311	990.032
245.074	26.141	1215.890	989.496
246.088	26.108	1215.153	988.626
247.103	26.195	1213.866	987.971
248.117	26.179	1213.400	987.417
249.132	26.140	1212.314	986.233
250.147	26.231	1211.874	986.280
251.161	26.218	1211.084	985.484
252.176	26.208	1210.770	985.085
253.190	26.177	1210.336	984.477
254.205	26.262	1209.310	984.014
255.220	26.221	1208.873	983.352
256.234	26.251	1208.096	982.794
257.249	26.301	1207.630	982.602
258.263	26.235	1207.119	981.737
259.278	26.230	1206.539	981.154
260.293	26.232	1206.003	980.640
261.307	26.254	1205.545	980.304
262.322	26.294	1204.927	979.928
263.336	26.342	1203.717	979.117
264.351	26.248	1203.344	978.217
265.366	26.302	1203.009	978.151
266.380	26.245	1202.335	977.211
267.395	26.204	1201.591	976.295
268.409	26.240	1200.648	975.639
269.424	26.307	1200.026	975.408
270.439	26.232	1199.988	974.888
271.453	26.345	1199.107	974.694
272.468	26.308	1198.511	973.922
273.482	26.295	1197.408	972.871
274.497	26.432	1196.772	973.004
275.512	26.487	1196.371	972.891
276.526	26.384	1195.753	971.748
277.541	26.428	1195.125	971.386
278.555	26.491	1194.385	971.040
279.570	26.452	1193.559	970.070
280.585	26.453	1192.816	969.389
281.599	26.426	1192.000	968.495
282.614	26.382	1191.141	967.472
283.628	26.440	1190.194	966.928
284.643	26.384	1189.713	966.155
285.657	26.397	1188.912	965.490
286.672	26.454	1187.960	964.931
287.687	26.518	1187.009	964.417
288.701	26.535	1186.301	963.847
289.716	26.485	1185.555	962.890
290.730	26.469	1185.456	962.641
291.745	26.532	1184.219	961.885
292.760	26.630	1183.893	962.055
293.774	26.655	1183.221	961.557
294.789	26.544	1182.716	960.469
295.803	26.532	1182.165	959.874
296.818	26.562	1181.437	959.356
297.833	26.644	1180.836	959.220
298.847	26.475	1180.421	957.903
299.862	26.675	1179.104	957.804
300.876	26.630	1178.743	957.192
301.891	26.646	1178.093	956.664
302.906	26.697	1177.302	956.203
303.920	26.735	1176.905	955.996
304.935	26.767	1175.963	955.319
305.949	26.656	1175.250	954.067
306.964	26.633	1174.758	953.464
307.979	26.678	1174.248	953.200
308.993	26.699	1173.700	952.783
310.008	26.673	1172.666	951.722
311.022	26.705	1172.284	951.495
312.037	26.787	1171.567	951.262
313.052	26.777	1170.278	950.076
314.066	26.757	1169.313	949.104
315.081	26.767	1168.561	948.465
316.095	26.742	1168.195	947.951
317.110	26.712	1167.579	947.213
318.125	26.725	1167.001	946.729
319.139	26.865	1166.286	946.792
320.154	26.866	1165.954	946.444
321.168	26.833	1165.271	945.638
322.183	26.748	1164.571	944.540
323.197	26.822	1164.398	944.701
324.212	26.865	1163.134	943.820
325.227	26.878	1163.141	943.808
326.241	26.887	1162.578	943.313
327.256	26.863	1161.762	942.442
328.270	26.871	1161.164	941.916
329.285	26.871	1159.801	940.726
330.300	26.881	1159.455	940.413
331.314	26.948	1158.272	939.717
332.329	26.953	1157.736	939.226
333.343	27.018	1156.552	938.520
334.358	27.030	1156.047	938.086
335.373	26.962	1155.435	937.159
336.387	27.119	1154.471	937.101
337.402	27.107	1154.082	936.640
338.416	27.046	1153.481	935.755
339.431	26.968	1152.837	934.751
340.446	27.084	1152.321	934.845
341.460	27.098	1151.611	934.262
342.475	27.024	1151.204	933.469
343.489	27.124	1149.701	932.680
344.504	27.139	1149.014	932.116
345.519	27.059	1148.160	930.929
346.533	27.187	1147.604	931.051
347.548	27.151	1146.602	929.973
348.562	27.163	1146.030	929.491
349.577	27.172	1145.075	928.676
350.592	27.000	1144.830	927.519
351.606	27.110	1143.749	927.119
352.621	27.153	1143.609	927.144
353.635	27.131	1143.003	926.458
354.650	27.151	1141.980	925.653
355.665	27.218	1141.063	925.167
356.679	27.241	1140.861	925.038
357.694	27.220	1140.422	924.491
358.708	27.173	1140.019	923.848
359.723	27.171	1138.858	922.813
360.738	27.238	1138.380	922.682
361.752	27.275	1137.972	922.458
362.767	27.228	1137.546	921.793
363.781	27.321	1136.869	921.633
364.796	27.275	1136.512	921.033
365.810	27.373	1135.413	920.555
366.825	27.365	1134.590	919.766
367.840	27.334	1134.371	919.351
368.854	27.502	1133.547	919.449
369.869	27.367	1133.225	918.424
370.883	27.517	1132.132	918.212
371.898	27.452	1131.520	917.308
372.913	27.460	1130.691	916.596
373.927	27.392	1130.480	916.003
374.942	27.504	1129.948	916.055
375.956	27.463	1129.710	915.574
376.971	27.520	1128.988	915.192
377.986	27.479	1128.482	914.494
379.000	27.493	1127.914	914.026
380.015	27.483	1127.559	913.609
381.029	27.518	1126.481	912.829
382.044	27.559	1126.256	912.768
383.059	27.446	1125.704	911.678
384.073	27.485	1124.764	911.031
385.088	27.437	1124.327	910.356
386.102	27.539	1123.116	909.803
387.117	27.623	1122.035	909.264
388.132	27.551	1121.571	908.452
389.146	27.511	1120.838	907.576
390.161	27.584	1120.208	907.349
391.175	27.614	1119.506	906.852
392.190	27.694	1118.673	906.491
393.205	27.530	1118.020	905.067
394.219	27.465	1117.520	904.263
395.234	27.709	1116.388	904.475
396.248	27.595	1116.010	903.522
397.263	27.734	1114.846	903.189
398.278	27.800	1113.898	902.669
399.292	27.816	1113.504	902.348
400.307	27.815	1113.027	901.874
401.321	27.724	1112.615	901.012
402.336	27.683	1111.694	899.986
403.350	27.749	1111.086	899.741
404.365	27.860	1110.501	899.732
405.380	27.773	1109.836	898.684
406.394	27.744	1109.299	898.028
407.409	27.870	1108.149	897.637
408.423	27.962	1107.512	897.494
409.438	27.953	1106.911	896.882
410.453	27.909	1106.336	896.125
411.467	27.919	1105.476	895.396
412.482	27.839	1104.739	894.328
413.496	28.018	1103.885	894.433
414.511	27.931	1103.413	893.545
415.526	28.034	1103.086	893.704
416.540	28.028	1102.551	893.166
417.555	27.870	1102.410	892.197
418.569	27.984	1101.801	892.186
419.584	28.078	1100.841	891.787
420.599	28.065	1100.717	891.543
421.613	76.775	1280.041	1303.901
422.628	71.908	1306.170	1304.054
