DTS Sentinel unit serial number:	SN413079Multiplexer serial number:	ORYXHardware model number:	OX4-SRSoftware version number:	ORYX F/W v4.00 Oryx Data Collector v3.7.2.0data status	okinstallation	princeton_trtdifferential loss correction	single-endedforward channel	channel 2reverse channel	N/Adate	2019/09/19time	10:15:34forward acquisition time	60.00reverse acquisition time	0.00gamma	496.2192k internal	0.2343k external	0.2343temperature offset calibration	1.0007default loss term (dB/km)	0.3790temperature slope calibration	1.0000multiplexer offset coefficient	1.0000multiplexer slope coefficient	1.0000fibre end	0.00T internal ref (°C)	24.06T ext. ref 1 (°C)	0.69T ext. ref 2 (°C)	19.80length (m)	temperature (°C)	Stokes	anti-Stokes-747.200	-174.122	-0.386	0.011
-746.185	-151.233	0.050	0.004
-745.171	208.331	-0.117	0.183
-744.156	-110.747	-0.132	0.027
-743.142	-119.265	0.133	-0.023
-742.127	-73.184	-0.281	-0.103
-741.112	16.899	0.261	-0.207
-740.098	800.000	-0.150	0.447
-739.083	365.599	-0.080	0.160
-738.069	747.838	-0.188	0.507
-737.054	-7.581	0.211	-0.143
-736.039	75.447	-0.202	-0.214
-735.025	-92.032	0.251	0.071
-734.010	-117.668	-0.450	-0.081
-732.996	421.904	0.071	-0.153
-731.981	-76.583	-0.142	-0.050
-730.966	-179.582	0.340	0.007
-729.952	-147.160	-0.138	-0.012
-728.937	336.554	0.078	-0.151
-727.923	-200.000	0.001	0.033
-726.908	-157.001	-0.136	-0.008
-725.894	-58.050	-0.102	0.045
-724.879	58.671	-0.277	-0.272
-723.864	600.635	0.093	0.231
-722.850	69.660	0.051	0.053
-721.835	800.000	-0.043	-0.167
-720.821	29.270	0.040	0.034
-719.806	-105.929	-0.203	0.046
-718.791	-200.000	-0.045	0.283
-717.777	-196.802	-0.321	0.002
-716.762	800.000	-0.013	-0.042
-715.748	-107.641	0.248	0.054
-714.733	-140.595	-0.174	-0.018
-713.718	-180.244	0.154	-0.003
-712.704	-29.437	-0.387	-0.221
-711.689	-23.314	-0.250	-0.150
-710.675	-200.000	0.029	-0.237
-709.660	545.424	0.115	0.274
-708.645	21.657	0.038	-0.031
-707.631	19.730	0.051	-0.041
-706.616	26.625	-0.214	-0.179
-705.602	-200.000	0.017	-0.282
-704.587	-99.010	-0.205	-0.052
-703.572	-117.643	0.089	-0.016
-702.558	800.000	0.046	-0.176
-701.543	-200.000	0.007	0.119
-700.529	-93.265	0.241	-0.067
-699.514	-19.624	-0.096	-0.059
-698.499	800.000	0.054	-0.201
-697.485	-13.883	-0.247	0.160
-696.470	-200.000	-0.031	0.275
-695.456	-119.182	-0.307	0.054
-694.441	-79.261	-0.080	0.027
-693.426	-176.226	0.041	0.001
-692.412	37.611	0.242	-0.214
-691.397	-74.614	-0.039	0.014
-690.383	-104.825	0.216	-0.050
-689.368	-67.598	-0.102	-0.040
-688.354	800.000	0.095	-0.326
-687.339	800.000	0.027	-0.114
-686.324	800.000	0.091	-0.299
-685.310	-64.371	0.172	0.070
-684.295	-75.883	-0.331	0.117
-683.281	58.171	-0.367	0.360
-682.266	10.076	-0.258	-0.196
-681.251	-44.560	-0.239	-0.119
-680.237	220.947	0.090	-0.144
-679.222	-167.943	0.204	-0.008
-678.208	60.161	0.077	-0.076
-677.193	-200.000	0.024	-0.181
-676.178	-61.362	-0.121	-0.051
-675.164	800.000	0.043	-0.181
-674.149	-200.000	0.038	0.224
-673.135	-200.000	-0.030	-0.383
-672.120	-200.000	-0.006	-0.249
-671.105	-126.007	-0.312	-0.047
-670.091	87.512	-0.275	-0.303
-669.076	-97.822	-0.295	0.076
-668.062	4.748	-0.039	0.028
-667.047	-200.000	0.050	-0.401
-666.032	-122.869	-0.222	-0.036
-665.018	20.443	-0.200	-0.162
-664.003	800.000	0.068	0.291
-662.989	-31.701	0.210	-0.118
-661.974	-90.452	0.131	0.038
-660.959	54.222	-0.100	0.096
-659.945	800.000	-0.056	-0.188
-658.930	-154.470	0.146	-0.010
-657.916	-200.000	0.004	-0.283
-656.901	-200.000	-0.001	0.209
-655.886	800.000	-0.024	-0.084
-654.872	800.000	0.058	0.179
-653.857	-21.721	0.145	-0.088
-652.843	-155.800	-0.216	-0.014
-651.828	800.000	-0.107	-0.375
-650.814	800.000	0.065	0.207
-649.799	333.221	0.031	-0.060
-648.784	-63.244	-0.134	-0.055
-647.770	-200.000	0.022	0.157
-646.755	-75.359	-0.311	0.111
-645.741	-63.666	0.225	0.092
-644.726	741.254	0.108	-0.289
-643.711	-200.000	-0.079	0.410
-642.697	121.711	-0.015	-0.018
-641.682	228.435	-0.109	0.176
-640.668	-55.711	0.223	-0.099
-639.653	272.138	0.096	-0.170
-638.638	87.350	-0.123	0.136
-637.624	-200.000	-0.013	-0.321
-636.609	-200.000	0.010	-0.202
-635.595	800.000	-0.028	-0.109
-634.580	-146.189	0.162	-0.014
-633.565	-56.243	-0.258	0.114
-632.551	800.000	0.065	0.222
-631.536	800.000	0.021	-0.057
-630.522	189.106	-0.095	0.143
-629.507	-120.195	0.047	0.008
-628.492	-28.998	-0.237	0.136
-627.478	57.544	0.077	-0.075
-626.463	47.141	0.153	0.142
-625.449	-200.000	-0.059	-0.350
-624.434	-200.000	0.007	0.138
-623.419	29.025	-0.182	-0.154
-622.405	98.292	-0.118	-0.136
-621.390	-73.957	-0.234	0.085
-620.376	367.398	-0.149	-0.299
-619.361	-200.000	-0.006	0.168
-618.346	800.000	-0.051	0.217
-617.332	800.000	-0.120	-0.431
-616.317	-57.902	-0.165	-0.072
-615.303	69.138	-0.262	0.268
-614.288	-88.017	0.482	0.144
-613.273	7.229	0.236	0.176
-612.259	-67.003	-0.256	0.101
-611.244	558.097	-0.053	0.128
-610.230	-77.968	0.297	-0.102
-609.215	48.864	-0.119	0.111
-608.201	-200.000	0.021	0.440
-607.186	77.424	-0.046	-0.049
-606.171	800.000	0.077	-0.221
-605.157	86.435	0.140	-0.154
-604.142	-200.000	0.007	-0.141
-603.128	-36.367	-0.147	-0.079
-602.113	800.000	-0.087	0.265
-601.098	-74.466	-0.217	0.078
-600.084	423.416	-0.130	-0.277
-599.069	83.472	0.139	0.151
-598.055	760.605	0.115	0.310
-597.040	-200.000	0.067	0.395
-596.025	-101.391	0.403	-0.098
-595.011	800.000	0.062	-0.250
-593.996	402.322	0.040	-0.083
-592.982	215.581	-0.067	-0.106
-591.967	-5.823	-0.239	-0.163
-590.952	800.000	0.087	0.328
-589.938	-155.906	0.195	0.012
-588.923	-37.377	-0.413	-0.220
-587.909	473.116	0.087	-0.196
-586.894	91.986	-0.328	0.367
-585.879	220.958	0.303	0.484
-584.865	206.057	-0.070	-0.109
-583.850	22.707	-0.179	-0.146
-582.836	326.690	0.153	0.292
-581.821	-141.044	-0.257	-0.026
-580.806	-170.012	-0.339	0.012
-579.792	-64.591	-0.164	0.066
-578.777	-200.000	-0.001	-0.135
-577.763	85.980	0.179	0.196
-576.748	-86.315	-0.193	0.059
-575.733	-200.000	-0.036	0.199
-574.719	800.000	-0.074	0.297
-573.704	68.060	0.051	0.052
-572.690	-89.547	0.028	-0.008
-571.675	800.000	0.036	-0.129
-570.661	96.162	0.123	-0.140
-569.646	45.135	-0.156	0.143
-568.631	3.669	0.109	0.079
-567.617	577.692	-0.117	-0.284
-566.602	-200.000	0.044	-0.202
-565.588	-200.000	0.046	-0.536
-564.573	36.124	0.072	0.063
-563.558	226.778	-0.106	-0.171
-562.544	800.000	-0.053	-0.184
-561.529	-200.000	0.011	0.166
-560.515	800.000	0.035	-0.133
-559.500	309.078	0.105	0.195
-558.485	-200.000	-0.062	-0.358
-557.471	201.176	-0.114	-0.174
-556.456	47.107	-0.198	0.183
-555.442	-124.127	-0.072	-0.011
-554.427	-93.879	-0.364	0.100
-553.412	-6.360	-0.031	0.021
-552.398	118.512	-0.255	-0.313
-551.383	-99.960	0.059	-0.015
-550.369	110.972	0.129	-0.154
-549.354	-100.530	0.165	-0.040
-548.339	-200.000	0.011	-0.136
-547.325	-200.000	0.009	-0.155
-546.310	-72.722	-0.309	0.113
-545.296	59.399	0.080	-0.078
-544.281	-82.335	-0.180	0.058
-543.266	172.404	-0.260	-0.371
-542.252	137.494	-0.079	-0.102
-541.237	127.502	-0.054	0.068
-540.223	-200.000	-0.046	-0.241
-539.208	91.462	-0.181	0.202
-538.193	-9.059	-0.106	-0.071
-537.179	-124.768	-0.238	-0.037
-536.164	-1.463	0.252	0.176
-535.150	379.025	0.162	0.329
-534.135	-119.138	-0.105	-0.018
-533.121	147.956	0.266	-0.356
-532.106	-6.522	0.024	-0.016
-531.091	43.255	-0.238	-0.216
-530.077	-54.075	-0.300	-0.136
-529.062	275.038	-0.109	0.191
-528.048	-29.602	0.046	-0.026
-527.033	533.966	0.106	0.249
-526.018	-200.000	0.011	0.171
-525.004	800.000	-0.042	-0.134
-523.989	-192.231	-0.158	0.001
-522.975	-200.000	-0.043	0.300
-521.960	17.723	-0.112	0.088
-520.945	578.941	0.049	0.119
-519.931	-3.853	0.212	-0.146
-518.916	44.929	-0.257	0.235
-517.902	208.242	0.030	0.047
-516.887	115.637	0.068	0.083
-515.872	-89.703	-0.170	-0.050
-514.858	52.709	-0.254	0.241
-513.843	-44.474	0.178	-0.088
-512.829	-58.013	-0.424	0.184
-511.814	-100.992	0.231	-0.056
-510.799	254.660	-0.227	-0.385
-509.785	211.465	-0.056	0.088
-508.770	-62.346	0.254	-0.105
-507.756	289.895	0.082	-0.147
-506.741	-67.789	-0.347	0.135
-505.726	-49.320	0.169	-0.080
-504.712	44.287	0.103	-0.094
-503.697	13.924	-0.058	0.045
-502.683	-99.582	0.346	-0.086
-501.668	800.000	-0.094	0.272
-500.653	371.038	-0.012	-0.025
-499.639	-133.114	-0.057	-0.007
-498.624	-1.845	-0.151	0.106
-497.610	157.124	-0.192	-0.263
-496.595	-31.370	-0.179	-0.100
-495.581	800.000	-0.077	0.308
-494.566	-37.642	0.072	0.038
-493.551	-126.353	0.356	0.053
-492.537	729.119	-0.149	0.395
-491.522	-80.561	-0.189	-0.062
-490.508	-49.212	-0.120	-0.057
-489.493	-85.965	-0.243	-0.075
-488.478	161.246	0.058	-0.081
-487.464	-63.986	-0.345	0.140
-486.449	100.334	0.241	0.277
-485.435	-53.846	0.354	0.160
-484.420	249.537	-0.046	-0.076
-483.405	-100.543	0.385	-0.094
-482.391	-163.640	-0.216	0.010
-481.376	32.029	0.256	0.218
-480.362	-7.226	0.178	0.119
-479.347	-15.291	-0.191	-0.121
-478.332	-87.101	0.091	0.027
-477.318	-146.976	0.157	-0.013
-476.303	-15.771	0.205	0.130
-475.289	-200.000	-0.006	0.226
-474.274	283.121	-0.041	0.072
-473.259	-46.631	-0.038	0.018
-472.245	-200.000	-0.015	0.064
-471.230	51.874	0.149	0.141
-470.216	800.000	0.102	0.284
-469.201	-200.000	-0.088	-0.505
-468.186	-22.147	0.043	-0.026
-467.172	30.988	-0.043	0.036
-466.157	-19.345	-0.274	0.169
-465.143	-200.000	0.001	-0.024
-464.128	800.000	0.042	0.169
-463.113	105.808	0.111	-0.130
-462.099	-33.006	-0.387	-0.213
-461.084	-92.359	-0.183	-0.051
-460.070	-90.560	-0.184	-0.053
-459.055	-97.945	0.424	-0.108
-458.040	-200.000	0.014	-0.195
-457.026	-55.523	-0.149	0.066
-456.011	620.243	0.162	0.403
-454.997	-90.779	0.206	0.059
-453.982	-1.129	-0.300	-0.210
-452.968	-200.000	-0.005	0.163
-451.953	194.191	-0.117	0.176
-450.938	-1.364	0.389	-0.272
-449.924	-69.013	0.062	0.024
-448.909	482.099	0.103	-0.231
-447.895	362.281	-0.111	0.221
-446.880	-11.807	0.174	0.113
-445.865	-135.001	-0.136	-0.016
-444.851	-24.862	0.201	-0.118
-443.836	779.686	-0.094	-0.254
-442.822	353.394	0.025	-0.048
-441.807	800.000	0.031	-0.115
-440.792	47.064	0.314	0.289
-439.778	163.477	-0.153	0.213
-438.763	-157.772	-0.200	0.012
-437.749	-200.000	0.012	0.093
-436.734	273.954	0.067	0.117
-435.719	-50.215	-0.156	-0.073
-434.705	330.733	0.061	-0.117
-433.690	-179.301	-0.222	-0.005
-432.676	-172.702	-0.167	-0.005
-431.661	-180.533	0.187	-0.004
-430.646	-6.172	-0.139	-0.094
-429.632	346.821	0.116	0.225
-428.617	-137.959	-0.251	0.028
-427.603	335.246	-0.139	-0.266
-426.588	-200.000	-0.012	-0.398
-425.573	-200.000	-0.024	-0.120
-424.559	-33.854	-0.366	0.199
-423.544	105.186	0.187	-0.218
-422.530	800.000	-0.045	0.142
-421.515	-71.906	0.082	0.030
-420.500	-73.983	-0.279	0.100
-419.486	-22.835	0.149	0.089
-418.471	-112.535	0.254	0.050
-417.457	-200.000	0.043	-0.383
-416.442	131.816	0.015	0.019
-415.428	800.000	0.032	0.139
-414.413	103.577	0.203	0.236
-413.398	-200.000	0.070	0.318
-412.384	-200.000	0.033	-0.281
-411.369	800.000	0.078	0.307
-410.355	8.097	-0.050	0.037
-409.340	-122.959	0.249	0.040
-408.325	-100.440	-0.268	0.066
-407.311	800.000	-0.030	0.107
-406.296	128.160	0.084	-0.105
-405.282	-2.651	0.190	-0.132
-404.267	800.000	-0.028	0.082
-403.252	-132.585	0.039	-0.005
-402.238	-158.572	0.380	-0.022
-401.223	34.215	-0.203	0.175
-400.209	16.381	-0.344	0.269
-399.194	-60.902	0.219	0.091
-398.179	-28.120	-0.126	-0.072
-397.165	30.151	0.233	0.196
-396.150	-200.000	0.005	0.084
-395.136	26.052	0.024	-0.020
-394.121	284.445	0.154	-0.273
-393.106	800.000	0.030	-0.096
-392.092	-175.045	0.447	-0.012
-391.077	278.245	-0.095	-0.168
-390.063	-116.785	-0.135	0.024
-389.048	27.506	0.312	-0.259
-388.033	-113.145	-0.143	-0.028
-387.019	-46.802	-0.203	-0.098
-386.004	-70.730	0.173	-0.065
-384.990	800.000	0.065	0.204
-383.975	709.817	0.044	-0.116
-382.960	-200.000	0.019	-0.095
-381.946	-91.715	0.170	0.048
-380.931	-200.000	-0.022	0.177
-379.917	-131.207	0.184	-0.024
-378.902	339.683	-0.068	0.130
-377.888	142.344	0.172	-0.225
-376.873	-158.131	0.369	-0.021
-375.858	252.384	0.154	0.260
-374.844	-200.000	-0.005	-0.150
-373.829	121.025	0.157	0.193
-372.815	-200.000	0.064	-0.430
-371.800	403.782	-0.067	-0.139
-370.785	-74.326	0.041	-0.015
-369.771	97.146	-0.237	0.268
-368.756	800.000	-0.077	-0.225
-367.742	-38.861	-0.031	-0.016
-366.727	-36.732	-0.227	-0.120
-365.712	800.000	0.079	-0.302
-364.698	800.000	0.030	0.111
-363.683	-21.051	-0.421	0.254
-362.669	800.000	-0.039	-0.127
-361.654	-90.186	0.043	-0.012
-360.639	110.025	-0.060	0.071
-359.625	-98.848	-0.290	0.073
-358.610	97.082	0.170	0.192
-357.596	-200.000	0.000	0.129
-356.581	800.000	-0.061	0.222
-355.566	-56.666	0.349	-0.152
-354.552	80.387	-0.045	-0.048
-353.537	800.000	0.030	0.115
-352.523	-63.846	-0.227	-0.092
-351.508	-120.179	-0.172	0.029
-350.493	800.000	-0.039	-0.126
-349.479	-26.168	-0.215	-0.124
-348.464	800.000	0.034	-0.102
-347.450	-39.965	0.133	0.068
-346.435	98.944	-0.109	-0.124
-345.420	-135.265	0.178	0.021
-344.406	478.456	0.064	-0.144
-343.391	695.808	-0.034	-0.088
-342.377	-108.070	-0.233	-0.050
-341.362	-92.624	-0.133	0.037
-340.348	498.929	-0.166	0.377
-339.333	-138.541	-0.136	0.015
-338.318	-200.000	0.001	-0.171
-337.304	135.773	-0.141	0.181
-336.289	50.074	0.151	-0.141
-335.275	-90.112	0.111	0.032
-334.260	-48.621	0.100	-0.047
-333.245	-200.000	-0.070	-0.401
-332.231	-101.929	0.062	0.015
-331.216	-1.473	-0.204	0.142
-330.202	-200.000	0.054	-0.334
-329.187	138.684	0.155	0.201
-328.172	273.141	0.078	-0.136
-327.158	360.104	0.056	0.111
-326.143	-101.433	0.371	-0.089
-325.129	-60.952	-0.137	0.057
-324.114	-200.000	-0.094	-0.582
-323.099	118.682	0.026	0.032
-322.085	278.612	0.185	-0.324
-321.070	516.403	-0.133	-0.307
-320.056	-74.505	0.348	0.124
-319.041	593.384	-0.107	0.261
-318.026	273.856	0.051	0.089
-317.012	800.000	-0.091	-0.267
-315.997	800.000	0.073	-0.210
-314.983	46.975	0.152	-0.139
-313.968	132.883	0.085	-0.108
-312.953	504.245	0.157	0.358
-311.939	800.000	0.119	0.456
-310.924	44.540	0.161	0.145
-309.910	61.573	0.063	0.062
-308.895	157.537	0.108	-0.147
-307.880	800.000	0.031	0.121
-306.866	-105.733	-0.355	0.079
-305.851	-200.000	0.002	-0.391
-304.837	-73.702	0.508	0.182
-303.822	-200.000	0.080	0.397
-302.807	11.524	0.044	-0.033
-301.793	357.179	-0.230	0.450
-300.778	35.124	0.235	0.202
-299.764	800.000	0.048	-0.198
-298.749	244.336	0.333	-0.550
-297.735	-39.032	0.341	-0.177
-296.720	-54.060	0.118	0.053
-295.705	-76.756	0.193	0.066
-294.691	478.276	-0.125	-0.279
-293.676	-193.310	-0.288	-0.002
-292.662	-140.256	-0.053	-0.005
-291.647	20.669	-0.307	-0.245
-290.632	-200.000	0.010	0.196
-289.618	-18.022	0.111	-0.068
-288.603	322.250	-0.089	-0.166
-287.589	-65.142	-0.166	-0.066
-286.574	581.995	-0.138	0.332
-285.559	76.517	0.097	-0.101
-284.545	-200.000	0.003	-0.126
-283.530	800.000	0.008	0.023
-282.516	-200.000	-0.031	-0.191
-281.501	-136.651	-0.248	-0.028
-280.486	-84.705	0.302	-0.094
-279.472	408.214	-0.161	0.335
-278.457	800.000	-0.084	0.234
-277.443	-17.873	0.061	0.037
-276.428	89.590	-0.266	0.292
-275.413	-200.000	-0.042	0.405
-274.399	-200.000	-0.026	-0.121
-273.384	-200.000	0.074	-0.402
-272.370	-200.000	-0.134	0.637
-271.355	-113.421	-0.404	-0.078
-270.340	-124.841	0.213	-0.032
-269.326	73.308	-0.107	0.110
-268.311	-109.912	0.258	-0.053
-267.297	800.000	0.064	0.240
-266.282	-200.000	0.004	-0.199
-265.267	-200.000	0.006	-0.247
-264.253	84.383	-0.267	-0.287
-263.238	23.815	-0.309	-0.250
-262.224	435.511	-0.035	0.074
-261.209	800.000	0.045	0.142
-260.195	-200.000	-0.038	-0.234
-259.180	73.552	0.073	0.075
-258.165	299.715	-0.202	0.366
-257.151	539.202	0.024	-0.056
-256.136	183.139	0.172	0.249
-255.122	-53.022	-0.294	-0.133
-254.107	-138.882	0.155	-0.017
-253.092	-200.000	0.033	0.202
-252.078	-67.126	0.214	-0.083
-251.063	-9.702	-0.349	-0.228
-250.049	-101.751	0.231	0.055
-249.034	-8.158	0.028	-0.018
-248.019	800.000	0.130	-0.360
-247.005	-28.135	-0.145	-0.082
-245.990	-28.697	0.115	0.065
-244.976	-40.000	-0.274	-0.140
-243.961	15.580	0.103	-0.079
-242.946	143.669	0.140	0.183
-241.932	-200.000	-0.001	0.095
-240.917	168.074	0.129	0.180
-239.903	-39.172	0.410	0.211
-238.888	-83.498	-0.293	0.092
-237.873	202.648	-0.041	0.062
-236.859	26.694	0.192	-0.158
-235.844	-15.136	-0.215	-0.135
-234.830	106.403	-0.221	-0.258
-233.815	347.478	0.128	0.248
-232.800	230.355	-0.179	-0.287
-231.786	-200.000	-0.056	-0.289
-230.771	-5.411	-0.274	-0.185
-229.757	115.829	0.148	-0.178
-228.742	-150.216	0.107	-0.008
-227.727	-200.000	-0.195	-0.001
-226.713	-56.574	0.336	-0.146
-225.698	-30.141	-0.171	-0.095
-224.684	81.194	-0.084	-0.089
-223.669	-193.452	-0.281	0.002
-222.655	-140.269	0.417	-0.043
-221.640	134.621	-0.082	0.105
-220.625	130.353	-0.071	-0.089
-219.611	131.232	-0.144	-0.182
-218.596	-200.000	-0.014	-0.467
-217.582	-153.901	0.381	-0.025
-216.567	194.433	0.038	0.057
-215.552	305.445	-0.201	0.367
-214.538	-97.628	-0.328	0.084
-213.523	-180.408	0.181	-0.004
-212.509	-33.929	0.202	-0.109
-211.494	583.884	-0.140	0.336
-210.479	25.198	0.267	0.217
-209.465	-200.000	0.129	0.000
-208.450	168.262	-0.188	-0.262
-207.436	800.000	0.064	0.184
-206.421	-200.000	0.018	0.428
-205.406	-19.396	0.340	0.207
-204.392	-46.950	0.276	0.132
-203.377	-60.839	0.368	0.153
-202.363	154.248	0.235	0.316
-201.348	-200.000	0.019	-0.277
-200.333	83.198	-0.010	0.010
-199.319	-138.199	-0.172	0.019
-198.304	432.151	0.055	0.116
-197.290	80.118	0.087	0.092
-196.275	800.000	-0.110	0.423
-195.260	-190.260	0.468	0.005
-194.246	6.902	0.281	-0.205
-193.231	-104.789	-0.287	0.065
-192.217	-84.408	-0.422	-0.131
-191.202	-112.001	-0.173	-0.034
-190.187	196.559	0.286	0.427
-189.173	259.613	-0.111	-0.188
-188.158	291.885	0.039	0.070
-187.144	532.101	0.086	0.199
-186.129	-200.000	0.022	0.234
-185.114	-56.244	-0.213	0.093
-184.100	-14.580	0.337	0.212
-183.085	270.292	-0.194	-0.334
-182.071	-200.000	-0.413	-0.001
-181.056	-22.693	0.236	-0.140
-180.042	800.000	-0.081	0.344
-179.027	800.000	-0.031	-0.104
-178.012	49.469	0.248	-0.229
-176.998	116.495	0.150	0.181
-175.983	-10.180	0.333	0.216
-174.969	-67.473	-0.330	0.127
-173.954	-33.855	0.302	0.163
-172.939	-200.000	-0.026	-0.141
-171.925	129.722	0.274	-0.343
-170.910	34.992	0.229	0.196
-169.896	-137.262	0.104	0.012
-168.881	55.386	0.209	-0.198
-167.866	-68.187	0.160	-0.061
-166.852	48.418	-0.191	-0.175
-165.837	182.410	-0.130	0.188
-164.823	800.000	-0.123	0.453
-163.808	-124.354	0.305	-0.047
-162.793	158.811	-0.266	-0.362
-161.779	-49.121	0.229	0.107
-160.764	254.449	0.123	-0.206
-159.750	131.693	-0.118	-0.149
-158.735	-200.000	-0.022	-0.163
-157.720	-145.779	0.139	-0.012
-156.706	-122.289	0.318	0.051
-155.691	258.806	-0.116	-0.195
-154.677	697.760	0.129	-0.332
-153.662	34.134	-0.167	-0.143
-152.647	-200.000	-0.029	-0.147
-151.633	-200.000	0.007	-0.308
-150.618	-144.726	0.102	-0.009
-149.604	136.263	-0.200	-0.255
-148.589	-146.238	-0.283	-0.024
-147.574	52.091	0.281	0.262
-146.560	-140.555	-0.174	0.018
-145.545	-2.851	-0.134	-0.092
-144.531	800.000	-0.097	-0.300
-143.516	-87.343	0.201	-0.060
-142.502	-200.000	0.045	-0.214
-141.487	-200.000	0.016	-0.374
-140.472	0.750	-0.194	-0.136
-139.458	121.775	0.174	0.213
-138.443	-81.815	0.196	-0.063
-137.429	-164.083	0.300	-0.014
-136.414	800.000	0.051	0.149
-135.399	61.400	0.076	-0.074
-134.385	-200.000	0.006	0.070
-133.370	-94.337	0.130	-0.035
-132.356	-107.997	-0.097	-0.021
-131.341	266.742	-0.039	0.067
-130.326	125.586	-0.105	-0.129
-129.312	800.000	0.107	-0.293
-128.297	-49.848	-0.094	0.043
-127.283	3.910	0.231	0.165
-126.268	462.882	0.087	0.190
-125.253	157.487	0.096	0.129
-124.239	-80.732	-0.245	0.080
-123.224	-96.739	0.268	0.069
-122.210	-19.541	0.396	0.239
-121.195	-44.323	0.174	-0.085
-120.180	-53.777	-0.169	-0.075
-119.166	8.975	0.217	0.160
-118.151	-78.099	-0.277	-0.093
-117.137	361.454	-0.045	0.088
-116.122	-147.538	-0.463	0.038
-115.107	243.416	0.060	-0.099
-114.093	244.919	0.124	0.204
-113.078	351.364	-0.114	-0.220
-112.064	413.898	-0.077	-0.161
-111.049	-60.060	0.173	-0.072
-110.034	-200.000	-0.011	0.237
-109.020	676.121	-0.026	-0.066
-108.005	-55.921	0.138	-0.060
-106.991	-67.197	0.027	0.010
-105.976	-141.148	0.437	0.044
-104.962	47.436	0.188	-0.172
-103.947	221.573	-0.066	-0.103
-102.932	-63.673	0.320	0.128
-101.918	-200.000	0.003	0.209
-100.903	373.754	0.125	-0.249
-99.889	-200.000	-0.010	-0.149
-98.874	251.561	-0.087	-0.144
-97.859	371.059	0.058	0.115
-96.845	-22.214	0.128	-0.076
-95.830	-133.490	0.265	-0.032
-94.816	287.290	0.288	-0.508
-93.801	154.621	-0.052	-0.070
-92.786	-31.007	0.397	-0.219
-91.772	-64.600	-0.206	0.081
-90.757	-39.471	0.307	-0.157
-89.743	41.885	-0.170	-0.150
-88.728	800.000	-0.015	-0.046
-87.713	-64.726	-0.356	-0.141
-86.699	346.957	0.068	-0.131
-85.684	56.640	0.233	0.221
-84.670	-123.569	0.293	-0.045
-83.655	-200.000	-0.034	0.331
-82.640	331.913	0.202	0.380
-81.626	-141.138	0.153	0.015
-80.611	-37.777	0.455	-0.236
-79.597	-200.000	-0.084	-0.376
-78.582	-140.670	0.053	-0.005
-77.567	-200.000	0.014	0.087
-76.553	223.382	0.039	-0.061
-75.538	121.088	-0.123	0.149
-74.524	-122.081	0.133	0.021
-73.509	2.574	0.082	0.058
-72.494	-107.424	0.469	0.100
-71.480	24.754	-0.203	0.164
-70.465	67.237	0.236	0.234
-69.451	0.737	-0.156	-0.109
-68.436	-7.774	0.331	0.218
-67.422	-200.000	0.075	0.330
-66.407	166.903	-0.139	-0.193
-65.392	579.459	0.172	0.411
-64.378	-200.000	0.040	-0.364
-63.363	-200.000	-0.034	-0.154
-62.349	-200.000	-0.029	0.343
-61.334	58.827	-1.327	-1.272
-60.319	156.824	0.528	0.711
-59.305	566.854	-0.549	-1.299
-58.290	279.009	0.758	1.319
-57.276	540.065	0.707	1.640
-56.261	-200.000	121.169	617.905
-55.246	386.985	1568.989	3159.379
-54.232	139.581	2753.551	3533.208
-53.217	89.030	2327.642	2525.208
-52.203	33.059	1930.784	1630.558
-51.188	27.018	1721.712	1407.278
-50.173	24.825	1681.461	1357.705
-49.159	44.893	1747.453	1567.260
-48.144	43.036	1760.618	1564.608
-47.130	26.626	1712.013	1396.112
-46.115	24.152	1696.878	1364.781
-45.100	24.011	1691.277	1359.149
-44.086	23.968	1689.215	1357.106
-43.071	23.882	1685.979	1353.801
-42.057	23.900	1683.831	1352.158
-41.042	23.863	1682.116	1350.444
-40.027	23.961	1680.227	1349.623
-39.013	23.913	1678.295	1347.649
-37.998	23.867	1676.510	1345.817
-36.984	24.081	1674.853	1346.052
-35.969	24.076	1673.832	1345.138
-34.954	23.997	1672.776	1343.640
-33.940	24.087	1670.156	1342.160
-32.925	24.059	1669.234	1341.156
-31.911	24.074	1666.927	1339.360
-30.896	24.013	1665.747	1337.902
-29.881	24.049	1664.258	1336.924
-28.867	24.086	1662.534	1335.765
-27.852	24.120	1661.162	1334.861
-26.838	24.098	1659.619	1333.407
-25.823	24.059	1658.413	1332.093
-24.809	24.096	1657.573	1331.640
-23.794	24.008	1656.163	1329.796
-22.779	24.071	1654.166	1328.607
-21.765	24.063	1652.107	1326.845
-20.750	24.066	1650.678	1325.668
-19.736	24.131	1649.241	1324.944
-18.721	24.135	1647.991	1323.919
-17.706	24.097	1646.455	1322.351
-16.692	24.070	1644.598	1320.603
-15.677	24.077	1643.336	1319.589
-14.663	24.102	1642.099	1318.731
-13.648	24.093	1640.769	1317.544
-12.633	24.127	1638.911	1316.247
-11.619	24.059	1637.902	1314.886
-10.604	24.136	1635.966	1313.849
-9.590	24.060	1634.648	1312.175
-8.575	24.120	1633.589	1311.715
-7.560	24.126	1632.345	1310.705
-6.546	24.021	1631.183	1308.948
-5.531	24.111	1629.451	1308.168
-4.517	23.982	1628.882	1306.711
-3.502	24.108	1627.879	1306.780
-2.487	24.151	1625.992	1305.528
-1.473	23.863	1614.284	1293.980
-0.458	21.299	1594.820	1259.867
0.556	16.851	1596.884	1230.294
1.571	14.632	1621.615	1232.857
2.586	14.288	1633.783	1239.443
3.600	13.319	1578.388	1190.336
4.615	7.461	1469.800	1068.989
5.629	1.778	1409.065	987.939
6.644	0.600	1401.926	975.244
7.659	0.782	1400.360	975.245
8.673	0.653	1399.891	974.000
9.688	0.715	1397.216	972.450
10.702	0.395	1394.283	968.266
11.717	3.236	1397.984	989.023
12.731	9.999	1407.733	1039.466
13.746	15.294	1416.408	1079.972
14.761	17.110	1417.991	1092.776
15.775	16.593	1415.863	1087.723
16.790	15.597	1413.403	1079.337
17.804	14.754	1411.279	1072.210
18.819	14.384	1409.975	1068.753
19.834	14.210	1408.587	1066.490
20.848	13.972	1407.119	1063.764
21.863	13.762	1405.632	1061.202
22.877	13.453	1404.405	1058.207
23.892	13.423	1403.674	1057.370
24.907	13.452	1402.693	1056.722
25.921	13.575	1401.542	1056.545
26.936	13.544	1400.882	1055.756
27.950	13.575	1399.999	1055.199
28.965	13.539	1399.044	1054.155
29.980	13.636	1397.820	1053.758
30.994	13.659	1396.877	1053.098
32.009	13.722	1396.237	1052.919
33.023	13.732	1394.687	1051.723
34.038	13.688	1393.173	1050.212
35.053	13.564	1392.707	1048.982
36.067	13.562	1391.064	1047.638
37.082	13.621	1390.430	1047.440
38.096	13.542	1389.604	1046.223
39.111	13.573	1388.622	1045.590
40.126	13.599	1387.405	1044.748
41.140	13.479	1387.053	1043.631
42.155	13.477	1386.481	1043.093
43.169	13.458	1386.639	1043.003
44.184	13.457	1386.056	1042.466
45.199	13.578	1385.123	1042.430
46.213	13.533	1384.990	1041.959
47.228	13.553	1383.545	1040.903
48.242	13.558	1382.485	1040.046
49.257	13.521	1380.746	1038.413
50.271	13.581	1379.622	1037.849
51.286	13.565	1378.412	1036.750
52.301	13.613	1376.639	1035.624
53.315	13.547	1376.047	1034.672
54.330	13.563	1374.965	1033.870
55.344	13.534	1373.384	1032.406
56.359	13.596	1372.091	1031.733
57.374	13.513	1371.870	1030.957
58.388	13.503	1370.733	1029.949
59.403	13.324	1371.049	1028.983
60.417	13.478	1369.477	1028.667
61.432	13.366	1368.403	1027.075
62.447	13.404	1367.442	1026.501
63.461	13.333	1366.231	1025.060
64.476	13.327	1364.844	1023.893
65.490	13.398	1363.796	1023.452
66.505	13.400	1361.999	1022.024
67.520	13.315	1361.059	1020.704
68.534	13.393	1360.021	1020.315
69.549	13.455	1358.852	1019.731
70.563	13.300	1357.999	1018.049
71.578	13.460	1356.686	1017.957
72.593	13.478	1355.658	1017.207
73.607	13.375	1355.223	1016.156
74.622	13.362	1354.109	1015.152
75.636	13.385	1353.313	1014.606
76.651	13.488	1352.294	1014.386
77.666	13.405	1351.807	1013.423
78.680	13.290	1351.657	1012.513
79.695	13.339	1350.590	1011.926
80.709	13.400	1349.659	1011.511
81.724	13.458	1349.096	1011.358
82.739	13.467	1347.910	1010.429
83.753	13.415	1347.088	1009.410
84.768	13.572	1346.086	1009.524
85.782	13.607	1344.515	1008.468
86.797	13.576	1343.304	1007.282
87.812	13.475	1341.934	1005.552
88.826	13.440	1341.245	1004.738
89.841	13.556	1339.808	1004.277
90.855	13.557	1338.816	1003.446
91.870	13.502	1337.867	1002.315
92.884	13.494	1337.637	1002.007
93.899	13.571	1336.128	1001.254
94.914	13.684	1335.009	1001.006
95.928	13.759	1334.298	1000.836
96.943	13.584	1333.667	999.223
97.957	13.580	1332.953	998.572
98.972	13.513	1331.636	997.095
99.987	13.718	1330.119	997.106
101.001	13.598	1329.352	995.720
102.016	13.633	1328.231	994.999
103.030	13.613	1327.275	994.081
104.045	13.552	1326.912	993.352
105.060	13.676	1325.025	992.595
106.074	13.656	1323.573	991.301
107.089	13.521	1322.350	989.488
108.103	13.519	1321.282	988.588
109.118	13.503	1319.874	987.356
110.133	13.505	1318.214	986.036
111.147	13.531	1316.857	985.089
112.162	13.544	1315.463	984.039
113.176	13.509	1314.590	983.087
114.191	13.478	1313.577	982.062
115.206	13.545	1312.571	981.620
116.220	13.595	1311.242	980.836
117.235	13.491	1310.015	979.216
118.249	13.509	1309.126	978.568
119.264	13.558	1307.612	977.643
120.279	13.464	1306.697	976.316
121.293	13.503	1305.727	975.736
122.308	13.441	1305.108	974.818
123.322	13.468	1303.546	973.724
124.337	13.505	1302.479	973.062
125.352	13.524	1301.183	972.114
126.366	13.536	1299.948	971.179
127.381	13.480	1299.331	970.307
128.395	13.510	1298.144	969.504
129.410	13.499	1296.771	968.333
130.424	13.529	1296.042	967.877
131.439	13.562	1295.197	967.355
132.454	13.568	1294.206	966.560
133.468	13.555	1293.593	965.945
134.483	13.556	1293.019	965.436
135.497	13.532	1291.381	963.984
136.512	13.563	1290.505	963.427
137.527	13.590	1288.770	962.204
138.541	13.496	1287.205	960.405
139.556	13.570	1285.691	959.620
140.570	13.685	1284.656	959.427
141.585	13.677	1283.598	958.506
142.600	13.596	1282.796	957.353
143.614	13.731	1281.564	957.132
144.629	13.788	1280.127	956.301
145.643	13.742	1279.562	955.530
146.658	13.618	1278.330	953.813
147.673	13.699	1276.613	952.908
148.687	13.584	1275.519	951.352
149.702	13.653	1274.667	951.027
150.716	13.593	1272.980	949.337
151.731	13.706	1271.613	948.879
152.746	13.706	1270.429	947.918
153.760	13.725	1269.167	946.997
154.775	13.773	1268.328	946.560
155.789	13.795	1267.174	945.743
156.804	13.841	1265.723	944.835
157.819	13.756	1265.428	944.051
158.833	13.839	1264.003	943.372
159.848	13.892	1262.715	942.631
160.862	13.888	1261.577	941.673
161.877	13.789	1260.932	940.551
162.892	13.828	1259.878	939.900
163.906	13.722	1259.145	938.672
164.921	13.764	1258.032	937.994
165.935	13.857	1257.019	937.681
166.950	13.781	1256.353	936.676
167.964	13.854	1255.459	936.338
168.979	13.861	1254.805	935.804
169.994	13.858	1253.872	935.011
171.008	13.937	1253.201	934.869
172.023	13.904	1252.495	934.075
173.037	13.957	1251.179	933.312
174.052	13.834	1250.867	932.307
175.067	13.954	1249.283	931.711
176.081	13.897	1248.565	930.780
177.096	13.962	1247.681	930.401
178.110	13.959	1246.817	929.655
179.125	13.969	1245.453	928.612
180.140	13.953	1243.607	927.068
181.154	13.941	1243.078	926.520
182.169	13.979	1241.974	925.827
183.183	14.010	1240.782	925.030
184.198	14.041	1239.381	924.077
185.213	14.117	1238.286	923.599
186.227	14.145	1236.818	922.578
187.242	14.132	1235.630	921.541
188.256	14.242	1234.870	921.501
189.271	14.251	1233.969	920.796
190.286	14.070	1232.981	918.978
191.300	14.094	1232.435	918.619
192.315	13.941	1232.202	917.519
193.329	14.103	1230.867	917.339
194.344	14.092	1230.170	916.680
195.359	14.110	1229.427	916.144
196.373	14.160	1229.020	916.036
197.388	14.198	1228.817	916.012
198.402	14.209	1228.184	915.519
199.417	14.344	1227.423	915.612
200.432	14.268	1226.882	914.708
201.446	14.274	1225.675	913.764
202.461	14.326	1224.469	913.069
203.475	14.356	1223.928	912.749
204.490	14.346	1222.295	911.395
205.504	14.369	1221.329	910.719
206.519	14.350	1220.196	909.690
207.534	14.404	1219.115	909.098
208.548	14.397	1217.846	908.033
209.563	14.269	1217.428	906.946
210.577	14.350	1216.664	906.738
211.592	14.522	1215.167	906.474
212.607	14.422	1214.238	905.160
213.621	14.511	1213.923	905.326
214.636	14.468	1212.920	904.267
215.650	14.431	1211.844	903.184
216.665	14.492	1211.308	903.034
217.680	14.609	1209.863	902.512
218.694	14.544	1209.281	901.647
219.709	14.631	1208.408	901.383
220.723	14.669	1207.744	901.012
221.738	14.530	1207.027	899.652
222.753	14.587	1206.390	899.400
223.767	14.680	1205.364	899.058
224.782	14.657	1204.848	898.469
225.796	14.740	1204.423	898.523
226.811	14.695	1203.555	897.548
227.826	14.656	1202.840	896.726
228.840	14.680	1202.072	896.205
229.855	14.641	1201.583	895.552
230.869	14.748	1200.401	895.165
231.884	14.672	1200.092	894.448
232.899	14.764	1198.566	893.723
233.913	14.692	1198.138	892.943
234.928	14.694	1197.382	892.307
235.942	14.695	1196.389	891.497
236.957	14.710	1195.695	890.981
237.972	14.752	1194.662	890.358
238.986	14.714	1194.370	889.859
240.001	14.731	1193.810	889.452
241.015	14.664	1193.030	888.436
242.030	14.835	1192.005	888.503
243.045	14.809	1191.081	887.594
244.059	14.745	1190.290	886.587
245.074	14.800	1189.346	886.100
246.088	14.884	1188.563	885.884
247.103	14.886	1188.047	885.430
248.117	14.887	1187.047	884.609
249.132	14.952	1186.318	884.335
250.147	15.061	1185.872	884.497
251.161	15.028	1185.017	883.610
252.176	15.199	1183.756	883.489
253.190	15.143	1183.687	883.066
254.205	15.088	1183.129	882.284
255.220	15.200	1182.220	882.119
256.234	15.183	1181.584	881.475
257.249	15.162	1180.671	880.606
258.263	15.160	1180.479	880.374
259.278	15.276	1179.049	879.836
260.293	15.254	1178.940	879.564
261.307	15.258	1178.153	878.922
262.322	15.399	1177.258	878.910
263.336	15.378	1176.789	878.372
264.351	15.269	1176.443	877.467
265.366	15.383	1175.592	877.352
266.380	15.268	1175.171	876.361
267.395	15.377	1174.035	876.001
268.409	15.346	1173.514	875.377
269.424	15.338	1173.017	874.887
270.439	15.255	1172.527	874.011
271.453	15.418	1171.188	873.786
272.468	15.326	1170.346	872.599
273.482	15.389	1169.848	872.481
274.497	15.442	1169.095	872.116
275.512	15.392	1168.492	871.326
276.526	15.458	1167.529	870.878
277.541	15.449	1166.761	870.180
278.555	15.468	1166.233	869.808
279.570	15.453	1165.589	869.174
280.585	15.476	1165.046	868.809
281.599	15.536	1163.760	868.082
282.614	15.568	1162.201	867.011
283.628	15.502	1161.586	866.131
284.643	15.551	1160.692	865.643
285.657	15.641	1159.623	865.230
286.672	15.596	1158.637	864.188
287.687	15.584	1157.939	863.529
288.701	15.733	1157.210	863.673
289.716	15.644	1156.297	862.459
290.730	15.794	1155.462	862.527
291.745	15.789	1154.493	861.702
292.760	15.679	1154.212	860.855
293.774	15.680	1154.046	860.658
294.789	15.767	1153.199	860.398
295.803	15.774	1152.650	859.948
296.818	15.621	1151.933	858.555
297.833	15.745	1150.992	858.410
298.847	15.697	1150.289	857.566
299.862	15.640	1149.604	856.687
300.876	15.777	1148.828	856.734
301.891	15.817	1148.090	856.309
302.906	15.804	1147.313	855.587
303.920	15.985	1146.552	855.865
304.935	15.915	1145.808	854.878
305.949	15.967	1145.120	854.553
306.964	15.953	1144.794	854.164
307.979	16.039	1143.511	853.566
308.993	16.023	1143.101	853.101
310.008	16.066	1142.157	852.537
311.022	16.046	1141.313	851.732
312.037	16.099	1140.395	851.241
313.052	16.043	1139.585	850.276
314.066	15.869	1138.906	848.822
315.081	15.966	1137.821	848.422
316.095	15.935	1137.205	847.736
317.110	15.950	1136.562	847.256
318.125	15.980	1135.553	846.576
319.139	16.021	1134.641	846.030
320.154	16.070	1133.917	845.660
321.168	16.068	1133.630	845.363
322.183	16.087	1133.119	845.002
323.197	16.091	1132.289	844.327
324.212	15.982	1131.983	843.477
325.227	16.065	1131.165	843.208
326.241	16.205	1130.299	843.187
327.256	16.124	1129.738	842.294
328.270	16.145	1128.689	841.538
329.285	16.161	1127.706	840.811
330.300	16.219	1126.835	840.378
331.314	16.062	1125.865	838.798
332.329	16.195	1124.688	838.507
333.343	16.227	1124.166	838.201
334.358	16.204	1123.179	837.281
335.373	16.353	1122.207	837.219
336.387	16.265	1121.819	836.421
337.402	16.280	1121.148	835.922
338.416	16.247	1120.357	835.092
339.431	16.409	1119.578	835.239
340.446	16.312	1119.301	834.478
341.460	16.331	1118.210	833.685
342.475	16.428	1116.846	833.072
343.489	16.516	1115.908	832.732
344.504	16.505	1115.363	832.197
345.519	16.429	1114.597	831.181
346.533	16.517	1113.599	830.792
347.548	16.442	1113.017	829.921
348.562	16.560	1112.479	830.021
349.577	16.568	1111.554	829.299
350.592	16.474	1110.812	828.212
351.606	16.538	1110.216	828.009
352.621	16.462	1109.757	827.221
353.635	16.451	1108.891	826.446
354.650	16.533	1107.924	826.054
355.665	16.563	1107.271	825.640
356.679	16.593	1106.705	825.291
357.694	16.583	1106.262	824.840
358.708	16.526	1105.560	823.963
359.723	16.515	1105.062	823.467
360.738	16.653	1104.305	823.505
361.752	16.665	1103.615	822.974
362.767	16.643	1102.924	822.276
363.781	16.611	1102.865	822.007
364.796	16.751	1101.478	821.580
365.810	16.860	1101.074	821.733
366.825	16.898	1100.083	821.107
367.840	16.870	1100.211	820.991
368.854	16.837	1099.311	820.088
369.869	17.040	1098.254	820.209
370.883	16.852	1098.042	819.069
371.898	16.864	1096.754	818.093
372.913	16.908	1096.380	817.954
373.927	16.853	1096.021	817.349
374.942	16.996	1095.294	817.422
375.956	16.883	1094.663	816.337
376.971	17.022	1093.868	816.339
377.986	17.037	1093.509	816.072
379.000	17.044	1092.918	815.592
380.015	17.066	1092.545	815.347
381.029	17.028	1091.580	814.371
382.044	17.009	1091.544	814.183
383.059	17.167	1090.080	813.775
384.073	17.209	1089.019	813.113
385.088	17.181	1088.594	812.591
386.102	17.098	1087.662	811.425
387.117	17.139	1086.461	810.656
388.132	17.167	1085.582	810.057
389.146	17.071	1085.134	809.197
390.161	17.144	1084.045	808.658
391.175	17.258	1083.462	808.695
392.190	17.144	1082.845	807.620
393.205	17.135	1081.967	806.851
394.219	17.185	1081.343	806.551
395.234	17.291	1080.120	806.074
396.248	17.219	1079.428	805.142
397.263	17.223	1078.453	804.363
398.278	17.137	1077.816	803.410
399.292	17.223	1077.215	803.297
400.307	17.137	1076.354	802.177
401.321	17.133	1075.530	801.476
402.336	17.221	1074.726	801.218
403.350	17.234	1074.051	800.707
404.365	17.176	1073.638	800.057
405.380	17.363	1072.844	800.274
406.394	17.400	1071.746	799.555
407.409	17.376	1070.952	798.781
408.423	17.362	1070.483	798.294
409.438	17.408	1069.908	798.013
410.453	17.530	1068.828	797.705
411.467	17.509	1068.238	797.095
412.482	17.430	1067.727	796.274
413.496	17.525	1067.059	796.149
414.511	17.565	1066.328	795.722
415.526	17.585	1065.861	795.398
416.540	17.706	1065.505	795.624
417.555	17.721	1064.596	794.944
418.569	17.708	1064.109	794.454
419.584	17.666	1063.606	793.810
420.599	17.722	1063.296	793.767
421.613	107.711	1330.329	1485.995
422.628	99.516	1369.184	1486.070
