DTS Sentinel unit serial number:	SN413079Multiplexer serial number:	ORYXHardware model number:	OX4-SRSoftware version number:	ORYX F/W v4.00 Oryx Data Collector v3.7.2.0data status	okinstallation	princeton_trtdifferential loss correction	single-endedforward channel	channel 2reverse channel	N/Adate	2019/09/16time	03:23:35forward acquisition time	60.00reverse acquisition time	0.00gamma	496.2192k internal	0.2333k external	0.2333temperature offset calibration	0.9973default loss term (dB/km)	0.3790temperature slope calibration	1.0000multiplexer offset coefficient	1.0000multiplexer slope coefficient	1.0000fibre end	0.00T internal ref (°C)	27.69T ext. ref 1 (°C)	10.52T ext. ref 2 (°C)	21.84length (m)	temperature (°C)	Stokes	anti-Stokes-747.200	-8.696	-0.317	0.214
-746.185	81.939	-0.158	-0.172
-745.171	-103.742	0.091	0.021
-744.156	800.000	-0.033	0.100
-743.142	-87.578	-0.130	-0.039
-742.127	800.000	0.108	0.344
-741.112	-197.760	-0.269	0.002
-740.098	-14.912	-0.321	0.207
-739.083	131.047	-0.212	0.274
-738.069	-120.445	-0.108	-0.018
-737.054	-159.113	-0.298	-0.017
-736.039	-86.103	-0.183	0.057
-735.025	286.508	-0.169	-0.306
-734.010	-34.762	-0.250	-0.138
-732.996	-24.460	0.124	0.074
-731.981	89.474	0.128	0.144
-730.966	42.170	-0.084	-0.076
-729.952	591.118	0.110	0.272
-728.937	-26.198	-0.071	0.042
-727.923	-200.000	0.004	0.162
-726.908	-200.000	0.004	0.075
-725.894	-160.832	-0.530	0.028
-724.879	800.000	0.042	-0.140
-723.864	728.060	-0.094	0.251
-722.850	22.598	0.210	-0.172
-721.835	97.456	0.057	-0.066
-720.821	-58.081	0.262	0.115
-719.806	-200.000	-0.004	-0.206
-718.791	26.733	-0.067	0.056
-717.777	-97.332	-0.182	0.048
-716.762	9.095	-0.063	0.048
-715.748	-76.851	-0.215	0.075
-714.733	-200.000	0.007	-0.042
-713.718	67.619	-0.281	-0.288
-712.704	-37.327	-0.213	-0.114
-711.689	111.516	-0.164	0.198
-710.675	173.750	-0.167	0.242
-709.660	-85.325	-0.095	-0.030
-708.645	502.390	0.067	-0.156
-707.631	-161.943	0.212	0.011
-706.616	66.218	-0.220	-0.224
-705.602	679.665	0.080	0.209
-704.587	-2.463	-0.106	-0.074
-703.572	488.707	-0.080	-0.184
-702.558	-200.000	0.002	0.123
-701.543	-200.000	-0.044	0.200
-700.529	188.794	-0.076	-0.114
-699.514	160.258	-0.075	-0.104
-698.499	46.323	-0.126	-0.118
-697.485	148.803	0.242	-0.328
-696.470	-30.749	0.177	-0.100
-695.456	779.306	-0.070	-0.192
-694.441	-14.513	-0.209	0.135
-693.426	277.139	0.101	0.181
-692.412	-200.000	-0.042	-0.333
-691.397	800.000	-0.062	0.259
-690.383	-49.186	-0.448	-0.215
-689.368	736.418	0.056	0.151
-688.354	-78.022	-0.248	-0.086
-687.339	-13.002	0.120	0.079
-686.324	-165.701	0.322	0.014
-685.310	-92.460	0.326	-0.092
-684.295	800.000	-0.016	-0.049
-683.281	-14.619	0.082	0.053
-682.266	-167.708	-0.213	-0.008
-681.251	165.030	0.215	0.304
-680.237	-87.890	-0.066	-0.020
-679.222	366.819	0.061	0.123
-678.208	176.792	0.031	-0.046
-677.193	-164.648	0.178	-0.008
-676.178	-131.406	-0.305	-0.040
-675.164	280.791	-0.117	0.210
-674.149	-74.737	0.121	-0.044
-673.135	-107.843	-0.131	-0.029
-672.120	-62.628	-0.254	0.106
-671.105	125.151	0.169	0.213
-670.091	-64.314	0.079	0.032
-669.076	-48.175	-0.147	0.071
-668.062	-200.000	-0.005	-0.299
-667.047	-200.000	0.001	-0.144
-666.032	-25.810	-0.217	-0.128
-665.018	-200.000	0.059	0.284
-664.003	-90.222	-0.186	-0.054
-662.989	57.845	0.299	0.294
-661.974	190.410	-0.083	-0.125
-660.959	-4.117	0.263	0.182
-659.945	130.954	0.116	-0.149
-658.930	11.428	0.210	0.161
-657.916	-145.605	0.199	-0.018
-656.901	-29.854	-0.305	0.174
-655.886	128.566	0.074	-0.094
-654.872	-66.692	0.222	-0.088
-653.857	132.635	-0.137	-0.176
-652.843	-185.521	0.317	-0.005
-651.828	392.042	-0.188	-0.391
-650.814	800.000	-0.086	-0.244
-649.799	-83.457	0.028	-0.009
-648.784	-200.000	0.033	-0.181
-647.770	39.023	0.159	-0.142
-646.755	-200.000	-0.027	0.594
-645.741	-200.000	0.002	0.449
-644.726	-162.649	0.379	0.019
-643.711	-123.739	-0.144	0.023
-642.697	-200.000	0.002	-0.138
-641.682	-95.094	0.302	0.082
-640.668	-47.271	-0.276	0.135
-639.653	-100.691	0.159	-0.039
-638.638	-200.000	-0.013	0.096
-637.624	-28.588	-0.130	-0.075
-636.609	-16.348	0.067	-0.042
-635.595	11.209	0.230	0.176
-634.580	800.000	-0.073	-0.297
-633.565	7.453	-0.339	-0.254
-632.551	224.886	-0.162	-0.262
-631.536	-13.764	-0.219	-0.142
-630.522	-200.000	0.028	0.153
-629.507	55.721	-0.298	-0.289
-628.492	504.691	-0.126	-0.293
-627.478	97.252	-0.095	-0.109
-626.463	83.121	0.192	0.209
-625.449	91.681	-0.091	0.102
-624.434	800.000	0.048	0.197
-623.419	800.000	0.070	0.238
-622.405	800.000	-0.064	-0.237
-621.390	-1.022	-0.245	-0.174
-620.376	104.105	0.246	-0.289
-619.361	-69.758	-0.279	0.107
-618.346	-152.350	0.073	-0.005
-617.332	-92.665	0.386	0.108
-616.317	538.448	0.111	-0.263
-615.303	193.546	-0.186	-0.281
-614.288	-78.892	-0.186	0.063
-613.273	-116.390	-0.056	-0.010
-612.259	-12.057	-0.124	-0.081
-611.244	800.000	0.067	-0.271
-610.230	-162.934	0.096	-0.005
-609.215	118.766	-0.268	0.331
-608.201	-200.000	0.018	-0.175
-607.186	-66.759	0.167	0.066
-606.171	-200.000	-0.027	-0.201
-605.157	-200.000	-0.038	0.240
-604.142	367.800	0.057	0.115
-603.128	-200.000	0.029	0.168
-602.113	800.000	-0.064	0.238
-601.098	-156.387	0.171	0.011
-600.084	-200.000	0.003	0.035
-599.069	-88.967	-0.135	-0.040
-598.055	410.427	0.109	-0.231
-597.040	800.000	-0.093	0.268
-596.025	39.359	-0.072	-0.065
-595.011	23.487	-0.064	0.052
-593.996	-155.689	0.126	-0.008
-592.982	-136.054	0.110	0.013
-591.967	-150.427	0.080	0.006
-590.952	79.950	0.138	-0.149
-589.938	-55.275	0.238	-0.107
-588.923	-69.459	0.123	-0.047
-587.909	-15.902	-0.196	0.125
-586.894	257.584	0.083	0.143
-585.879	-200.000	-0.034	0.254
-584.865	-200.000	-0.021	-0.121
-583.850	-42.104	0.324	-0.166
-582.836	213.334	-0.116	-0.184
-581.821	800.000	0.058	-0.198
-580.806	-39.765	-0.083	0.044
-579.792	136.601	-0.182	0.238
-578.777	157.653	0.206	-0.285
-577.763	44.099	0.111	-0.102
-576.748	219.537	-0.106	-0.169
-575.733	205.190	-0.085	0.131
-574.719	-12.180	0.237	0.155
-573.704	178.559	-0.067	-0.097
-572.690	282.290	-0.154	0.275
-571.675	-29.632	-0.284	-0.162
-570.661	-200.000	-0.020	-0.294
-569.646	-177.857	0.226	0.005
-568.631	-158.437	-0.401	0.023
-567.617	-111.974	0.269	-0.054
-566.602	790.145	-0.091	0.250
-565.588	127.852	-0.271	-0.344
-564.573	-21.408	0.159	-0.097
-563.558	-3.393	-0.040	0.028
-562.544	204.809	0.050	0.077
-561.529	-7.113	-0.241	-0.163
-560.515	25.488	-0.135	-0.112
-559.500	35.921	-0.240	0.211
-558.485	-66.732	-0.116	-0.046
-557.471	-102.087	0.239	0.057
-556.456	-200.000	-0.039	0.177
-555.442	-200.000	-0.024	0.239
-554.427	-140.704	-0.099	0.010
-553.412	-62.702	0.228	-0.095
-552.398	397.425	-0.061	-0.128
-551.383	92.781	-0.157	0.177
-550.369	800.000	-0.116	0.382
-549.354	29.625	-0.129	0.110
-548.339	9.775	-0.222	0.168
-547.325	-54.596	-0.308	-0.139
-546.310	-184.941	0.546	-0.009
-545.296	-200.000	0.044	0.227
-544.281	21.111	0.185	-0.150
-543.266	-99.315	-0.118	0.030
-542.252	800.000	0.057	0.233
-541.237	19.281	-0.030	-0.024
-540.223	-95.102	0.415	0.112
-539.208	-5.934	-0.089	0.061
-538.193	-139.330	-0.330	0.035
-537.179	-200.000	0.048	0.240
-536.164	-43.849	-0.452	-0.227
-535.150	-143.786	-0.190	-0.018
-534.135	-31.922	0.074	-0.041
-533.121	708.394	0.085	-0.224
-532.106	334.431	0.085	0.164
-531.091	287.617	-0.158	-0.284
-530.077	-125.092	-0.145	-0.022
-529.062	382.849	0.070	0.144
-528.048	326.471	-0.020	0.039
-527.033	608.084	-0.042	0.106
-526.018	5.187	0.112	-0.083
-525.004	-184.384	-0.159	-0.003
-523.989	-172.526	-0.052	-0.002
-522.975	800.000	-0.094	-0.294
-521.960	255.907	0.079	0.134
-520.945	66.161	0.077	-0.078
-519.931	82.363	-0.078	0.085
-518.916	-115.506	-0.184	0.035
-517.902	-200.000	0.034	0.165
-516.887	262.441	-0.087	0.150
-515.872	126.699	-0.114	-0.144
-514.858	549.589	0.082	-0.196
-513.843	-200.000	-0.067	-0.396
-512.829	-167.810	0.198	0.008
-511.814	800.000	-0.088	-0.278
-510.799	-35.043	0.161	-0.087
-509.785	-138.245	0.128	0.014
-508.770	379.190	-0.156	-0.319
-507.756	97.020	-0.139	0.158
-506.741	-79.852	0.149	-0.050
-505.726	800.000	0.037	-0.111
-504.712	-200.000	0.013	-0.063
-503.697	-39.623	-0.128	-0.067
-502.683	-200.000	-0.037	-0.302
-501.668	-57.483	-0.200	0.087
-500.653	-200.000	-0.016	-0.185
-499.639	-135.236	0.223	0.027
-498.624	-173.030	0.297	0.009
-497.610	800.000	-0.037	0.156
-496.595	-169.041	-0.042	-0.002
-495.581	354.550	0.168	-0.332
-494.566	-200.000	0.086	-0.396
-493.551	-48.172	-0.177	0.085
-492.537	7.711	-0.122	-0.091
-491.522	-154.187	0.185	-0.012
-490.508	36.076	-0.246	-0.215
-489.493	800.000	-0.040	-0.128
-488.478	-111.244	-0.260	-0.053
-487.464	107.242	-0.274	-0.324
-486.449	20.916	0.152	-0.123
-485.435	-11.337	-0.264	0.173
-484.420	139.739	0.156	-0.205
-483.405	279.530	0.115	-0.204
-482.391	-92.399	0.291	0.081
-481.376	276.178	-0.082	-0.145
-480.362	-122.118	-0.210	-0.034
-479.347	0.853	0.022	-0.015
-478.332	-149.773	0.345	0.027
-477.318	-200.000	-0.017	0.088
-476.303	23.711	0.153	-0.125
-475.289	-69.072	0.296	0.113
-474.274	73.190	0.177	0.184
-473.259	-30.153	-0.305	0.173
-472.245	-200.000	-0.044	0.471
-471.230	-143.190	0.169	-0.016
-470.216	-40.019	-0.136	-0.071
-469.201	553.745	0.023	0.056
-468.186	-200.000	0.017	-0.154
-467.172	-2.610	-0.249	-0.173
-466.157	-200.000	0.007	-0.074
-465.143	-91.852	-0.413	0.116
-464.128	800.000	-0.113	0.323
-463.113	462.183	-0.063	0.139
-462.099	-191.373	0.228	0.002
-461.084	375.691	0.039	0.080
-460.070	430.781	-0.051	0.109
-459.055	672.183	0.041	0.106
-458.040	-200.000	0.026	-0.132
-457.026	-78.337	-0.233	-0.079
-456.011	63.641	-0.178	0.178
-454.997	-37.187	0.299	0.159
-453.982	185.925	-0.188	0.277
-452.968	195.512	0.080	0.120
-451.953	-200.000	0.011	0.346
-450.938	206.465	-0.144	-0.222
-449.924	-200.000	0.063	0.306
-448.909	-53.351	0.331	-0.151
-447.895	341.941	-0.068	0.132
-446.880	800.000	0.031	-0.131
-445.865	47.932	-0.006	0.006
-444.851	584.541	0.019	0.046
-443.836	-41.429	-0.247	0.126
-442.822	-95.567	0.138	0.037
-441.807	-65.416	0.284	-0.113
-440.792	800.000	0.033	-0.138
-439.778	480.036	-0.141	-0.317
-438.763	-8.360	-0.076	-0.051
-437.749	-127.926	-0.181	-0.026
-436.734	488.708	0.167	-0.379
-435.719	17.162	-0.239	0.189
-434.705	-128.499	0.178	0.025
-433.690	-200.000	-0.010	-0.267
-432.676	313.779	0.099	-0.185
-431.661	-200.000	0.025	0.252
-430.646	-50.477	0.326	0.153
-429.632	-25.925	-0.312	-0.183
-428.617	42.507	0.098	-0.089
-427.603	649.071	0.115	0.293
-426.588	-200.000	0.037	-0.217
-425.573	-35.994	0.241	0.129
-424.559	69.169	-0.027	0.028
-423.544	-19.997	0.253	-0.155
-422.530	117.613	-0.084	0.103
-421.515	124.693	0.158	0.198
-420.500	247.278	0.104	-0.174
-419.486	383.197	-0.050	-0.102
-418.471	-75.749	0.089	-0.031
-417.457	444.641	0.006	0.014
-416.442	640.622	0.099	0.251
-415.428	-86.329	-0.280	-0.086
-414.413	80.254	-0.148	-0.158
-413.398	136.737	0.097	0.126
-412.384	85.469	-0.209	0.228
-411.369	-137.134	-0.264	-0.030
-410.355	39.883	0.200	-0.178
-409.340	-30.366	0.227	-0.128
-408.325	-200.000	0.005	0.108
-407.311	99.498	-0.184	-0.212
-406.296	-62.643	0.127	0.052
-405.282	-106.774	0.416	0.092
-404.267	4.621	0.184	-0.134
-403.252	800.000	0.132	-0.381
-402.238	243.260	0.199	0.331
-401.223	-63.607	-0.197	0.080
-400.209	-141.893	-0.066	-0.007
-399.194	129.197	0.313	-0.396
-398.179	-200.000	0.028	-0.297
-397.165	-39.544	0.078	-0.041
-396.150	-118.605	-0.275	0.048
-395.136	800.000	-0.055	0.161
-394.121	-200.000	0.042	-0.196
-393.106	-200.000	0.063	0.398
-392.092	-200.000	-0.010	0.261
-391.077	-28.227	0.557	0.319
-390.063	-51.085	0.166	-0.077
-389.048	-200.000	0.048	0.255
-388.033	-200.000	0.035	0.186
-387.019	-45.938	0.188	-0.092
-386.004	-50.038	0.174	0.082
-384.990	514.718	0.067	0.155
-383.975	216.332	-0.041	0.065
-382.960	43.760	-0.262	-0.238
-381.946	-93.180	0.361	-0.100
-380.931	-200.000	-0.002	0.129
-379.917	764.396	0.092	0.249
-378.902	-14.108	-0.060	-0.038
-377.888	-200.000	-0.015	-0.237
-376.873	-200.000	0.007	-0.213
-375.858	-110.691	0.165	0.034
-374.844	26.858	0.153	0.127
-373.829	-180.437	0.166	0.003
-372.815	-173.753	-0.325	-0.010
-371.800	98.044	-0.119	0.136
-370.785	761.793	-0.036	-0.096
-369.771	-200.000	-0.059	0.360
-368.756	561.792	-0.047	0.112
-367.742	-41.586	-0.350	-0.178
-366.727	-15.330	0.354	0.224
-365.712	-200.000	0.007	0.101
-364.698	429.105	0.140	0.299
-363.683	-64.909	0.144	0.058
-362.669	800.000	0.034	-0.105
-361.654	-127.344	-0.073	0.011
-360.639	162.485	0.134	0.186
-359.625	125.835	0.035	0.044
-358.610	-108.298	-0.132	-0.028
-357.596	-200.000	-0.011	-0.111
-356.581	-113.526	-0.350	0.068
-355.566	-19.449	0.131	-0.080
-354.552	800.000	-0.055	0.233
-353.537	-158.148	0.264	-0.015
-352.523	105.256	-0.191	0.224
-351.508	172.639	0.088	-0.125
-350.493	172.465	-0.209	0.297
-349.479	-107.221	-0.330	-0.072
-348.464	301.183	-0.079	0.144
-347.450	800.000	0.009	-0.034
-346.435	-200.000	-0.005	0.095
-345.420	-27.331	0.293	-0.169
-344.406	-12.064	-0.080	0.052
-343.391	26.180	0.238	0.196
-342.377	508.332	0.103	0.238
-341.362	186.155	0.233	0.343
-340.348	-105.393	-0.293	0.066
-339.333	-197.588	0.169	-0.001
-338.318	-87.665	0.372	0.111
-337.304	-83.091	-0.416	0.132
-336.289	98.316	0.095	0.108
-335.275	-123.092	0.215	-0.034
-334.260	-44.313	0.183	-0.091
-333.245	-44.623	-0.187	-0.092
-332.231	-87.478	0.086	-0.026
-331.216	440.032	-0.111	-0.239
-330.202	800.000	-0.088	-0.289
-329.187	414.165	-0.102	-0.215
-328.172	-30.881	-0.227	-0.127
-327.158	571.832	-0.016	0.039
-326.143	421.984	-0.165	-0.350
-325.129	-167.557	-0.252	-0.010
-324.114	-150.487	0.459	-0.035
-323.099	70.684	-0.112	-0.115
-322.085	-48.915	-0.076	0.036
-321.070	338.432	-0.090	-0.173
-320.056	-81.869	0.169	0.055
-319.041	287.595	0.148	0.266
-318.026	679.203	-0.085	-0.219
-317.012	-125.802	0.323	-0.048
-315.997	-200.000	0.018	0.106
-314.983	437.634	-0.193	0.416
-313.968	264.534	-0.228	-0.393
-312.953	76.780	0.110	0.115
-311.939	250.931	0.009	0.016
-310.924	630.600	0.147	-0.368
-309.910	352.214	0.055	-0.108
-308.895	82.252	-0.140	0.150
-307.880	-200.000	0.064	0.352
-306.866	110.040	0.116	0.137
-305.851	233.156	0.014	0.022
-304.837	-8.598	-0.304	-0.202
-303.822	189.287	-0.313	-0.464
-302.807	-200.000	0.031	0.277
-301.793	-200.000	-0.072	-0.516
-300.778	-200.000	-0.058	-0.249
-299.764	298.310	0.207	-0.376
-298.749	78.998	0.216	0.228
-297.735	72.994	0.079	0.081
-296.720	29.376	-0.138	-0.116
-295.705	-23.241	0.362	-0.215
-294.691	-75.471	-0.250	0.088
-293.676	-36.697	0.120	0.063
-292.662	-131.388	-0.205	-0.027
-291.647	-141.866	0.130	-0.013
-290.632	261.922	-0.214	-0.367
-289.618	-200.000	0.028	0.171
-288.603	-16.764	0.354	-0.221
-287.589	-200.000	0.048	-0.338
-286.574	401.365	0.102	0.211
-285.559	-105.044	-0.451	0.102
-284.545	18.120	-0.171	0.135
-283.530	-72.102	-0.013	-0.005
-282.516	130.986	-0.049	-0.062
-281.501	2.077	0.095	-0.067
-280.486	66.104	-0.127	-0.127
-279.472	105.422	0.057	0.067
-278.457	-105.998	-0.137	-0.030
-277.443	-26.764	-0.332	-0.192
-276.428	-200.000	-0.025	0.166
-275.413	-177.590	0.368	-0.009
-274.399	-97.631	-0.072	-0.018
-273.384	-93.874	0.008	-0.002
-272.370	306.581	-0.140	0.258
-271.355	-200.000	-0.029	0.271
-270.340	800.000	0.121	0.368
-269.326	-5.232	-0.118	-0.080
-268.311	-200.000	-0.026	0.390
-267.297	201.889	0.048	0.073
-266.282	169.825	-0.076	0.107
-265.267	-80.332	-0.335	0.110
-264.253	769.355	-0.070	0.189
-263.238	-87.109	0.179	-0.054
-262.224	-114.904	-0.188	-0.035
-261.209	262.026	-0.073	-0.124
-260.195	-102.856	0.298	0.070
-259.180	105.073	-0.109	0.126
-258.165	-11.940	0.289	0.187
-257.151	800.000	0.136	-0.404
-256.136	-82.854	0.173	0.055
-255.122	-105.044	-0.125	-0.028
-254.107	-58.480	-0.196	0.084
-253.092	-200.000	0.003	-0.058
-252.078	162.703	0.080	0.110
-251.063	-17.834	0.269	0.167
-250.049	-51.771	-0.327	-0.150
-249.034	800.000	0.067	0.221
-248.019	800.000	-0.053	-0.219
-247.005	-133.056	-0.074	0.009
-245.990	22.695	0.138	-0.111
-244.976	-128.246	0.166	-0.023
-243.961	-45.871	-0.220	-0.107
-242.946	34.442	-0.028	-0.024
-241.932	289.846	-0.118	0.211
-240.917	-65.584	-0.052	0.020
-239.903	800.000	-0.127	0.409
-238.888	329.716	0.085	0.161
-237.873	-46.381	-0.181	-0.087
-236.859	-200.000	-0.187	0.001
-235.844	-61.829	0.214	-0.088
-234.830	800.000	-0.122	-0.389
-233.815	-73.373	-0.165	-0.059
-232.800	352.592	0.140	0.273
-231.786	-191.823	-0.124	0.001
-230.771	-200.000	0.047	-0.259
-229.757	173.304	-0.150	-0.213
-228.742	-145.941	0.169	-0.015
-227.727	-9.254	0.046	0.030
-226.713	207.604	0.094	-0.144
-225.698	231.160	0.157	-0.253
-224.684	-200.000	0.006	0.038
-223.669	276.008	0.118	-0.206
-222.655	281.995	-0.077	0.135
-221.640	568.803	-0.062	0.148
-220.625	800.000	-0.086	0.299
-219.611	800.000	0.149	-0.436
-218.596	-75.344	-0.221	0.078
-217.582	-72.047	-0.115	0.042
-216.567	-18.522	-0.235	0.145
-215.552	-62.703	0.272	-0.111
-214.538	302.898	-0.102	0.187
-213.523	551.748	0.134	0.317
-212.509	-200.000	0.050	-0.267
-211.494	-200.000	0.091	-0.437
-210.479	-15.776	0.209	-0.131
-209.465	800.000	0.065	0.213
-208.450	509.275	0.149	0.341
-207.436	-34.005	-0.178	-0.096
-206.421	-81.256	0.058	0.019
-205.406	43.859	-0.160	0.145
-204.392	-200.000	0.037	0.357
-203.377	800.000	0.032	-0.124
-202.363	-81.153	-0.168	0.055
-201.348	293.539	-0.086	0.155
-200.333	-105.814	-0.330	-0.073
-199.319	-109.530	-0.282	0.059
-198.304	-179.955	-0.173	0.004
-197.290	-51.610	0.163	0.075
-196.275	52.432	-0.071	-0.067
-195.260	-133.738	0.528	-0.065
-194.246	74.934	0.192	-0.199
-193.231	-200.000	0.011	0.298
-192.217	-118.032	0.569	0.100
-191.202	566.381	0.148	-0.353
-190.187	74.950	0.062	0.064
-189.173	-70.129	0.065	-0.024
-188.158	-44.402	-0.405	0.199
-187.144	-15.569	-0.215	0.135
-186.129	269.818	0.215	0.372
-185.114	800.000	-0.179	-0.561
-184.100	-117.870	-0.261	-0.046
-183.085	479.562	0.122	0.272
-182.071	-26.994	-0.328	-0.188
-181.056	-200.000	0.001	-0.014
-180.042	-65.963	-0.166	-0.065
-179.027	-107.938	0.313	0.067
-178.012	87.629	0.124	0.135
-176.998	-125.923	-0.220	-0.033
-175.983	284.341	-0.152	0.268
-174.969	-122.058	-0.074	-0.012
-173.954	800.000	-0.012	0.034
-172.939	19.917	0.090	0.071
-171.925	586.250	0.097	0.235
-170.910	-168.176	-0.222	-0.008
-169.896	135.989	-0.076	0.097
-168.881	457.258	-0.081	-0.176
-167.866	-200.000	0.019	0.196
-166.852	800.000	0.039	-0.146
-165.837	-97.877	0.207	0.052
-164.823	-130.959	-0.201	0.026
-163.808	336.234	0.172	-0.329
-162.793	-116.770	0.119	-0.022
-161.779	116.680	-0.289	-0.348
-160.764	-83.529	0.357	-0.112
-159.750	632.876	0.127	-0.315
-158.735	80.324	0.134	0.142
-157.720	48.359	-0.054	0.050
-156.706	-123.918	0.222	-0.034
-155.691	334.541	0.147	0.280
-154.677	790.301	-0.050	0.136
-153.662	232.867	-0.122	0.198
-152.647	800.000	0.071	-0.254
-151.633	347.759	0.051	0.100
-150.618	-2.007	0.134	-0.092
-149.604	-55.039	-0.238	-0.105
-148.589	800.000	0.137	-0.372
-147.574	7.670	-0.227	-0.167
-146.560	73.061	-0.155	-0.159
-145.545	-200.000	-0.098	0.432
-144.531	162.428	-0.105	-0.144
-143.516	572.720	0.036	0.087
-142.502	-200.000	-0.004	0.429
-141.487	-35.339	-0.223	0.119
-140.472	-48.978	0.297	0.140
-139.458	194.807	-0.119	-0.177
-138.443	229.885	-0.148	0.238
-137.429	-8.436	0.062	-0.041
-136.414	241.112	-0.092	-0.151
-135.399	-158.909	0.243	-0.014
-134.385	149.686	0.169	0.225
-133.370	577.264	-0.017	0.041
-132.356	-200.000	-0.006	0.139
-131.341	160.784	0.097	0.132
-130.326	-60.028	0.359	0.150
-129.312	-18.474	0.428	0.262
-128.297	-56.487	0.122	-0.053
-127.283	93.295	0.063	-0.070
-126.268	-54.889	0.390	0.173
-125.253	87.975	0.111	0.121
-124.239	27.635	0.226	0.187
-123.224	-58.145	-0.130	-0.056
-122.210	447.828	0.087	0.189
-121.195	-200.000	-0.005	0.053
-120.180	-53.270	0.153	0.069
-119.166	699.389	0.181	0.466
-118.151	159.696	0.177	0.241
-117.137	-200.000	0.004	0.329
-116.122	-8.200	0.236	-0.156
-115.107	-176.409	0.120	-0.003
-114.093	260.174	0.168	-0.285
-113.078	479.265	0.045	0.100
-112.064	54.189	0.110	0.104
-111.049	-103.151	0.300	0.070
-110.034	800.000	0.066	-0.181
-109.020	-168.336	0.045	-0.002
-108.005	-52.115	-0.272	-0.124
-106.991	94.435	0.004	-0.005
-105.976	84.602	0.290	0.311
-104.962	-127.474	0.111	-0.016
-103.947	-93.783	-0.375	0.101
-102.932	-22.800	-0.275	-0.163
-101.918	256.519	-0.115	0.194
-100.903	-82.372	0.180	-0.057
-99.889	800.000	-0.117	0.408
-98.874	-200.000	0.003	0.024
-97.859	-76.834	-0.287	0.098
-96.845	-105.896	-0.152	0.034
-95.830	136.008	-0.086	0.110
-94.816	-31.040	0.210	-0.116
-93.801	-200.000	-0.007	0.329
-92.786	3.882	0.041	0.029
-91.772	165.362	-0.224	-0.310
-90.757	-67.031	-0.140	0.054
-89.743	-200.000	0.015	0.066
-88.728	-138.346	-0.267	-0.029
-87.713	669.235	0.022	-0.056
-86.699	759.875	-0.049	-0.129
-85.684	800.000	-0.013	-0.043
-84.670	296.632	0.142	0.256
-83.655	328.056	0.150	-0.283
-82.640	800.000	0.047	0.164
-81.626	662.974	0.136	-0.344
-80.611	41.139	0.043	-0.038
-79.597	-112.436	0.431	-0.084
-78.582	177.911	-0.075	-0.107
-77.567	368.754	0.116	0.229
-76.553	187.708	-0.215	0.314
-75.538	-88.344	0.078	-0.023
-74.524	261.865	0.129	0.219
-73.509	-79.292	-0.234	0.078
-72.494	181.219	0.160	-0.231
-71.480	-10.465	0.133	-0.086
-70.465	-108.454	0.088	0.018
-69.451	15.640	0.055	-0.043
-68.436	-200.000	0.052	0.410
-67.422	360.861	0.118	0.232
-66.407	-200.000	-0.045	-0.427
-65.392	148.124	-0.128	-0.170
-64.378	106.333	0.142	-0.165
-63.363	787.891	0.078	0.210
-62.349	800.000	0.015	-0.060
-61.334	41.139	-1.047	-0.926
-60.319	316.928	0.496	0.918
-59.305	459.258	-0.493	-1.073
-58.290	800.000	0.438	1.218
-57.276	476.932	0.765	1.693
-56.261	-200.000	112.601	640.121
-55.246	472.862	1501.910	3311.809
-54.232	146.983	2677.350	3524.030
-53.217	97.345	2289.816	2572.735
-52.203	36.632	1903.137	1644.559
-51.188	30.768	1694.682	1419.802
-50.173	28.385	1652.368	1366.549
-49.159	50.135	1706.944	1576.895
-48.144	48.989	1721.974	1582.057
-47.130	30.532	1680.171	1405.634
-46.115	27.843	1665.584	1373.182
-45.100	27.674	1661.037	1368.107
-44.086	27.533	1658.901	1365.239
-43.071	27.490	1656.273	1362.706
-42.057	27.551	1653.335	1360.690
-41.042	27.544	1651.483	1359.054
-40.027	27.565	1649.492	1357.523
-39.013	27.589	1647.334	1355.870
-37.998	27.511	1646.144	1354.253
-36.984	27.575	1644.585	1353.396
-35.969	27.639	1643.469	1352.900
-34.954	27.733	1641.301	1351.756
-33.940	27.740	1639.459	1350.237
-32.925	27.631	1637.872	1348.071
-31.911	27.705	1636.485	1347.425
-30.896	27.602	1634.692	1345.131
-29.881	27.725	1632.775	1344.408
-28.867	27.605	1631.250	1342.218
-27.852	27.688	1629.553	1341.379
-26.838	27.663	1628.288	1340.102
-25.823	27.697	1627.091	1339.311
-24.809	27.763	1625.683	1338.585
-23.794	27.708	1624.175	1336.885
-22.779	27.642	1622.781	1335.203
-21.765	27.696	1621.270	1334.301
-20.750	27.657	1619.609	1332.596
-19.736	27.714	1618.241	1331.832
-18.721	27.787	1616.895	1331.206
-17.706	27.697	1615.651	1329.470
-16.692	27.583	1614.236	1327.420
-15.677	27.750	1612.734	1327.349
-14.663	27.811	1611.015	1326.327
-13.648	27.844	1609.666	1325.404
-12.633	27.695	1608.470	1323.282
-11.619	27.602	1607.195	1321.511
-10.604	27.737	1605.048	1320.665
-9.590	27.770	1603.890	1319.904
-8.575	27.794	1602.613	1318.972
-7.560	27.723	1601.745	1317.691
-6.546	27.743	1600.547	1316.799
-5.531	27.783	1599.454	1316.139
-4.517	27.754	1598.430	1315.033
-3.502	27.684	1597.657	1313.839
-2.487	27.778	1595.947	1313.059
-1.473	27.437	1584.075	1300.802
-0.458	24.517	1564.803	1264.284
0.556	19.266	1565.333	1232.641
1.571	16.992	1589.215	1234.803
2.586	16.586	1601.155	1240.992
3.600	15.969	1550.638	1197.353
4.615	13.516	1453.648	1105.997
5.629	11.095	1398.693	1048.513
6.644	10.657	1391.574	1040.281
7.659	10.516	1390.982	1038.842
8.673	10.449	1389.731	1037.387
9.688	10.468	1387.372	1035.657
10.702	10.364	1384.667	1032.880
11.717	11.598	1385.335	1041.153
12.731	14.472	1390.771	1063.505
13.746	17.052	1394.318	1082.606
14.761	17.521	1394.189	1085.395
15.775	16.563	1391.774	1077.325
16.790	15.549	1388.815	1068.492
17.804	14.705	1386.659	1061.375
18.819	14.210	1385.395	1057.168
19.834	14.028	1383.964	1054.826
20.848	13.610	1383.113	1051.438
21.863	13.479	1381.488	1049.279
22.877	13.324	1380.278	1047.282
23.892	13.291	1379.276	1046.220
24.907	13.318	1378.527	1045.734
25.921	13.212	1377.526	1044.210
26.936	13.319	1377.122	1044.487
27.950	13.343	1375.485	1043.307
28.965	13.505	1374.408	1043.419
29.980	13.446	1373.462	1042.238
30.994	13.564	1372.228	1041.946
32.009	13.612	1371.121	1041.315
33.023	13.633	1369.661	1040.245
34.038	13.637	1367.988	1038.910
35.053	13.430	1367.336	1037.026
36.067	13.450	1366.003	1036.051
37.082	13.468	1364.942	1035.264
38.096	13.545	1364.039	1034.968
39.111	13.530	1363.106	1034.075
40.126	13.430	1362.236	1032.703
41.140	13.269	1361.463	1031.018
42.155	13.264	1361.023	1030.564
43.169	13.269	1361.128	1030.584
44.184	13.264	1360.476	1029.971
45.199	13.261	1360.108	1029.576
46.213	13.358	1359.240	1029.432
47.228	13.424	1358.378	1029.105
48.242	13.406	1357.589	1028.301
49.257	13.370	1355.993	1026.780
50.271	13.309	1354.483	1025.166
51.286	13.377	1352.928	1024.321
52.301	13.410	1352.088	1023.794
53.315	13.291	1350.883	1022.060
54.330	13.377	1349.730	1021.629
55.344	13.278	1348.640	1020.099
56.359	13.307	1347.599	1019.399
57.374	13.302	1346.639	1018.556
58.388	13.216	1345.904	1017.381
59.403	13.167	1345.798	1016.904
60.417	13.196	1344.855	1016.282
61.432	13.117	1343.734	1014.861
62.447	13.116	1342.825	1014.077
63.461	13.112	1342.055	1013.381
64.476	13.162	1340.667	1012.553
65.490	13.180	1339.377	1011.594
66.505	13.043	1338.026	1009.647
67.520	13.179	1336.843	1009.501
68.534	13.228	1335.465	1008.665
69.549	13.168	1335.074	1007.919
70.563	13.158	1333.574	1006.636
71.578	13.080	1332.061	1004.929
72.593	13.010	1331.617	1004.080
73.607	12.973	1330.987	1003.289
74.622	13.090	1329.869	1003.067
75.636	13.125	1329.089	1002.605
76.651	13.120	1328.483	1002.031
77.666	13.070	1328.135	1001.374
78.680	13.057	1327.783	1000.938
79.695	13.118	1326.841	1000.513
80.709	13.162	1326.134	1000.155
81.724	13.228	1325.097	999.685
82.739	13.276	1323.972	999.035
83.753	13.333	1323.385	998.851
84.768	13.338	1322.281	997.959
85.782	13.559	1320.710	998.016
86.797	13.398	1319.440	996.000
87.812	13.309	1318.634	994.770
88.826	13.347	1317.465	994.028
89.841	13.418	1316.061	993.302
90.855	13.420	1315.128	992.525
91.870	13.471	1314.502	992.270
92.884	13.475	1313.120	991.166
93.899	13.372	1312.873	990.273
94.914	13.564	1311.543	990.333
95.928	13.553	1311.175	989.901
96.943	13.556	1309.869	988.844
97.957	13.406	1309.190	987.351
98.972	13.373	1308.526	986.561
99.987	13.485	1306.906	985.921
101.001	13.493	1305.761	985.017
102.016	13.444	1304.737	983.864
103.030	13.488	1303.890	983.402
104.045	13.483	1302.926	982.560
105.060	13.459	1301.814	981.492
106.074	13.361	1300.245	979.641
107.089	13.229	1299.072	977.889
108.103	13.194	1298.128	976.887
109.118	13.257	1296.425	975.888
110.133	13.342	1294.829	975.106
111.147	13.149	1294.114	973.341
112.162	13.336	1292.650	973.256
113.176	13.311	1291.548	972.189
114.191	13.232	1291.085	971.292
115.206	13.364	1289.438	970.743
116.220	13.320	1288.114	969.400
117.235	13.297	1287.093	968.413
118.249	13.329	1286.205	967.845
119.264	13.291	1284.770	966.461
120.279	13.346	1284.199	966.266
121.293	13.240	1282.866	964.558
122.308	13.210	1281.922	963.586
123.322	13.201	1280.915	962.691
124.337	13.216	1280.020	962.024
125.352	13.227	1279.088	961.304
126.366	13.182	1277.828	960.007
127.381	13.219	1276.622	959.230
128.395	13.206	1275.816	958.468
129.410	13.191	1274.797	957.532
130.424	13.266	1273.792	957.121
131.439	13.256	1272.769	956.211
132.454	13.234	1271.712	955.207
133.468	13.317	1271.051	955.108
134.483	13.335	1270.381	954.618
135.497	13.402	1269.284	954.098
136.512	13.336	1268.115	952.755
137.527	13.240	1266.714	951.065
138.541	13.390	1265.109	950.638
139.556	13.411	1263.594	949.536
140.570	13.333	1263.295	948.779
141.585	13.505	1261.244	948.142
142.600	13.497	1260.376	947.358
143.614	13.566	1259.493	947.007
144.629	13.547	1258.437	946.018
145.643	13.510	1257.434	944.973
146.658	13.516	1255.854	943.735
147.673	13.531	1255.047	943.130
148.687	13.397	1253.619	941.213
149.702	13.485	1252.321	940.653
150.716	13.477	1250.423	939.101
151.731	13.463	1249.762	938.439
152.746	13.389	1248.822	937.234
153.760	13.443	1247.307	936.316
154.775	13.510	1246.404	935.934
155.789	13.487	1245.231	934.842
156.804	13.533	1244.212	934.254
157.819	13.557	1243.137	933.498
158.833	13.567	1242.365	932.891
159.848	13.690	1240.862	932.375
160.862	13.687	1240.306	931.854
161.877	13.666	1238.660	930.419
162.892	13.520	1238.081	929.082
163.906	13.595	1236.790	928.454
164.921	13.552	1235.794	927.384
165.935	13.587	1235.298	927.125
166.950	13.681	1234.661	927.090
167.964	13.549	1234.100	925.851
168.979	13.636	1233.431	925.748
169.994	13.518	1232.297	924.161
171.008	13.546	1231.758	923.831
172.023	13.574	1230.932	923.283
173.037	13.699	1230.509	923.581
174.052	13.820	1228.762	922.862
175.067	13.626	1227.773	920.958
176.081	13.650	1227.072	920.485
177.096	13.630	1226.329	919.738
178.110	13.622	1225.236	918.789
179.125	13.596	1223.883	917.547
180.140	13.748	1222.553	917.315
181.154	13.644	1221.717	916.031
182.169	13.746	1220.126	915.319
183.183	13.846	1218.795	914.790
184.198	13.812	1217.742	913.729
185.213	13.897	1216.657	913.303
186.227	13.876	1215.432	912.188
187.242	13.957	1214.450	911.815
188.256	13.879	1213.477	910.577
189.271	13.918	1212.762	910.174
190.286	13.853	1211.222	908.580
191.300	13.663	1210.469	906.897
192.315	13.635	1209.920	906.253
193.329	13.672	1209.482	906.045
194.344	13.669	1208.607	905.291
195.359	13.778	1208.229	905.524
196.373	13.878	1207.983	905.806
197.388	13.932	1207.266	905.485
198.402	14.019	1206.603	905.380
199.417	14.092	1205.934	905.195
200.432	14.168	1204.862	904.726
201.446	14.228	1204.143	904.429
202.461	14.124	1203.076	902.981
203.475	14.149	1202.042	902.265
204.490	14.133	1201.038	901.345
205.504	14.247	1199.337	900.602
206.519	14.039	1198.550	898.809
207.534	14.083	1197.337	898.055
208.548	14.052	1196.485	897.171
209.563	14.126	1195.427	896.695
210.577	14.182	1194.408	896.157
211.592	14.144	1193.555	895.230
212.607	14.192	1192.989	894.985
213.621	14.232	1192.421	894.695
214.636	14.238	1191.580	894.018
215.650	14.285	1189.924	892.946
216.665	14.244	1189.176	892.086
217.680	14.318	1188.662	892.020
218.694	14.314	1188.006	891.429
219.709	14.356	1186.965	890.794
220.723	14.282	1186.249	889.782
221.738	14.299	1185.587	889.297
222.753	14.338	1184.553	888.649
223.767	14.347	1183.795	888.052
224.782	14.375	1183.741	888.081
225.796	14.550	1182.833	888.254
226.811	14.482	1182.219	887.352
227.826	14.429	1181.190	886.218
228.840	14.404	1180.632	885.587
229.855	14.476	1180.194	885.566
230.869	14.433	1179.190	884.504
231.884	14.405	1178.502	883.761
232.899	14.393	1177.726	883.035
233.913	14.364	1176.937	882.213
234.928	14.430	1176.131	881.880
235.942	14.416	1174.974	880.862
236.957	14.452	1174.288	880.457
237.972	14.311	1174.078	879.480
238.986	14.430	1173.196	879.369
240.001	14.396	1172.174	878.347
241.015	14.465	1171.532	878.152
242.030	14.431	1170.594	877.190
243.045	14.596	1169.553	877.198
244.059	14.627	1169.117	876.959
245.074	14.589	1168.468	876.193
246.088	14.656	1167.151	875.482
247.103	14.704	1166.421	875.107
248.117	14.670	1166.212	874.693
249.132	14.689	1165.449	874.145
250.147	14.851	1164.986	874.567
251.161	14.852	1164.338	874.009
252.176	14.958	1163.024	873.499
253.190	14.830	1163.056	872.778
254.205	14.961	1162.272	872.796
255.220	15.056	1161.683	872.772
256.234	15.062	1160.919	872.151
257.249	14.985	1160.111	871.067
258.263	14.970	1159.664	870.578
259.278	14.948	1158.925	869.831
260.293	15.027	1158.296	869.693
261.307	15.020	1157.913	869.290
262.322	15.119	1157.091	869.109
263.336	15.181	1156.668	869.037
264.351	15.124	1156.064	868.213
265.366	15.151	1155.115	867.560
266.380	15.195	1154.244	867.060
267.395	15.151	1153.634	866.297
268.409	15.045	1152.954	865.161
269.424	15.019	1152.330	864.481
270.439	15.139	1151.698	864.551
271.453	15.139	1150.847	863.833
272.468	15.062	1149.335	862.229
273.482	15.150	1149.173	862.481
274.497	15.067	1148.855	861.740
275.512	15.148	1148.018	861.454
276.526	15.038	1147.576	860.478
277.541	15.121	1146.367	859.922
278.555	15.165	1145.698	859.571
279.570	15.328	1144.874	859.712
280.585	15.299	1144.488	859.199
281.599	15.290	1143.642	858.442
282.614	15.365	1142.443	857.848
283.628	15.238	1141.174	856.170
284.643	15.241	1140.434	855.554
285.657	15.328	1139.482	855.207
286.672	15.446	1138.347	854.882
287.687	15.395	1137.754	854.103
288.701	15.426	1136.415	853.180
289.716	15.433	1135.921	852.768
290.730	15.367	1135.446	851.998
291.745	15.344	1134.979	851.459
292.760	15.386	1134.358	851.129
293.774	15.377	1133.617	850.453
294.789	15.537	1133.103	850.800
295.803	15.483	1132.558	850.043
296.818	15.533	1131.371	849.331
297.833	15.617	1130.491	849.019
298.847	15.522	1129.480	847.705
299.862	15.437	1129.118	846.930
300.876	15.571	1128.442	847.026
301.891	15.571	1127.714	846.402
302.906	15.682	1127.367	846.626
303.920	15.664	1126.628	845.904
304.935	15.595	1126.105	845.089
305.949	15.715	1125.315	845.028
306.964	15.766	1124.898	844.892
307.979	15.664	1123.719	843.421
308.993	15.817	1122.951	843.540
310.008	15.762	1122.430	842.796
311.022	15.946	1121.231	842.744
312.037	15.679	1120.933	841.108
313.052	15.813	1119.594	840.701
314.066	15.833	1118.421	839.843
315.081	15.686	1118.155	838.837
316.095	15.690	1117.304	838.143
317.110	15.791	1116.514	837.979
318.125	15.691	1116.062	837.066
319.139	15.677	1114.982	836.114
320.154	15.727	1114.306	835.785
321.168	15.885	1113.547	835.923
322.183	15.757	1112.916	834.740
323.197	15.689	1112.695	834.164
324.212	15.788	1111.737	833.861
325.227	15.763	1111.402	833.414
326.241	15.797	1111.082	833.268
327.256	15.846	1110.078	832.684
328.270	15.768	1109.065	831.467
329.285	15.874	1107.788	830.957
330.300	15.860	1107.283	830.437
331.314	15.882	1106.407	829.816
332.329	15.720	1105.283	828.100
333.343	15.902	1104.186	828.099
334.358	15.895	1103.450	827.440
335.373	15.981	1102.630	827.173
336.387	15.992	1102.189	826.822
337.402	16.015	1101.458	826.314
338.416	16.049	1100.465	825.666
339.431	16.117	1100.034	825.603
340.446	16.245	1099.209	825.534
341.460	16.168	1098.683	824.689
342.475	16.172	1098.059	824.169
343.489	16.176	1097.316	823.555
344.504	16.346	1095.775	823.155
345.519	16.262	1095.164	822.215
346.533	16.270	1094.709	821.842
347.548	16.300	1093.960	821.353
348.562	16.225	1093.322	820.432
349.577	16.296	1092.258	819.910
350.592	16.163	1091.467	818.597
351.606	16.245	1090.862	818.468
352.621	16.156	1090.099	817.391
353.635	16.224	1089.456	817.169
354.650	16.212	1088.885	816.606
355.665	16.181	1088.300	815.947
356.679	16.265	1087.445	815.639
357.694	16.355	1086.705	815.447
358.708	16.404	1085.956	815.049
359.723	16.259	1085.796	814.160
360.738	16.405	1084.957	814.162
361.752	16.331	1084.780	813.598
362.767	16.379	1084.033	813.199
363.781	16.378	1083.223	812.516
364.796	16.432	1082.659	812.278
365.810	16.539	1082.010	812.234
366.825	16.644	1081.221	812.073
367.840	16.555	1081.121	811.497
368.854	16.739	1080.388	811.759
369.869	16.700	1079.783	811.044
370.883	16.561	1078.643	809.454
371.898	16.655	1077.656	809.092
372.913	16.672	1077.370	808.884
373.927	16.732	1076.855	808.715
374.942	16.653	1076.780	808.208
375.956	16.719	1076.363	808.138
376.971	16.654	1075.315	806.971
377.986	16.766	1074.518	806.835
379.000	16.807	1074.029	806.591
380.015	16.911	1073.640	806.722
381.029	16.906	1072.836	806.022
382.044	16.896	1072.173	805.405
383.059	16.926	1071.085	804.660
384.073	16.869	1070.433	803.828
385.088	16.966	1069.661	803.639
386.102	16.976	1069.006	803.122
387.117	16.845	1067.818	801.537
388.132	16.825	1066.944	800.715
389.146	16.803	1066.187	799.972
390.161	16.747	1065.855	799.390
391.175	16.918	1064.699	799.260
392.190	16.860	1064.122	798.481
393.205	16.902	1063.428	798.085
394.219	16.945	1062.924	797.841
395.234	16.928	1062.008	797.002
396.248	16.880	1060.895	795.870
397.263	16.855	1059.698	794.785
398.278	16.878	1058.916	794.237
399.292	16.871	1058.423	793.766
400.307	16.961	1057.547	793.457
401.321	16.921	1057.272	792.993
402.336	16.858	1056.510	792.057
403.350	16.942	1055.857	791.889
404.365	16.824	1055.332	790.874
405.380	16.961	1054.503	790.825
406.394	17.007	1053.814	790.453
407.409	17.107	1052.515	789.874
408.423	17.217	1051.857	789.819
409.438	17.176	1051.427	789.239
410.453	17.179	1051.207	789.017
411.467	17.275	1050.104	788.563
412.482	17.400	1049.188	788.384
413.496	17.299	1048.886	787.621
414.511	17.272	1048.720	787.300
415.526	17.284	1048.212	786.905
416.540	17.360	1047.729	786.823
417.555	17.438	1046.890	786.485
418.569	17.474	1045.973	785.892
419.584	17.347	1045.841	785.140
420.599	17.391	1045.627	785.113
421.613	104.651	1325.290	1476.198
422.628	96.193	1366.008	1476.337
