DTS Sentinel unit serial number:	SN413079Multiplexer serial number:	ORYXHardware model number:	OX4-SRSoftware version number:	ORYX F/W v4.00 Oryx Data Collector v3.7.2.0data status	okinstallation	princeton_trtdifferential loss correction	single-endedforward channel	channel 2reverse channel	N/Adate	2019/09/19time	03:43:35forward acquisition time	60.00reverse acquisition time	0.00gamma	496.2192k internal	0.2352k external	0.2352temperature offset calibration	1.0017default loss term (dB/km)	0.3790temperature slope calibration	1.0000multiplexer offset coefficient	1.0000multiplexer slope coefficient	1.0000fibre end	0.00T internal ref (°C)	20.52T ext. ref 1 (°C)	0.64T ext. ref 2 (°C)	14.15length (m)	temperature (°C)	Stokes	anti-Stokes-747.200	-22.132	-0.127	-0.077
-746.185	-200.000	0.030	-0.135
-745.171	-8.524	-0.245	0.164
-744.156	716.071	-0.133	0.353
-743.142	291.048	-0.203	-0.369
-742.127	29.022	-0.319	0.270
-741.112	-53.524	0.419	0.191
-740.098	-200.000	0.011	0.057
-739.083	-36.388	-0.113	-0.061
-738.069	-200.000	0.008	-0.152
-737.054	194.084	-0.081	0.122
-736.039	-95.256	-0.363	-0.098
-735.025	-41.436	-0.190	0.097
-734.010	190.258	-0.057	-0.086
-732.996	-80.348	-0.359	-0.120
-731.981	800.000	-0.097	-0.328
-730.966	-200.000	0.036	-0.271
-729.952	-200.000	0.048	0.232
-728.937	-101.557	-0.246	-0.060
-727.923	-150.414	-0.138	0.011
-726.908	800.000	0.076	-0.304
-725.894	-160.763	0.110	0.006
-724.879	-60.716	-0.203	-0.086
-723.864	-200.000	-0.007	0.053
-722.850	-115.215	-0.247	-0.047
-721.835	232.480	-0.121	0.197
-720.821	370.897	0.070	0.141
-719.806	290.378	0.128	-0.232
-718.791	-99.362	0.156	0.039
-717.777	-174.777	-0.111	0.003
-716.762	15.327	-0.168	-0.131
-715.748	-53.985	-0.045	0.020
-714.733	328.903	0.061	-0.117
-713.718	694.506	-0.086	-0.225
-712.704	418.598	-0.045	0.095
-711.689	321.506	0.091	-0.172
-710.675	195.956	-0.051	-0.077
-709.660	46.068	-0.054	0.050
-708.645	800.000	0.097	0.319
-707.631	800.000	0.118	0.379
-706.616	513.973	0.239	-0.556
-705.602	113.468	0.087	-0.105
-704.587	-31.886	-0.094	0.053
-703.572	-28.409	0.412	-0.237
-702.558	-200.000	-0.005	0.103
-701.543	-150.397	-0.283	-0.022
-700.529	800.000	-0.110	0.419
-699.514	800.000	0.038	0.110
-698.499	-71.973	0.132	0.049
-697.485	-57.739	0.235	0.102
-696.470	25.068	-0.161	0.133
-695.456	800.000	-0.014	0.043
-694.441	123.123	-0.105	-0.131
-693.426	-29.759	-0.319	-0.181
-692.412	27.047	-0.249	0.208
-691.397	-36.622	-0.204	0.109
-690.383	-72.491	-0.042	0.015
-689.368	-62.945	0.232	0.095
-688.354	-123.513	-0.148	-0.023
-687.339	291.787	0.192	0.349
-686.324	-119.483	0.253	-0.044
-685.310	-79.384	-0.372	0.125
-684.295	64.582	0.119	-0.119
-683.281	145.681	0.089	-0.119
-682.266	-89.924	0.194	-0.056
-681.251	-62.750	0.138	-0.057
-680.237	800.000	0.046	-0.167
-679.222	-200.000	0.064	-0.458
-678.208	-125.511	0.226	0.034
-677.193	-176.156	-0.290	0.008
-676.178	92.066	0.170	-0.190
-675.164	-200.000	-0.006	0.059
-674.149	-70.746	-0.099	0.037
-673.135	35.137	0.065	-0.057
-672.120	800.000	-0.037	-0.143
-671.105	-19.132	0.200	-0.124
-670.091	-200.000	-0.014	0.347
-669.076	-25.328	-0.172	-0.101
-668.062	537.345	-0.110	0.260
-667.047	800.000	0.060	0.207
-666.032	800.000	-0.035	0.101
-665.018	49.824	0.241	0.226
-664.003	-147.599	0.208	-0.017
-662.989	-119.933	-0.226	-0.039
-661.974	71.343	0.138	-0.143
-660.959	39.533	-0.153	0.136
-659.945	233.373	0.122	0.199
-658.930	210.213	-0.092	0.144
-657.916	-3.736	-0.148	0.102
-656.901	-55.507	-0.156	-0.069
-655.886	800.000	-0.048	0.176
-654.872	350.192	0.089	0.176
-653.857	-59.366	-0.156	0.067
-652.843	59.311	0.118	-0.116
-651.828	800.000	0.025	-0.072
-650.814	-9.595	-0.261	0.173
-649.799	-131.329	-0.156	-0.021
-648.784	-18.410	-0.250	-0.155
-647.770	113.572	-0.130	-0.157
-646.755	-200.000	0.056	-0.308
-645.741	498.763	-0.115	-0.262
-644.726	-74.148	0.212	-0.076
-643.711	-42.853	0.112	-0.056
-642.697	130.718	0.017	-0.022
-641.682	-4.263	0.189	0.130
-640.668	2.735	-0.263	-0.189
-639.653	-175.656	0.158	-0.004
-638.638	457.075	-0.146	0.323
-637.624	-3.498	-0.069	0.048
-636.609	-130.731	0.204	-0.027
-635.595	-200.000	0.024	0.401
-634.580	233.508	-0.109	0.178
-633.565	723.518	-0.152	-0.401
-632.551	257.581	0.131	0.224
-631.536	272.227	-0.024	-0.043
-630.522	-109.334	-0.297	-0.063
-629.507	-200.000	-0.014	-0.147
-628.492	-200.000	-0.021	-0.435
-627.478	-6.233	0.299	0.202
-626.463	-141.284	-0.122	-0.012
-625.449	-121.904	-0.104	0.017
-624.434	567.042	-0.004	0.011
-623.419	220.606	0.140	-0.223
-622.405	800.000	-0.022	0.077
-621.390	-200.000	0.016	-0.295
-620.376	-51.817	-0.163	-0.075
-619.361	356.845	-0.088	0.174
-618.346	176.662	0.100	0.145
-617.332	327.102	-0.135	0.257
-616.317	-192.878	-0.197	-0.002
-615.303	-142.561	0.219	-0.021
-614.288	29.054	-0.177	0.149
-613.273	-106.028	-0.164	-0.037
-612.259	-131.048	0.095	0.013
-611.244	-107.585	0.149	-0.032
-610.230	-7.470	0.309	0.208
-609.215	208.948	-0.244	-0.378
-608.201	-69.059	0.284	-0.109
-607.186	-200.000	0.036	0.270
-606.171	116.378	-0.029	-0.036
-605.157	-140.204	-0.404	0.042
-604.142	-95.068	-0.290	0.078
-603.128	-19.073	0.156	-0.096
-602.113	103.396	-0.158	0.184
-601.098	-58.066	-0.136	-0.059
-600.084	-200.000	0.008	0.309
-599.069	89.623	-0.184	-0.204
-598.055	-157.779	-0.307	-0.018
-597.040	-172.443	0.276	-0.009
-596.025	-18.172	0.160	0.099
-595.011	-17.134	-0.234	-0.146
-593.996	-200.000	0.024	-0.202
-592.982	-33.248	-0.010	0.006
-591.967	-200.000	-0.049	0.316
-590.952	626.371	-0.076	0.190
-589.938	-200.000	0.031	-0.436
-588.923	-162.240	-0.235	0.012
-587.909	800.000	-0.034	0.122
-586.894	208.313	0.157	0.244
-585.879	674.913	-0.058	0.149
-584.865	-200.000	0.004	-0.040
-583.850	-139.363	-0.375	-0.040
-582.836	261.401	-0.234	0.402
-581.821	-200.000	0.014	-0.061
-580.806	160.909	-0.151	-0.209
-579.792	428.444	-0.105	0.224
-578.777	-200.000	0.039	0.185
-577.763	800.000	0.063	0.197
-576.748	-86.200	-0.290	-0.089
-575.733	-54.357	0.302	0.136
-574.719	162.844	-0.148	0.206
-573.704	347.642	0.125	-0.244
-572.690	-125.142	-0.158	-0.024
-571.675	134.131	-0.066	-0.085
-570.661	-33.842	-0.027	-0.015
-569.646	-200.000	-0.055	-0.436
-568.631	-200.000	-0.015	0.092
-567.617	-93.680	0.367	-0.100
-566.602	182.301	-0.086	-0.125
-565.588	-200.000	-0.003	0.277
-564.573	143.999	-0.099	0.131
-563.558	-101.718	-0.107	-0.026
-562.544	-200.000	-0.013	0.146
-561.529	36.683	0.087	0.076
-560.515	-154.598	0.170	0.011
-559.500	82.747	-0.175	-0.188
-558.485	88.633	-0.245	0.270
-557.471	800.000	-0.076	0.229
-556.456	-52.357	0.287	-0.132
-555.442	191.496	-0.065	0.098
-554.427	-200.000	-0.001	-0.071
-553.412	-200.000	0.021	0.386
-552.398	8.810	-0.413	-0.308
-551.383	139.760	0.145	0.189
-550.369	0.783	0.104	-0.074
-549.354	-93.750	-0.157	0.043
-548.339	-101.140	0.322	-0.078
-547.325	-70.519	0.253	-0.095
-546.310	-109.959	0.027	-0.006
-545.296	800.000	0.103	-0.315
-544.281	-200.000	-0.012	0.080
-543.266	-11.726	-0.239	-0.156
-542.252	5.825	0.035	0.025
-541.237	15.540	-0.095	-0.074
-540.223	578.470	0.060	0.146
-539.208	230.940	-0.066	0.107
-538.193	-96.599	-0.095	-0.025
-537.179	8.219	-0.118	0.088
-536.164	47.990	0.325	-0.301
-535.150	-56.428	0.184	-0.081
-534.135	209.200	-0.025	-0.039
-533.121	-200.000	0.027	-0.188
-532.106	-86.815	-0.326	-0.098
-531.091	406.726	0.125	0.260
-530.077	-8.885	0.029	-0.019
-529.062	-128.257	0.281	0.040
-528.048	750.012	-0.047	-0.125
-527.033	15.778	0.068	0.053
-526.018	-113.766	-0.191	0.037
-525.004	197.671	-0.243	-0.367
-523.989	0.065	0.201	0.142
-522.975	-160.834	-0.431	-0.023
-521.960	91.660	0.092	0.103
-520.945	329.148	0.244	0.464
-519.931	-29.378	-0.173	0.098
-518.916	-52.051	-0.315	-0.145
-517.902	43.166	-0.337	-0.304
-516.887	-16.059	-0.096	0.060
-515.872	86.368	-0.160	0.174
-514.858	-26.589	0.184	-0.107
-513.843	-48.923	-0.172	0.082
-512.829	92.559	-0.158	-0.176
-511.814	800.000	0.068	-0.219
-510.799	-177.588	0.394	-0.009
-509.785	-147.550	-0.129	-0.011
-508.770	87.800	0.089	-0.098
-507.756	-161.533	-0.253	-0.013
-506.741	-200.000	-0.035	0.244
-505.726	111.710	-0.082	-0.098
-504.712	-200.000	0.031	-0.139
-503.697	260.287	-0.026	-0.045
-502.683	-20.079	0.128	0.078
-501.668	-38.458	0.220	0.115
-500.653	-200.000	-0.002	-0.249
-499.639	-80.270	0.346	-0.114
-498.624	571.850	-0.014	-0.034
-497.610	46.728	0.161	0.147
-496.595	134.850	-0.045	0.058
-495.581	-92.633	0.334	-0.092
-494.566	-125.753	-0.219	-0.033
-493.551	-77.185	-0.104	-0.036
-492.537	-115.723	-0.415	0.077
-491.522	-200.000	-0.000	-0.368
-490.508	-147.796	0.239	0.020
-489.493	-136.977	0.225	0.025
-488.478	-178.994	0.173	-0.004
-487.464	-200.000	-0.001	-0.118
-486.449	800.000	-0.042	0.165
-485.435	800.000	-0.110	-0.403
-484.420	-112.911	0.239	-0.047
-483.405	800.000	0.018	0.079
-482.391	131.007	0.051	0.065
-481.376	-131.986	-0.278	0.036
-480.362	800.000	-0.130	0.476
-479.347	34.973	-0.297	0.256
-478.332	-81.366	-0.093	0.030
-477.318	17.846	0.284	-0.223
-476.303	26.841	-0.221	-0.183
-475.289	-86.679	0.173	0.052
-474.274	-200.000	0.035	0.351
-473.259	800.000	0.026	0.108
-472.245	-83.176	-0.118	0.037
-471.230	593.736	-0.044	-0.106
-470.216	-200.000	-0.010	-0.359
-469.201	612.693	-0.093	0.230
-468.186	45.189	0.242	0.220
-467.172	-170.483	0.170	0.006
-466.157	40.949	0.123	-0.110
-465.143	-58.905	-0.120	0.051
-464.128	53.492	-0.202	-0.192
-463.113	-175.192	-0.041	0.001
-462.099	-11.200	-0.344	-0.224
-461.084	-97.458	0.109	0.028
-460.070	-200.000	-0.010	0.196
-459.055	-105.827	0.130	0.029
-458.040	303.527	-0.028	0.051
-457.026	238.832	0.113	-0.185
-456.011	-1.892	0.146	0.101
-454.997	-113.981	-0.097	0.019
-453.982	525.886	0.110	-0.256
-452.968	800.000	0.037	-0.116
-451.953	-62.051	0.295	-0.121
-450.938	73.749	0.175	0.181
-449.924	-200.000	-0.046	-0.207
-448.909	99.345	-0.263	-0.300
-447.895	559.652	-0.069	0.164
-446.880	-142.609	-0.277	0.027
-445.865	-200.000	-0.012	-0.252
-444.851	-200.000	0.014	0.391
-443.836	-10.515	0.121	-0.079
-442.822	-83.279	0.154	0.049
-441.807	800.000	-0.070	0.222
-440.792	-147.845	-0.123	0.010
-439.778	-200.000	0.039	0.289
-438.763	-200.000	-0.017	0.097
-437.749	-200.000	-0.004	-0.176
-436.734	165.567	-0.132	0.185
-435.719	-75.606	0.500	-0.175
-434.705	800.000	0.092	0.261
-433.690	398.134	-0.104	0.215
-432.676	-97.753	0.023	-0.006
-431.661	67.660	-0.303	-0.305
-430.646	633.037	-0.061	-0.151
-429.632	-53.218	-0.167	-0.075
-428.617	156.286	0.103	0.139
-427.603	159.258	-0.118	0.162
-426.588	-120.962	-0.352	0.058
-425.573	-200.000	0.023	-0.201
-424.559	505.300	-0.097	0.221
-423.544	252.941	-0.173	0.291
-422.530	-200.000	-0.029	-0.324
-421.515	-7.842	0.230	0.153
-420.500	63.887	-0.053	0.053
-419.486	208.074	0.140	0.215
-418.471	-184.745	0.155	0.002
-417.457	-9.686	0.114	0.075
-416.442	-80.228	0.421	-0.139
-415.428	-200.000	0.010	-0.458
-414.413	-99.249	-0.203	0.050
-413.398	-57.084	0.353	-0.153
-412.384	-200.000	-0.021	-0.148
-411.369	-94.101	0.031	0.008
-410.355	800.000	0.156	-0.433
-409.340	-31.469	0.179	-0.099
-408.325	35.804	-0.176	0.152
-407.311	14.092	0.250	-0.192
-406.296	800.000	0.084	-0.235
-405.282	-200.000	0.014	0.224
-404.267	-114.683	-0.303	-0.057
-403.252	-51.182	0.147	-0.068
-402.238	133.249	0.013	-0.016
-401.223	800.000	-0.064	0.260
-400.209	-9.369	-0.197	-0.130
-399.194	-200.000	0.027	-0.229
-398.179	-200.000	0.034	-0.193
-397.165	800.000	0.075	0.292
-396.150	-37.251	-0.093	0.049
-395.136	800.000	-0.097	-0.409
-394.121	-200.000	0.029	-0.533
-393.106	-200.000	0.093	-0.428
-392.092	160.972	0.121	0.167
-391.077	800.000	0.084	-0.318
-390.063	-132.428	-0.051	0.006
-389.048	633.954	0.070	-0.174
-388.033	-147.667	-0.141	-0.012
-387.019	257.454	-0.189	0.320
-386.004	-200.000	-0.009	-0.061
-384.990	592.013	-0.154	-0.374
-383.975	370.977	0.088	-0.176
-382.960	-180.206	-0.072	0.001
-381.946	-1.614	0.163	-0.113
-380.931	-83.746	0.201	-0.063
-379.917	102.791	-0.058	0.067
-378.902	-92.620	0.201	0.055
-377.888	-200.000	-0.024	0.144
-376.873	204.967	0.068	-0.104
-375.858	35.027	-0.099	-0.085
-374.844	-28.552	0.134	0.076
-373.829	-79.765	0.114	0.038
-372.815	800.000	-0.092	-0.271
-371.800	51.191	0.014	-0.013
-370.785	-52.410	-0.165	0.075
-369.771	800.000	-0.004	-0.017
-368.756	-70.345	0.160	0.059
-367.742	0.735	-0.181	0.128
-366.727	122.985	-0.137	-0.168
-365.712	-103.808	-0.190	-0.044
-364.698	-29.215	0.126	0.071
-363.683	800.000	0.058	-0.163
-362.669	-4.501	-0.322	-0.218
-361.654	99.011	0.111	0.126
-360.639	85.388	-0.223	-0.241
-359.625	155.463	-0.141	0.190
-358.610	181.344	0.258	0.373
-357.596	-115.292	-0.186	-0.034
-356.581	-200.000	-0.003	-0.089
-355.566	-61.949	0.096	0.040
-354.552	-135.468	0.224	0.026
-353.537	-24.427	0.240	-0.140
-352.523	-9.971	0.231	0.151
-351.508	796.809	-0.030	-0.082
-350.493	98.946	-0.455	-0.516
-349.479	18.468	-0.149	0.117
-348.464	-200.000	0.020	-0.113
-347.450	-50.374	-0.105	-0.049
-346.435	-200.000	0.013	0.311
-345.420	-83.892	-0.088	0.027
-344.406	-72.013	-0.171	0.063
-343.391	-200.000	-0.057	-0.395
-342.377	472.759	-0.104	-0.231
-341.362	-200.000	0.021	0.159
-340.348	-200.000	-0.011	-0.086
-339.333	38.962	0.196	0.172
-338.318	-80.726	0.098	-0.032
-337.304	674.053	0.118	0.301
-336.289	800.000	-0.096	0.263
-335.275	-200.000	0.046	0.285
-334.260	-24.103	-0.198	-0.116
-333.245	59.477	-0.272	-0.263
-332.231	-157.233	-0.062	0.004
-331.216	-52.633	-0.136	-0.062
-330.202	-177.463	-0.130	0.003
-329.187	-46.198	-0.048	0.023
-328.172	-143.423	0.074	0.007
-327.158	-52.505	0.182	-0.083
-326.143	172.081	-0.114	-0.160
-325.129	-200.000	0.112	-0.484
-324.114	-100.196	-0.321	0.078
-323.099	-128.727	0.107	0.015
-322.085	800.000	-0.087	-0.250
-321.070	-10.026	0.215	0.140
-320.056	800.000	-0.090	0.357
-319.041	800.000	-0.006	0.022
-318.026	-37.539	-0.409	-0.214
-317.012	94.615	0.130	0.145
-315.997	-200.000	0.022	0.214
-314.983	38.161	0.118	-0.103
-313.968	33.146	0.172	0.146
-312.953	364.672	0.143	0.283
-311.939	-200.000	0.016	0.089
-310.924	374.949	-0.063	-0.125
-309.910	-132.643	-0.290	0.036
-308.895	-28.862	0.113	0.064
-307.880	144.734	0.068	0.089
-306.866	-200.000	0.011	-0.291
-305.851	-102.172	-0.213	0.050
-304.837	14.831	0.385	0.295
-303.822	-45.739	0.114	0.055
-302.807	62.511	0.176	-0.173
-301.793	-200.000	0.043	-0.194
-300.778	24.509	-0.271	0.220
-299.764	-200.000	-0.024	0.214
-298.749	410.789	0.063	-0.132
-297.735	-101.835	0.101	-0.024
-296.720	-200.000	-0.016	0.074
-295.705	219.698	0.008	-0.013
-294.691	-200.000	0.039	0.209
-293.676	800.000	-0.059	-0.236
-292.662	-200.000	-0.003	-0.093
-291.647	340.957	0.161	-0.308
-290.632	-54.189	0.329	0.146
-289.618	-11.285	-0.109	-0.070
-288.603	93.944	-0.162	-0.180
-287.589	-95.839	0.209	0.055
-286.574	192.441	-0.172	-0.254
-285.559	-79.632	-0.191	0.063
-284.545	55.143	0.093	-0.088
-283.530	-4.582	-0.500	0.338
-282.516	-111.002	0.213	-0.043
-281.501	677.477	0.106	-0.269
-280.486	-111.332	0.141	0.028
-279.472	15.470	0.167	-0.128
-278.457	-200.000	0.007	-0.067
-277.443	445.035	-0.106	-0.227
-276.428	800.000	0.060	-0.205
-275.413	118.607	0.183	0.222
-274.399	-118.198	0.067	-0.012
-273.384	351.491	0.073	0.142
-272.370	67.742	0.123	0.123
-271.355	-200.000	-0.111	0.000
-270.340	134.557	-0.094	0.119
-269.326	-42.645	0.070	0.035
-268.311	-200.000	0.019	0.226
-267.297	-137.294	-0.187	-0.021
-266.282	120.714	0.152	0.184
-265.267	800.000	0.092	-0.270
-264.253	800.000	-0.054	0.220
-263.238	163.933	0.029	0.040
-262.224	151.872	-0.047	0.062
-261.209	-100.499	0.144	0.035
-260.195	-200.000	0.009	0.319
-259.180	-60.520	0.248	0.103
-258.165	73.675	0.149	-0.153
-257.151	37.232	0.275	-0.238
-256.136	-58.467	0.257	-0.109
-255.122	800.000	0.004	0.013
-254.107	180.518	0.161	0.231
-253.092	176.933	0.064	-0.091
-252.078	-200.000	-0.020	-0.117
-251.063	108.240	0.053	-0.062
-250.049	73.274	-0.243	-0.249
-249.034	-15.733	-0.123	0.077
-248.019	-129.047	0.217	-0.030
-247.005	800.000	-0.060	-0.218
-245.990	-13.691	0.439	-0.278
-244.976	75.143	0.102	0.105
-243.961	-83.307	-0.157	0.049
-242.946	36.529	0.194	0.167
-241.932	383.318	0.081	0.163
-240.917	173.449	0.035	0.049
-239.903	229.562	-0.099	0.158
-238.888	-119.830	0.056	-0.009
-237.873	-136.268	0.354	-0.040
-236.859	24.795	-0.163	0.132
-235.844	-130.672	0.152	0.020
-234.830	-46.428	0.121	0.058
-233.815	284.444	-0.261	-0.459
-232.800	-99.510	0.247	0.061
-231.786	496.325	0.114	0.257
-230.771	800.000	-0.115	0.337
-229.757	800.000	-0.119	-0.353
-228.742	-200.000	0.093	-0.451
-227.727	-91.991	-0.140	-0.039
-226.713	-34.996	0.075	0.040
-225.698	9.080	-0.229	0.169
-224.684	800.000	0.062	-0.210
-223.669	233.470	0.072	-0.115
-222.655	-46.116	-0.208	-0.100
-221.640	111.069	0.072	-0.084
-220.625	40.617	-0.136	0.120
-219.611	84.046	0.164	0.176
-218.596	3.538	0.370	0.263
-217.582	70.420	-0.213	0.215
-216.567	800.000	-0.065	0.236
-215.552	-9.274	-0.128	-0.084
-214.538	800.000	-0.002	-0.010
-213.523	-55.295	-0.293	-0.129
-212.509	800.000	-0.049	0.186
-211.494	-106.956	0.155	0.034
-210.479	55.999	-0.043	0.041
-209.465	-22.491	0.295	0.174
-208.450	61.525	0.297	-0.288
-207.436	70.585	0.110	0.111
-206.421	159.191	-0.100	0.135
-205.406	800.000	0.108	0.302
-204.392	800.000	0.059	0.183
-203.377	-36.688	0.228	-0.120
-202.363	71.550	-0.163	-0.165
-201.348	800.000	0.062	-0.196
-200.333	-108.072	-0.382	-0.081
-199.319	-56.555	-0.026	-0.011
-198.304	71.632	-0.244	-0.247
-197.290	-200.000	0.053	0.285
-196.275	800.000	0.086	-0.336
-195.260	75.974	-0.266	0.274
-194.246	583.940	-0.109	0.261
-193.231	800.000	-0.045	0.191
-192.217	-23.446	0.159	0.093
-191.202	-80.778	-0.107	-0.035
-190.187	800.000	0.131	0.542
-189.173	272.845	0.088	0.152
-188.158	800.000	-0.084	0.285
-187.144	-200.000	-0.018	0.102
-186.129	-78.423	0.286	0.096
-185.114	-89.929	0.154	-0.044
-184.100	83.386	-0.025	0.027
-183.085	131.644	0.277	0.348
-182.071	601.009	-0.192	0.466
-181.056	29.021	-0.134	0.111
-180.042	-2.540	0.145	-0.099
-179.027	-200.000	0.005	0.287
-178.012	-200.000	-0.002	-0.142
-176.998	84.826	-0.178	-0.190
-175.983	-200.000	-0.053	0.318
-174.969	723.740	-0.068	-0.177
-173.954	-116.640	-0.056	0.010
-172.939	71.674	0.149	-0.151
-171.925	-88.929	0.566	-0.164
-170.910	-27.927	0.081	-0.046
-169.896	-62.044	-0.104	0.042
-168.881	-95.428	-0.270	-0.071
-167.866	-151.667	0.136	0.010
-166.852	263.073	-0.068	0.115
-165.837	219.747	-0.104	-0.162
-164.823	301.447	0.114	0.205
-163.808	476.637	-0.077	0.170
-162.793	-200.000	-0.026	0.362
-161.779	800.000	0.134	-0.383
-160.764	-155.983	-0.414	-0.026
-159.750	94.219	0.215	0.238
-158.735	290.923	0.103	-0.183
-157.720	-200.000	-0.027	0.143
-156.706	-185.053	0.189	0.003
-155.691	250.568	0.162	0.268
-154.677	61.784	0.295	0.287
-153.662	-200.000	0.038	-0.226
-152.647	364.825	-0.042	-0.082
-151.633	138.310	-0.136	0.174
-150.618	421.630	-0.123	0.258
-149.604	-90.583	0.125	-0.035
-148.589	30.713	0.056	-0.046
-147.574	442.589	0.105	-0.225
-146.560	-200.000	-0.127	0.554
-145.545	691.422	0.011	0.028
-144.531	-200.000	-0.029	0.212
-143.516	233.611	0.230	0.369
-142.502	-117.762	0.114	-0.020
-141.487	81.816	-0.097	0.102
-140.472	102.766	-0.060	0.068
-139.458	24.219	0.187	0.151
-138.443	291.906	-0.107	-0.190
-137.429	800.000	0.060	-0.215
-136.414	-200.000	-0.107	0.476
-135.399	569.661	-0.036	-0.085
-134.385	62.529	0.112	0.109
-133.370	484.409	-0.049	-0.108
-132.356	800.000	-0.058	-0.198
-131.341	111.185	-0.117	0.137
-130.326	-200.000	-0.027	0.253
-129.312	621.602	-0.029	-0.072
-128.297	-180.338	0.135	-0.003
-127.283	33.772	-0.229	0.194
-126.268	139.771	-0.109	-0.140
-125.253	-200.000	0.025	-0.391
-124.239	-108.111	0.126	0.027
-123.224	800.000	-0.074	-0.219
-122.210	-200.000	-0.002	-0.134
-121.195	-82.389	-0.051	-0.016
-120.180	-200.000	0.025	-0.214
-119.166	-143.950	0.246	-0.023
-118.151	-79.913	-0.163	-0.053
-117.137	-200.000	0.009	0.214
-116.122	-117.469	0.119	0.021
-115.107	800.000	-0.135	0.432
-114.093	-200.000	0.036	0.238
-113.078	800.000	-0.011	0.037
-112.064	493.349	0.038	-0.085
-111.049	7.045	-0.253	-0.184
-110.034	64.111	-0.216	-0.211
-109.020	800.000	0.068	0.279
-108.005	126.415	0.118	0.145
-106.991	-200.000	-0.031	-0.165
-105.976	-108.844	0.380	0.079
-104.962	-103.240	0.194	-0.045
-103.947	105.287	0.203	-0.233
-102.932	-66.242	0.035	0.014
-101.918	800.000	0.031	-0.086
-100.903	800.000	0.054	0.181
-99.889	-200.000	0.009	-0.147
-98.874	-82.517	0.180	-0.057
-97.859	800.000	-0.121	-0.356
-96.845	-75.706	0.086	0.030
-95.830	167.139	-0.016	0.022
-94.816	33.160	-0.255	0.215
-93.801	-200.000	-0.006	-0.089
-92.786	800.000	0.004	-0.015
-91.772	30.690	-0.308	0.256
-90.757	-156.074	-0.219	-0.013
-89.743	-4.269	0.086	-0.058
-88.728	-27.110	0.332	0.188
-87.713	100.899	0.031	0.036
-86.699	347.425	0.164	0.314
-85.684	-154.003	0.106	-0.007
-84.670	-107.094	-0.155	0.033
-83.655	-200.000	-0.027	-0.217
-82.640	-200.000	0.037	-0.251
-81.626	-140.915	0.121	0.012
-80.611	-94.707	0.373	0.098
-79.597	-111.959	0.434	-0.085
-78.582	-23.893	-0.132	0.077
-77.567	-39.959	-0.093	-0.047
-76.553	-19.800	-0.198	-0.119
-75.538	-200.000	0.010	-0.120
-74.524	-200.000	-0.033	0.225
-73.509	-146.229	0.253	0.022
-72.494	413.438	-0.094	-0.195
-71.480	-136.783	-0.394	0.044
-70.465	-81.962	0.235	-0.075
-69.451	-155.882	-0.174	-0.011
-68.436	221.706	0.115	-0.180
-67.422	-151.200	-0.278	-0.020
-66.407	800.000	0.050	-0.203
-65.392	-200.000	0.009	-0.073
-64.378	-53.154	-0.095	0.042
-63.363	-200.000	-0.071	-0.350
-62.349	-200.000	0.038	0.430
-61.334	114.138	-1.110	-1.312
-60.319	96.338	0.552	0.613
-59.305	800.000	-0.398	-1.417
-58.290	248.864	0.882	1.450
-57.276	800.000	0.401	1.148
-56.261	-200.000	136.587	664.285
-55.246	337.670	1673.778	3160.109
-54.232	134.544	2810.187	3539.482
-53.217	80.322	2313.408	2417.432
-52.203	29.060	1911.581	1574.203
-51.188	23.388	1706.946	1362.167
-50.173	21.611	1669.563	1318.909
-49.159	42.998	1743.428	1543.326
-48.144	39.973	1751.264	1526.877
-47.130	22.885	1703.241	1355.138
-46.115	20.623	1687.700	1325.500
-45.100	20.499	1682.443	1320.376
-44.086	20.451	1679.919	1317.980
-43.071	20.376	1678.148	1315.970
-42.057	20.422	1675.641	1314.300
-41.042	20.373	1673.122	1311.899
-40.027	20.393	1671.804	1310.969
-39.013	20.300	1670.366	1309.084
-37.998	20.359	1668.179	1307.767
-36.984	20.436	1667.021	1307.387
-35.969	20.523	1665.561	1306.839
-34.954	20.588	1663.966	1306.023
-33.940	20.434	1662.564	1303.719
-32.925	20.464	1660.567	1302.322
-31.911	20.403	1658.702	1300.357
-30.896	20.506	1657.078	1299.797
-29.881	20.465	1655.644	1298.318
-28.867	20.504	1653.878	1297.172
-27.852	20.569	1652.627	1296.622
-26.838	20.490	1651.650	1295.219
-25.823	20.513	1650.502	1294.435
-24.809	20.492	1649.429	1293.386
-23.794	20.551	1647.396	1292.179
-22.779	20.617	1645.768	1291.343
-21.765	20.510	1644.467	1289.477
-20.750	20.469	1642.596	1287.659
-19.736	20.483	1641.149	1286.574
-18.721	20.604	1640.226	1286.692
-17.706	20.579	1638.408	1285.033
-16.692	20.566	1637.169	1283.912
-15.677	20.604	1635.592	1282.910
-14.663	20.570	1634.463	1281.721
-13.648	20.655	1632.747	1280.948
-12.633	20.583	1631.120	1279.094
-11.619	20.571	1629.690	1277.833
-10.604	20.540	1628.043	1276.261
-9.590	20.585	1626.816	1275.578
-8.575	20.561	1625.359	1274.209
-7.560	20.545	1624.479	1273.354
-6.546	20.563	1623.467	1272.642
-5.531	20.563	1622.468	1271.806
-4.517	20.477	1621.704	1270.528
-3.502	20.531	1619.968	1269.512
-2.487	20.485	1618.572	1268.035
-1.473	20.098	1605.783	1255.162
-0.458	17.043	1585.739	1217.559
0.556	12.459	1587.671	1185.850
1.571	10.319	1610.739	1187.296
2.586	10.143	1622.938	1194.883
3.600	9.813	1568.733	1152.515
4.615	5.689	1462.805	1047.087
5.629	1.452	1407.165	979.892
6.644	0.737	1400.476	970.559
7.659	0.613	1400.153	969.453
8.673	0.576	1398.833	968.215
9.688	0.643	1396.068	966.641
10.702	0.425	1392.799	962.905
11.717	2.647	1394.904	978.468
12.731	8.704	1403.878	1023.495
13.746	14.681	1413.377	1068.694
14.761	17.071	1416.640	1086.376
15.775	16.620	1415.448	1082.485
16.790	15.641	1412.489	1073.872
17.804	14.881	1410.175	1067.170
18.819	14.485	1408.614	1063.369
19.834	14.282	1407.564	1061.190
20.848	14.088	1406.190	1058.825
21.863	13.829	1404.631	1055.910
22.877	13.677	1403.417	1053.933
23.892	13.554	1402.689	1052.513
24.907	13.603	1401.675	1051.972
25.921	13.585	1400.536	1050.906
26.936	13.610	1399.661	1050.319
27.950	13.696	1398.846	1050.157
28.965	13.683	1397.915	1049.284
29.980	13.742	1396.893	1048.798
30.994	13.741	1396.131	1048.125
32.009	13.785	1395.139	1047.565
33.023	13.879	1393.848	1047.095
34.038	13.789	1392.558	1045.471
35.053	13.799	1391.148	1044.378
36.067	13.751	1390.686	1043.639
37.082	13.710	1389.835	1042.650
38.096	13.775	1388.769	1042.165
39.111	13.731	1387.911	1041.153
40.126	13.713	1386.852	1040.154
41.140	13.652	1386.217	1039.201
42.155	13.510	1385.918	1038.001
43.169	13.585	1385.530	1038.089
44.184	13.593	1385.361	1037.915
45.199	13.556	1384.765	1037.145
46.213	13.686	1384.123	1037.385
47.228	13.645	1383.282	1036.412
48.242	13.751	1381.999	1036.017
49.257	13.712	1380.300	1034.410
50.271	13.707	1378.756	1033.130
51.286	13.725	1377.452	1032.174
52.301	13.667	1376.301	1030.862
53.315	13.697	1374.996	1029.976
54.330	13.628	1374.397	1029.006
55.344	13.676	1372.942	1028.124
56.359	13.523	1372.239	1026.558
57.374	13.499	1371.190	1025.537
58.388	13.597	1370.484	1025.525
59.403	13.571	1369.721	1024.704
60.417	13.610	1369.345	1024.569
61.432	13.513	1368.518	1023.264
62.447	13.569	1366.923	1022.324
63.461	13.533	1365.856	1021.212
64.476	13.428	1365.077	1019.895
65.490	13.445	1363.809	1018.960
66.505	13.534	1362.274	1018.274
67.520	13.540	1360.707	1017.048
68.534	13.555	1359.677	1016.278
69.549	13.589	1358.352	1015.409
70.563	13.554	1357.755	1014.654
71.578	13.525	1355.886	1012.993
72.593	13.554	1355.134	1012.519
73.607	13.437	1354.315	1011.104
74.622	13.496	1353.491	1010.760
75.636	13.427	1353.184	1010.015
76.651	13.465	1352.112	1009.362
77.666	13.493	1351.540	1009.012
78.680	13.445	1351.388	1008.518
79.695	13.543	1349.922	1007.932
80.709	13.575	1349.480	1007.705
81.724	13.641	1348.822	1007.532
82.739	13.534	1347.885	1006.091
83.753	13.637	1346.689	1005.730
84.768	13.712	1345.272	1005.042
85.782	13.695	1343.993	1003.896
86.797	13.638	1342.700	1002.494
87.812	13.545	1341.785	1001.162
88.826	13.656	1340.461	1000.752
89.841	13.603	1339.378	999.539
90.855	13.736	1338.315	999.456
91.870	13.699	1337.680	998.671
92.884	13.696	1336.873	997.964
93.899	13.693	1335.867	997.103
94.914	13.815	1334.911	997.037
95.928	13.831	1333.635	996.093
96.943	13.724	1333.430	995.208
97.957	13.782	1331.797	994.245
98.972	13.706	1331.339	993.361
99.987	13.736	1330.207	992.607
101.001	13.706	1329.132	991.544
102.016	13.777	1328.062	991.077
103.030	13.825	1327.015	990.495
104.045	13.783	1326.060	989.446
105.060	13.677	1324.797	987.782
106.074	13.686	1323.341	986.661
107.089	13.636	1322.246	985.464
108.103	13.661	1321.118	984.683
109.118	13.664	1319.491	983.404
110.133	13.637	1318.356	982.307
111.147	13.648	1316.730	981.075
112.162	13.615	1315.379	979.790
113.176	13.660	1314.382	979.226
114.191	13.720	1313.537	978.863
115.206	13.693	1312.638	977.948
116.220	13.670	1311.360	976.773
117.235	13.658	1309.958	975.572
118.249	13.703	1308.843	974.919
119.264	13.760	1307.920	974.481
120.279	13.650	1306.814	972.923
121.293	13.672	1305.685	972.124
122.308	13.552	1304.803	970.679
123.322	13.660	1303.429	970.203
124.337	13.564	1302.647	968.974
125.352	13.535	1301.699	968.016
126.366	13.723	1299.797	967.610
127.381	13.670	1299.095	966.696
128.395	13.592	1298.162	965.458
129.410	13.701	1296.991	965.138
130.424	13.655	1296.424	964.362
131.439	13.648	1295.320	963.419
132.454	13.733	1293.981	962.827
133.468	13.687	1293.294	961.965
134.483	13.656	1292.471	961.091
135.497	13.661	1291.652	960.425
136.512	13.683	1290.180	959.373
137.527	13.697	1288.799	958.339
138.541	13.630	1287.250	956.717
139.556	13.679	1285.616	955.703
140.570	13.746	1284.733	955.347
141.585	13.795	1283.291	954.472
142.600	13.773	1282.323	953.541
143.614	13.852	1281.562	953.343
144.629	13.930	1280.115	952.627
145.643	13.887	1279.258	951.659
146.658	13.930	1277.477	950.496
147.673	13.857	1276.380	949.180
148.687	13.825	1275.391	948.178
149.702	13.791	1274.363	947.135
150.716	13.799	1272.414	945.650
151.731	13.866	1271.598	945.343
152.746	13.834	1270.279	944.091
153.760	13.804	1269.220	943.051
154.775	13.948	1267.998	942.882
155.789	13.949	1266.778	941.892
156.804	14.001	1265.616	941.242
157.819	13.951	1264.304	939.898
158.833	14.057	1263.193	939.589
159.848	13.993	1262.747	938.812
160.862	14.080	1260.862	937.822
161.877	13.987	1260.275	936.776
162.892	13.970	1259.636	936.122
163.906	14.006	1258.278	935.233
164.921	13.982	1257.434	934.386
165.935	14.001	1256.162	933.466
166.950	14.140	1255.498	933.671
167.964	13.982	1254.972	932.311
168.979	14.044	1254.077	931.912
169.994	13.993	1253.181	930.875
171.008	13.997	1252.901	930.606
172.023	14.149	1251.848	930.593
173.037	14.067	1251.287	929.637
174.052	14.154	1249.871	928.987
175.067	14.057	1248.983	927.707
176.081	14.033	1248.108	926.837
177.096	14.051	1247.232	926.207
178.110	14.147	1245.726	925.543
179.125	14.110	1244.961	924.686
180.140	14.107	1243.585	923.567
181.154	14.259	1242.315	923.383
182.169	14.170	1241.274	922.033
183.183	14.182	1240.048	921.109
184.198	14.193	1238.949	920.272
185.213	14.328	1237.436	919.815
186.227	14.224	1236.319	918.329
187.242	14.238	1235.491	917.707
188.256	14.310	1234.472	917.265
189.271	14.444	1233.090	916.896
190.286	14.230	1232.161	914.948
191.300	14.177	1231.582	914.142
192.315	14.108	1231.319	913.488
193.329	14.125	1230.471	912.873
194.344	14.218	1229.342	912.462
195.359	14.320	1228.783	912.526
196.373	14.314	1228.543	912.236
197.388	14.439	1227.817	912.300
198.402	14.447	1227.846	912.284
199.417	14.444	1226.826	911.432
200.432	14.484	1226.184	911.092
201.446	14.558	1225.059	910.581
202.461	14.514	1224.424	909.786
203.475	14.499	1223.255	908.755
204.490	14.503	1221.860	907.662
205.504	14.545	1220.356	906.689
206.519	14.613	1219.012	905.980
207.534	14.554	1217.865	904.727
208.548	14.610	1217.287	904.525
209.563	14.519	1216.725	903.531
210.577	14.509	1215.936	902.814
211.592	14.561	1214.813	902.178
212.607	14.679	1213.699	901.911
213.621	14.703	1213.036	901.468
214.636	14.645	1212.092	900.375
215.650	14.635	1211.273	899.630
216.665	14.777	1210.388	899.657
217.680	14.728	1209.333	898.530
218.694	14.747	1208.433	897.883
219.709	14.788	1207.760	897.527
220.723	14.809	1207.003	896.996
221.738	14.715	1206.321	895.905
222.753	14.920	1205.026	895.964
223.767	14.843	1204.561	895.127
224.782	14.824	1204.190	894.669
225.796	14.898	1203.324	894.344
226.811	14.936	1202.228	893.651
227.826	14.959	1201.994	893.523
228.840	14.833	1201.404	892.333
229.855	14.807	1200.626	891.538
230.869	14.924	1199.316	891.108
231.884	14.954	1198.539	890.614
232.899	14.879	1198.029	889.757
233.913	14.880	1197.200	889.068
234.928	14.854	1196.649	888.438
235.942	14.868	1195.718	887.746
236.957	14.972	1194.624	887.406
237.972	14.907	1194.059	886.563
238.986	14.942	1193.554	886.296
240.001	14.960	1192.657	885.643
241.015	14.991	1191.891	885.160
242.030	14.999	1191.142	884.570
243.045	15.045	1190.304	884.111
244.059	15.055	1189.639	883.592
245.074	15.031	1188.531	882.563
246.088	15.102	1187.600	882.172
247.103	15.170	1186.961	881.974
248.117	15.133	1186.251	881.173
249.132	15.244	1185.844	881.379
250.147	15.255	1185.237	880.909
251.161	15.297	1183.764	879.954
252.176	15.233	1183.399	879.270
253.190	15.207	1183.305	878.985
254.205	15.299	1182.374	878.697
255.220	15.376	1181.610	878.454
256.234	15.314	1181.326	877.845
257.249	15.408	1180.256	877.463
258.263	15.326	1179.754	876.582
259.278	15.390	1178.712	876.066
260.293	15.449	1177.932	875.714
261.307	15.442	1177.977	875.636
262.322	15.358	1177.321	874.630
263.336	15.505	1176.314	874.574
264.351	15.486	1175.903	874.089
265.366	15.481	1175.049	873.351
266.380	15.576	1174.014	873.001
267.395	15.585	1173.782	872.795
268.409	15.535	1172.893	871.797
269.424	15.524	1172.091	871.065
270.439	15.630	1171.902	871.397
271.453	15.491	1171.399	870.230
272.468	15.420	1170.078	868.804
273.482	15.581	1169.035	868.783
274.497	15.510	1168.938	868.269
275.512	15.538	1167.885	867.555
276.526	15.686	1166.930	867.529
277.541	15.587	1166.181	866.389
278.555	15.667	1165.775	866.422
279.570	15.665	1164.896	865.679
280.585	15.665	1164.027	864.959
281.599	15.718	1163.302	864.614
282.614	15.691	1162.162	863.551
283.628	15.656	1161.013	862.443
284.643	15.814	1160.002	862.424
285.657	15.792	1159.160	861.611
286.672	15.783	1158.029	860.650
287.687	15.787	1157.201	859.978
288.701	15.802	1156.435	859.408
289.716	15.790	1156.021	858.964
290.730	15.833	1155.363	858.615
291.745	15.810	1154.593	857.852
292.760	15.907	1154.049	857.867
293.774	15.895	1153.534	857.345
294.789	15.879	1153.013	856.801
295.803	16.043	1151.689	856.573
296.818	15.915	1151.265	855.535
297.833	15.962	1150.641	855.234
298.847	15.843	1149.984	854.066
299.862	15.910	1148.811	853.458
300.876	15.992	1148.242	853.376
301.891	16.082	1147.462	853.174
302.906	16.155	1146.660	852.872
303.920	16.098	1145.935	851.972
304.935	16.127	1145.372	851.621
305.949	16.191	1144.613	851.308
306.964	16.161	1144.180	850.760
307.979	16.235	1143.177	850.310
308.993	16.272	1142.461	849.887
310.008	16.216	1141.808	849.043
311.022	16.314	1140.766	848.688
312.037	16.285	1140.085	847.962
313.052	16.139	1139.266	846.544
314.066	16.287	1138.039	846.297
315.081	16.148	1137.552	845.164
316.095	16.199	1136.603	844.643
317.110	16.206	1136.045	844.187
318.125	16.263	1135.277	843.827
319.139	16.112	1134.805	842.647
320.154	16.194	1134.024	842.401
321.168	16.305	1133.144	842.226
322.183	16.272	1132.688	841.648
323.197	16.243	1131.913	840.851
324.212	16.232	1131.627	840.512
325.227	16.348	1130.682	840.313
326.241	16.319	1130.212	839.743
327.256	16.279	1129.752	839.128
328.270	16.334	1128.327	838.268
329.285	16.261	1127.680	837.353
330.300	16.372	1125.985	836.570
331.314	16.406	1125.514	836.316
332.329	16.384	1124.677	835.509
333.343	16.506	1123.814	835.396
334.358	16.429	1123.048	834.373
335.373	16.436	1122.269	833.757
336.387	16.516	1121.312	833.367
337.402	16.607	1120.270	832.964
338.416	16.537	1120.004	832.352
339.431	16.592	1119.086	831.863
340.446	16.476	1118.976	831.136
341.460	16.588	1117.936	830.842
342.475	16.608	1117.061	830.218
343.489	16.744	1115.587	829.714
344.504	16.686	1114.902	828.848
345.519	16.770	1114.315	828.750
346.533	16.638	1113.423	827.365
347.548	16.764	1112.817	827.457
348.562	16.900	1111.724	827.235
349.577	16.748	1111.232	826.058
350.592	16.758	1110.750	825.674
351.606	16.661	1110.197	824.714
352.621	16.737	1109.321	824.363
353.635	16.794	1108.736	824.130
354.650	16.608	1108.274	822.812
355.665	16.786	1107.079	822.717
356.679	16.789	1106.675	822.359
357.694	16.729	1106.021	821.509
358.708	16.889	1105.158	821.568
359.723	16.905	1104.533	821.112
360.738	16.781	1104.100	820.115
361.752	16.834	1103.453	819.819
362.767	16.925	1102.801	819.699
363.781	16.920	1102.150	819.121
364.796	16.973	1101.568	818.872
365.810	17.034	1101.014	818.681
366.825	17.061	1100.614	818.439
367.840	17.000	1100.044	817.650
368.854	17.101	1099.244	817.471
369.869	17.116	1098.671	817.047
370.883	17.147	1097.364	816.147
371.898	17.018	1096.642	814.920
372.913	16.995	1096.524	814.651
373.927	17.099	1095.997	814.688
374.942	17.191	1095.141	814.420
375.956	17.132	1094.732	813.757
376.971	17.145	1094.516	813.589
377.986	17.190	1093.447	812.939
379.000	17.234	1092.775	812.578
380.015	17.304	1092.106	812.343
381.029	17.271	1091.492	811.654
382.044	17.310	1090.823	811.273
383.059	17.354	1090.487	811.162
384.073	17.429	1089.271	810.544
385.088	17.389	1088.226	809.504
386.102	17.302	1088.004	808.853
387.117	17.300	1086.793	807.868
388.132	17.269	1085.816	806.926
389.146	17.292	1085.027	806.374
390.161	17.347	1084.154	805.919
391.175	17.388	1083.488	805.547
392.190	17.394	1083.002	805.140
393.205	17.374	1082.069	804.280
394.219	17.441	1080.981	803.720
395.234	17.586	1080.116	803.686
396.248	17.531	1079.457	802.867
397.263	17.398	1078.320	801.326
398.278	17.406	1078.014	801.062
399.292	17.359	1077.206	800.170
400.307	17.498	1076.168	799.983
401.321	17.483	1075.513	799.356
402.336	17.502	1074.987	798.979
403.350	17.532	1073.974	798.298
404.365	17.572	1073.336	797.940
405.380	17.712	1072.552	797.945
406.394	17.667	1071.882	797.165
407.409	17.614	1071.351	796.448
408.423	17.712	1070.430	796.152
409.438	17.647	1069.977	795.440
410.453	17.708	1069.171	795.057
411.467	17.786	1068.406	794.779
412.482	17.684	1068.157	794.049
413.496	17.711	1066.971	793.223
414.511	17.802	1066.789	793.444
415.526	17.833	1066.339	793.181
416.540	17.951	1065.727	793.203
417.555	17.963	1064.495	792.272
418.569	17.994	1064.046	792.012
419.584	17.779	1064.012	790.919
420.599	17.976	1063.584	791.443
421.613	110.080	1333.029	1494.023
422.628	101.732	1372.222	1494.109
