DTS Sentinel unit serial number:	SN413079Multiplexer serial number:	ORYXHardware model number:	OX4-SRSoftware version number:	ORYX F/W v4.00 Oryx Data Collector v3.7.2.0data status	okinstallation	princeton_trtdifferential loss correction	single-endedforward channel	channel 2reverse channel	N/Adate	2019/09/17time	13:31:35forward acquisition time	60.00reverse acquisition time	0.00gamma	496.2192k internal	0.2317k external	0.2317temperature offset calibration	0.9986default loss term (dB/km)	0.3790temperature slope calibration	1.0000multiplexer offset coefficient	1.0000multiplexer slope coefficient	1.0000fibre end	0.00T internal ref (°C)	34.59T ext. ref 1 (°C)	0.41T ext. ref 2 (°C)	31.64length (m)	temperature (°C)	Stokes	anti-Stokes-747.200	800.000	0.011	-0.039
-746.185	350.965	-0.240	0.481
-745.171	65.770	0.206	0.211
-744.156	-200.000	-0.075	0.338
-743.142	-41.298	0.260	0.136
-742.127	-84.191	-0.103	-0.033
-741.112	-85.425	-0.083	0.026
-740.098	-66.356	-0.186	0.075
-739.083	-43.169	0.416	0.213
-738.069	-55.472	-0.178	0.081
-737.054	-60.781	-0.086	-0.037
-736.039	800.000	0.037	0.129
-735.025	439.750	0.165	0.364
-734.010	-28.246	-0.316	-0.185
-732.996	-25.891	0.290	-0.173
-731.981	-54.067	-0.312	-0.144
-730.966	-92.127	-0.199	-0.057
-729.952	418.723	0.031	-0.068
-728.937	800.000	0.076	-0.252
-727.923	5.772	-0.195	0.146
-726.908	59.705	0.131	-0.131
-725.894	-200.000	0.003	-0.372
-724.879	239.100	-0.085	-0.143
-723.864	104.715	-0.182	-0.218
-722.850	105.829	-0.200	0.240
-721.835	-69.147	-0.180	-0.070
-720.821	-4.787	-0.176	-0.123
-719.806	19.710	-0.060	-0.049
-718.791	-19.736	0.217	0.136
-717.777	-200.000	-0.025	0.140
-716.762	800.000	0.073	0.271
-715.748	286.547	0.168	-0.306
-714.733	-200.000	0.003	-0.151
-713.718	-200.000	0.024	-0.175
-712.704	-112.071	-0.191	-0.039
-711.689	74.904	-0.186	-0.198
-710.675	672.786	0.102	-0.268
-709.660	-67.834	-0.078	-0.031
-708.645	686.444	-0.151	-0.399
-707.631	-126.388	-0.339	0.051
-706.616	324.405	0.139	0.268
-705.602	64.783	-0.231	-0.236
-704.587	-50.828	0.298	-0.142
-703.572	-49.242	-0.247	0.119
-702.558	-10.791	0.150	-0.100
-701.543	-38.132	0.114	0.061
-700.529	700.142	-0.120	0.319
-699.514	143.614	0.165	0.222
-698.499	-200.000	0.016	0.168
-697.485	-200.000	-0.029	0.349
-696.470	800.000	-0.078	0.220
-695.456	-5.978	-0.366	0.253
-694.441	17.540	-0.320	0.257
-693.426	-200.000	-0.102	0.492
-692.412	-145.607	0.227	-0.021
-691.397	-13.064	-0.203	-0.133
-690.383	328.097	0.062	-0.120
-689.368	-120.270	-0.258	0.044
-688.354	-117.669	-0.200	0.036
-687.339	-21.924	-0.139	0.086
-686.324	-200.000	-0.014	-0.281
-685.310	-54.824	-0.307	-0.140
-684.295	97.138	-0.233	0.271
-683.281	-78.546	0.126	0.044
-682.266	361.109	-0.178	-0.361
-681.251	-118.363	-0.177	0.032
-680.237	3.469	-0.040	0.029
-679.222	-27.821	-0.177	0.104
-678.208	1.570	-0.129	-0.094
-677.193	800.000	-0.038	-0.132
-676.178	-57.290	0.230	-0.102
-675.164	-31.444	-0.253	-0.144
-674.149	215.554	0.174	-0.279
-673.135	-135.271	0.122	-0.015
-672.120	800.000	-0.010	0.037
-671.105	-20.427	0.162	-0.101
-670.091	-101.783	-0.343	-0.084
-669.076	178.744	-0.091	0.134
-668.062	145.756	-0.167	-0.226
-667.047	-82.272	0.097	-0.032
-666.032	611.196	-0.060	-0.152
-665.018	-106.093	0.386	0.088
-664.003	41.964	-0.234	0.215
-662.989	-200.000	-0.016	0.174
-661.974	800.000	-0.065	0.189
-660.959	-3.008	0.150	0.106
-659.945	800.000	0.053	-0.205
-658.930	-79.736	-0.108	-0.037
-657.916	368.620	-0.106	-0.216
-656.901	109.928	-0.060	0.072
-655.886	51.916	0.065	-0.063
-654.872	59.622	-0.133	0.132
-653.857	107.856	-0.179	0.215
-652.843	253.968	-0.280	0.483
-651.828	-7.027	0.202	0.139
-650.814	0.545	0.100	-0.072
-649.799	-106.864	0.455	-0.102
-648.784	448.330	-0.072	0.160
-647.770	161.466	0.125	0.177
-646.755	511.988	-0.080	-0.188
-645.741	208.906	0.133	-0.210
-644.726	26.522	-0.150	-0.126
-643.711	800.000	-0.175	-0.525
-642.697	156.920	-0.101	0.141
-641.682	222.599	0.113	0.184
-640.668	104.491	-0.061	-0.072
-639.653	-59.984	-0.464	-0.200
-638.638	30.621	-0.191	-0.164
-637.624	507.379	-0.076	0.178
-636.609	69.813	-0.179	0.186
-635.595	-71.776	-0.069	-0.026
-634.580	26.604	0.177	-0.149
-633.565	-200.000	-0.028	-0.171
-632.551	-56.949	0.158	0.070
-631.536	800.000	0.011	-0.039
-630.522	-200.000	0.043	0.206
-629.507	-71.645	-0.138	0.052
-628.492	-17.008	0.129	0.082
-627.478	-200.000	-0.036	0.323
-626.463	313.525	-0.075	0.143
-625.449	142.140	0.148	-0.198
-624.434	-200.000	0.033	-0.211
-623.419	-6.502	-0.134	0.092
-622.405	359.556	-0.039	0.079
-621.390	-200.000	0.072	0.343
-620.376	-200.000	0.003	-0.192
-619.361	-8.426	0.262	0.177
-618.346	-5.047	-0.098	-0.068
-617.332	51.439	-0.224	-0.214
-616.317	800.000	0.135	0.379
-615.303	800.000	-0.056	0.223
-614.288	-17.481	0.297	0.188
-613.273	800.000	-0.047	-0.144
-612.259	93.956	0.030	-0.035
-611.244	105.601	0.112	0.133
-610.230	141.499	-0.089	0.118
-609.215	-78.851	-0.169	0.058
-608.201	321.034	-0.092	0.176
-607.186	-85.059	-0.098	-0.031
-606.171	-200.000	-0.026	-0.220
-605.157	3.107	-0.211	0.155
-604.142	-75.297	0.116	-0.042
-603.128	-200.000	0.042	0.348
-602.113	-71.785	-0.196	-0.074
-601.098	-57.556	-0.220	0.097
-600.084	369.145	-0.221	0.450
-599.069	-37.861	-0.111	-0.059
-598.055	800.000	-0.059	0.225
-597.040	8.229	0.017	0.013
-596.025	624.156	-0.121	0.308
-595.011	-116.771	0.149	-0.028
-593.996	29.459	0.330	0.283
-592.982	58.486	-0.095	0.094
-591.967	-31.556	-0.123	0.069
-590.952	800.000	-0.043	0.186
-589.938	103.373	-0.277	-0.327
-588.923	800.000	-0.063	0.278
-587.909	-101.207	-0.248	-0.061
-586.894	-200.000	0.072	-0.356
-585.879	116.806	-0.188	0.232
-584.865	-158.995	0.033	-0.002
-583.850	30.134	-0.041	0.035
-582.836	-200.000	-0.033	-0.164
-581.821	-200.000	0.054	0.259
-580.806	800.000	0.046	0.135
-579.792	-97.351	-0.383	-0.100
-578.777	-200.000	0.030	-0.289
-577.763	-200.000	-0.001	-0.332
-576.748	-170.628	0.227	0.008
-575.733	81.726	-0.073	0.080
-574.719	-148.955	-0.207	0.017
-573.704	153.586	-0.090	0.124
-572.690	-135.802	-0.100	0.012
-571.675	-30.728	-0.229	0.130
-570.661	-200.000	0.010	-0.130
-569.646	192.925	0.039	0.059
-568.631	-113.371	-0.161	-0.032
-567.617	38.335	-0.120	-0.108
-566.602	-94.187	0.193	0.053
-565.588	-200.000	0.098	0.509
-564.573	-148.689	-0.054	-0.004
-563.558	-71.638	-0.246	0.093
-562.544	-125.121	-0.312	0.048
-561.529	-53.187	0.263	0.121
-560.515	688.079	-0.033	0.086
-559.500	-200.000	-0.006	-0.143
-558.485	-142.912	0.387	-0.038
-557.471	132.624	0.068	0.088
-556.456	278.465	0.209	0.374
-555.442	800.000	0.109	-0.347
-554.427	-50.731	-0.066	-0.031
-553.412	-200.000	-0.071	-0.329
-552.398	401.694	0.040	0.084
-551.383	614.603	-0.064	0.161
-550.369	-200.000	0.056	-0.262
-549.354	148.606	-0.164	-0.223
-548.339	400.447	-0.006	-0.013
-547.325	-200.000	0.000	0.150
-546.310	-4.386	-0.113	-0.079
-545.296	43.488	0.251	0.231
-544.281	-22.695	-0.261	-0.159
-543.266	-65.194	-0.208	-0.084
-542.252	-139.973	0.216	0.023
-541.237	318.238	0.041	0.078
-540.223	-24.996	0.247	-0.147
-539.208	-118.348	0.212	-0.038
-538.193	341.170	-0.090	-0.176
-537.179	172.050	0.225	-0.325
-536.164	-200.000	-0.011	-0.223
-535.150	463.087	-0.092	0.206
-534.135	-85.330	-0.134	0.042
-533.121	-40.404	0.127	-0.066
-532.106	-69.454	0.339	-0.131
-531.091	-30.684	-0.042	-0.024
-530.077	-68.058	-0.064	0.025
-529.062	-22.971	-0.153	-0.092
-528.048	-37.927	0.317	0.169
-527.033	166.917	-0.105	-0.149
-526.018	800.000	0.015	-0.057
-525.004	-128.477	-0.090	0.013
-523.989	-107.457	0.090	0.020
-522.975	-59.953	0.011	0.005
-521.960	-136.870	0.255	-0.029
-520.945	800.000	-0.025	-0.076
-519.931	678.406	0.066	-0.172
-518.916	-98.815	0.222	0.057
-517.902	-28.445	-0.158	-0.091
-516.887	-200.000	0.023	-0.202
-515.872	800.000	0.027	0.118
-514.858	-120.283	-0.245	-0.042
-513.843	-200.000	0.039	-0.199
-512.829	56.051	0.165	-0.161
-511.814	43.234	-0.182	0.167
-510.799	79.861	-0.074	0.080
-509.785	-200.000	-0.011	0.250
-508.770	-0.471	0.224	-0.160
-507.756	-49.197	-0.239	-0.115
-506.741	-85.919	0.172	0.054
-505.726	105.817	0.062	0.073
-504.712	639.868	0.147	0.375
-503.697	501.904	-0.105	-0.244
-502.683	23.596	0.222	-0.183
-501.668	-67.537	0.040	0.016
-500.653	-200.000	0.102	-0.479
-499.639	-38.563	-0.279	-0.148
-498.624	90.185	-0.113	-0.127
-497.610	156.552	-0.108	-0.149
-496.595	-143.451	-0.306	0.029
-495.581	-51.212	-0.016	0.007
-494.566	-47.972	-0.074	-0.036
-493.551	-135.495	-0.209	-0.025
-492.537	90.674	0.184	-0.207
-491.522	800.000	0.076	0.248
-490.508	-50.218	0.056	-0.027
-489.493	68.412	-0.083	-0.085
-488.478	127.420	-0.074	0.095
-487.464	-55.066	0.180	-0.081
-486.449	-139.581	0.214	-0.023
-485.435	761.968	0.085	-0.230
-484.420	51.193	0.069	0.066
-483.405	16.989	0.028	-0.022
-482.391	-53.291	-0.084	0.039
-481.376	-57.456	0.128	-0.056
-480.362	-110.909	0.285	0.059
-479.347	115.134	-0.168	0.206
-478.332	-146.184	0.230	-0.020
-477.318	-200.000	-0.020	0.144
-476.303	-134.973	0.148	0.018
-475.289	-86.707	-0.142	-0.043
-474.274	-22.537	0.258	0.157
-473.259	-142.923	-0.106	-0.010
-472.245	-200.000	0.002	-0.134
-471.230	-114.287	-0.122	0.024
-470.216	-12.342	-0.118	-0.078
-469.201	53.380	0.316	-0.303
-468.186	49.286	0.196	0.185
-467.172	-200.000	0.052	0.270
-466.157	3.701	0.317	-0.232
-465.143	-200.000	-0.044	-0.282
-464.128	184.373	-0.178	-0.265
-463.113	-89.575	0.196	0.058
-462.099	415.288	-0.039	0.083
-461.084	-77.022	-0.369	0.129
-460.070	300.709	-0.109	0.202
-459.055	601.528	0.041	0.103
-458.040	800.000	0.012	0.050
-457.026	800.000	0.079	-0.223
-456.011	9.684	0.170	0.129
-454.997	800.000	-0.040	-0.142
-453.982	-142.813	-0.154	-0.015
-452.968	-14.648	0.197	0.127
-451.953	73.664	-0.275	-0.288
-450.938	-53.852	0.224	-0.102
-449.924	-200.000	0.003	0.038
-448.909	800.000	-0.071	0.300
-447.895	0.616	-0.296	0.212
-446.880	531.889	-0.065	0.153
-445.865	241.228	0.080	-0.134
-444.851	-84.928	0.166	0.052
-443.836	-37.869	-0.256	-0.136
-442.822	593.532	0.090	-0.224
-441.807	-92.835	0.202	0.056
-440.792	124.372	0.040	0.051
-439.778	-4.635	-0.281	0.194
-438.763	213.883	0.109	-0.172
-437.749	-75.470	0.326	-0.116
-436.734	-20.013	-0.255	-0.158
-435.719	383.927	0.145	0.300
-434.705	-200.000	0.023	0.220
-433.690	265.758	0.098	-0.170
-432.676	48.228	0.068	-0.063
-431.661	-101.317	-0.211	0.052
-430.646	12.350	0.125	0.096
-429.632	-50.618	-0.141	0.067
-428.617	-200.000	0.017	-0.146
-427.603	-157.380	0.427	0.026
-426.588	31.116	-0.176	-0.151
-425.573	-200.000	0.042	-0.232
-424.559	-151.318	0.385	-0.029
-423.544	274.860	0.254	0.449
-422.530	-28.517	-0.065	0.037
-421.515	-200.000	-0.005	-0.123
-420.500	-40.231	0.233	-0.121
-419.486	-35.994	0.138	-0.075
-418.471	233.775	-0.040	0.065
-417.457	-184.982	-0.335	0.005
-416.442	-100.740	-0.130	-0.032
-415.428	209.595	0.180	0.283
-414.413	-200.000	0.040	-0.264
-413.398	-200.000	-0.025	0.168
-412.384	102.225	0.135	0.157
-411.369	-36.676	0.339	0.182
-410.355	-200.000	0.018	0.150
-409.340	-199.990	0.281	-0.001
-408.325	495.480	-0.086	-0.197
-407.311	380.261	0.084	-0.172
-406.296	226.457	-0.227	0.368
-405.282	-9.349	-0.233	-0.155
-404.267	234.038	-0.048	-0.078
-403.252	-9.248	-0.112	-0.075
-402.238	-85.257	0.261	0.081
-401.223	-113.950	0.333	0.065
-400.209	-10.026	-0.430	0.286
-399.194	-37.539	-0.149	-0.080
-398.179	800.000	-0.107	-0.298
-397.165	616.219	-0.084	-0.210
-396.150	800.000	-0.062	-0.224
-395.136	-128.218	0.045	-0.006
-394.121	-150.927	-0.259	-0.020
-393.106	27.371	-0.155	-0.130
-392.092	53.485	-0.162	0.155
-391.077	87.630	0.189	0.209
-390.063	-105.338	-0.064	-0.014
-389.048	-68.583	-0.160	0.062
-388.033	800.000	-0.021	-0.064
-387.019	136.729	0.339	-0.442
-386.004	-72.561	0.185	-0.068
-384.990	-200.000	-0.019	-0.358
-383.975	-7.532	-0.103	-0.070
-382.960	-111.648	-0.141	0.029
-381.946	85.108	-0.049	-0.054
-380.931	256.582	0.144	-0.246
-379.917	74.398	0.225	0.236
-378.902	55.490	0.118	0.114
-377.888	-91.850	-0.332	-0.094
-376.873	-62.426	-0.078	-0.032
-375.858	66.660	0.245	0.249
-374.844	104.385	-0.103	0.121
-373.829	-200.000	0.066	0.376
-372.815	305.215	-0.146	0.270
-371.800	85.094	-0.238	-0.260
-370.785	-200.000	-0.036	0.204
-369.771	-200.000	0.024	-0.271
-368.756	308.034	0.154	-0.286
-367.742	-127.537	0.152	0.022
-366.727	425.586	-0.097	-0.209
-365.712	-72.696	-0.241	-0.089
-364.698	-200.000	-0.015	-0.068
-363.683	22.938	0.089	0.073
-362.669	200.286	-0.029	-0.044
-361.654	-86.967	-0.229	0.070
-360.639	-145.488	-0.162	0.014
-359.625	-181.062	-0.064	-0.001
-358.610	-86.579	0.254	0.078
-357.596	18.164	-0.242	-0.192
-356.581	800.000	0.064	-0.191
-355.566	130.382	-0.154	0.197
-354.552	-131.977	0.109	0.014
-353.537	38.979	0.138	-0.123
-352.523	-70.259	-0.091	-0.034
-351.508	341.203	-0.083	0.162
-350.493	332.082	0.065	0.125
-349.479	75.016	-0.133	0.139
-348.464	-82.125	-0.126	-0.041
-347.450	117.812	-0.096	0.118
-346.435	22.442	0.237	-0.193
-345.420	800.000	-0.030	0.085
-344.406	62.757	0.037	0.037
-343.391	-25.493	0.067	0.039
-342.377	-200.000	-0.008	-0.398
-341.362	-188.485	0.162	-0.002
-340.348	-200.000	0.041	0.217
-339.333	183.280	0.142	-0.209
-338.318	-90.680	0.111	-0.032
-337.304	-153.506	0.143	0.010
-336.289	800.000	-0.075	-0.257
-335.275	91.903	-0.153	0.171
-334.260	306.684	-0.128	-0.238
-333.245	258.972	-0.089	-0.153
-332.231	-86.332	-0.202	-0.062
-331.216	800.000	-0.024	-0.089
-330.202	42.478	-0.186	-0.168
-329.187	-126.506	-0.080	0.012
-328.172	-33.695	-0.091	-0.050
-327.158	181.134	-0.083	0.121
-326.143	-54.985	-0.360	0.162
-325.129	164.243	0.062	0.087
-324.114	-200.000	-0.006	-0.084
-323.099	69.419	-0.260	-0.267
-322.085	-200.000	0.043	-0.189
-321.070	35.150	-0.094	-0.082
-320.056	-5.888	-0.240	-0.164
-319.041	-200.000	0.011	0.176
-318.026	-200.000	0.071	-0.337
-317.012	-33.969	-0.146	0.080
-315.997	-139.557	0.248	-0.026
-314.983	308.430	0.093	-0.172
-313.968	-17.056	-0.033	0.021
-312.953	145.767	-0.177	0.236
-311.939	800.000	0.015	-0.048
-310.924	800.000	0.114	0.322
-309.910	-144.560	-0.219	0.020
-308.895	-200.000	0.017	0.081
-307.880	-166.249	0.442	-0.019
-306.866	-200.000	0.000	0.009
-305.851	-14.335	0.126	0.081
-304.837	-200.000	0.000	-0.086
-303.822	-200.000	-0.042	0.262
-302.807	237.257	0.152	0.250
-301.793	-30.280	0.115	-0.065
-300.778	-68.922	0.183	-0.070
-299.764	-105.479	-0.042	0.010
-298.749	-66.270	0.252	-0.100
-297.735	474.909	0.033	0.073
-296.720	178.203	-0.104	-0.152
-295.705	-116.004	-0.260	0.048
-294.691	209.290	0.135	0.211
-293.676	37.603	0.123	-0.109
-292.662	65.570	-0.229	-0.231
-291.647	800.000	-0.042	-0.124
-290.632	-18.375	0.073	0.045
-289.618	490.921	0.077	-0.175
-288.603	800.000	0.046	0.154
-287.589	-95.648	-0.271	0.072
-286.574	-0.230	0.087	-0.062
-285.559	437.340	-0.031	-0.067
-284.545	454.446	-0.096	-0.213
-283.530	-200.000	-0.017	0.203
-282.516	-200.000	-0.031	0.138
-281.501	-27.791	0.210	0.121
-280.486	-31.467	0.264	0.148
-279.472	-67.092	-0.028	0.011
-278.457	-200.000	-0.001	0.228
-277.443	-72.485	-0.301	-0.110
-276.428	-181.214	0.102	-0.002
-275.413	32.430	0.347	-0.298
-274.399	644.426	0.161	-0.409
-273.384	15.460	0.136	0.106
-272.370	-51.421	0.346	-0.161
-271.355	448.992	0.144	0.316
-270.340	-200.000	-0.057	-0.321
-269.326	-200.000	-0.086	-0.420
-268.311	-200.000	0.017	-0.225
-267.297	-200.000	-0.030	-0.187
-266.282	-113.010	0.301	0.059
-265.267	-80.070	0.130	-0.043
-264.253	-50.648	-0.394	-0.184
-263.238	-63.129	0.178	0.073
-262.224	96.212	0.265	-0.302
-261.209	-57.600	0.351	-0.153
-260.195	-113.885	0.077	-0.015
-259.180	-200.000	-0.031	0.448
-258.165	-76.706	-0.205	-0.071
-257.151	29.732	-0.118	-0.100
-256.136	202.552	0.074	-0.113
-255.122	536.400	0.021	0.050
-254.107	99.399	0.061	0.070
-253.092	-76.194	-0.109	-0.038
-252.078	-200.000	-0.060	0.299
-251.063	-95.631	0.124	0.033
-250.049	54.270	0.089	-0.085
-249.034	-62.157	-0.234	-0.097
-248.019	105.089	0.163	0.192
-247.005	213.954	-0.112	-0.176
-245.990	377.717	0.142	-0.288
-244.976	362.644	-0.115	0.229
-243.961	-16.284	0.109	0.068
-242.946	-120.799	-0.429	0.072
-241.932	21.812	0.235	0.190
-240.917	473.376	0.036	0.079
-239.903	-200.000	0.034	0.238
-238.888	-18.807	0.136	0.084
-237.873	-8.592	0.151	-0.101
-236.859	217.200	0.112	0.176
-235.844	-113.300	0.200	-0.039
-234.830	-141.874	-0.159	0.016
-233.815	38.497	-0.236	0.209
-232.800	514.080	0.071	0.164
-231.786	387.277	-0.055	0.113
-230.771	-104.000	-0.371	-0.086
-229.757	800.000	-0.061	0.203
-228.742	357.592	-0.133	0.263
-227.727	-10.162	0.187	-0.123
-226.713	48.542	0.152	0.141
-225.698	271.941	-0.153	0.267
-224.684	122.504	-0.082	-0.102
-223.669	-59.188	-0.082	0.035
-222.655	-40.684	0.098	0.050
-221.640	243.903	0.068	0.114
-220.625	-93.923	-0.098	-0.027
-219.611	-76.869	0.205	0.071
-218.596	-115.618	-0.157	0.029
-217.582	800.000	0.062	-0.175
-216.567	-200.000	-0.045	-0.222
-215.552	-113.519	0.121	0.023
-214.538	126.532	0.096	-0.121
-213.523	-200.000	-0.014	-0.409
-212.509	-75.529	-0.292	0.103
-211.494	107.418	0.043	-0.050
-210.479	-40.605	-0.393	0.202
-209.465	38.445	0.137	0.121
-208.450	-200.000	-0.025	0.238
-207.436	-39.178	-0.241	0.126
-206.421	-115.627	-0.205	-0.038
-205.406	-200.000	-0.022	0.133
-204.392	26.742	0.148	0.123
-203.377	403.750	-0.097	0.203
-202.363	800.000	0.076	0.248
-201.348	555.289	-0.065	0.156
-200.333	-13.990	0.257	-0.164
-199.319	40.515	-0.162	0.144
-198.304	-200.000	0.011	0.171
-197.290	-106.614	-0.073	-0.016
-196.275	-200.000	-0.021	-0.113
-195.260	-123.980	-0.163	-0.025
-194.246	-30.433	-0.147	-0.083
-193.231	281.922	-0.063	-0.112
-192.217	-200.000	0.056	-0.358
-191.202	705.267	0.063	-0.165
-190.187	-78.852	-0.344	-0.116
-189.173	800.000	-0.007	0.027
-188.158	800.000	0.026	0.078
-187.144	-95.276	0.090	-0.024
-186.129	32.885	0.171	0.147
-185.114	82.544	0.138	-0.149
-184.100	800.000	0.027	0.080
-183.085	674.034	0.090	0.230
-182.071	-2.331	0.220	-0.153
-181.056	-64.420	-0.103	0.041
-180.042	-121.015	-0.237	0.039
-179.027	-110.121	0.305	-0.063
-178.012	12.337	-0.167	0.127
-176.998	-139.965	0.104	0.011
-175.983	465.789	0.132	-0.292
-174.969	-200.000	0.038	0.288
-173.954	-200.000	-0.001	-0.028
-172.939	-134.223	-0.300	-0.037
-171.925	-65.343	0.050	0.020
-170.910	-74.505	0.184	0.065
-169.896	800.000	0.031	0.132
-168.881	668.778	0.107	-0.273
-167.866	-200.000	-0.047	0.471
-166.852	438.808	-0.150	0.323
-165.837	-68.575	0.357	-0.137
-164.823	16.533	-0.220	0.172
-163.808	163.005	0.062	-0.087
-162.793	-169.780	0.155	0.006
-161.779	-80.505	0.121	-0.040
-160.764	177.490	-0.120	0.173
-159.750	629.017	-0.011	-0.027
-158.735	-104.988	-0.300	0.068
-157.720	316.134	0.190	0.356
-156.706	65.625	0.240	-0.240
-155.691	33.949	0.159	0.137
-154.677	42.426	-0.229	-0.206
-153.662	-200.000	0.000	0.325
-152.647	-200.000	0.005	-0.263
-151.633	133.740	0.066	-0.084
-150.618	-68.970	-0.298	-0.114
-149.604	-161.476	-0.086	0.004
-148.589	-33.837	0.096	-0.052
-147.574	423.929	0.171	-0.364
-146.560	-157.601	-0.360	-0.021
-145.545	-69.725	-0.313	0.118
-144.531	-180.254	0.081	0.002
-143.516	170.091	0.170	0.240
-142.502	-144.025	0.177	-0.016
-141.487	-200.000	0.035	0.161
-140.472	-200.000	-0.033	-0.275
-139.458	162.567	0.105	-0.146
-138.443	-5.254	-0.240	0.163
-137.429	-200.000	0.047	0.308
-136.414	42.157	0.275	-0.247
-135.399	-92.002	-0.135	-0.038
-134.385	-200.000	0.004	-0.036
-133.370	-2.353	0.306	-0.212
-132.356	-145.928	-0.126	-0.011
-131.341	251.143	-0.135	0.228
-130.326	-129.210	0.013	0.002
-129.312	-135.060	0.318	0.038
-128.297	-21.245	0.152	0.092
-127.283	150.234	-0.227	0.304
-126.268	-76.683	-0.432	0.150
-125.253	-96.764	-0.120	-0.031
-124.239	800.000	0.033	0.101
-123.224	800.000	0.031	0.093
-122.210	-143.316	0.176	0.017
-121.195	552.276	-0.056	0.133
-120.180	-172.042	0.327	-0.010
-119.166	38.114	0.188	0.165
-118.151	-155.059	-0.166	0.011
-117.137	100.014	0.015	0.017
-116.122	17.736	0.252	0.198
-115.107	-74.003	0.149	0.054
-114.093	593.953	-0.073	-0.179
-113.078	-37.573	0.188	0.099
-112.064	-70.325	-0.321	-0.120
-111.049	-90.203	-0.123	-0.035
-110.034	-66.283	0.242	-0.095
-109.020	-138.078	-0.264	-0.029
-108.005	-200.000	0.014	0.063
-106.991	-25.217	-0.238	0.139
-105.976	-24.072	0.377	-0.223
-104.962	-200.000	-0.023	-0.116
-103.947	-200.000	-0.034	-0.269
-102.932	121.169	-0.092	-0.113
-101.918	-88.490	-0.233	-0.068
-100.903	-16.836	-0.277	-0.173
-99.889	-143.945	0.076	0.007
-98.874	-44.968	0.341	0.168
-97.859	-184.880	0.157	-0.002
-96.845	-83.319	-0.168	0.053
-95.830	-116.691	-0.158	-0.029
-94.816	-29.121	-0.251	-0.142
-93.801	706.521	-0.049	0.129
-92.786	306.611	-0.144	0.264
-91.772	345.177	-0.198	0.384
-90.757	-51.405	-0.181	-0.083
-89.743	-113.170	-0.071	-0.014
-88.728	-104.545	-0.177	-0.040
-87.713	-102.893	-0.296	0.069
-86.699	-200.000	-0.027	-0.194
-85.684	800.000	0.105	0.287
-84.670	-200.000	-0.020	0.302
-83.655	-87.769	0.143	0.042
-82.640	31.089	0.164	0.139
-81.626	428.843	0.143	-0.306
-80.611	70.823	-0.252	0.258
-79.597	83.950	-0.030	-0.032
-78.582	800.000	0.091	-0.308
-77.567	-102.893	0.185	-0.043
-76.553	394.242	0.080	-0.164
-75.538	-200.000	-0.072	-0.513
-74.524	800.000	-0.056	-0.217
-73.509	70.346	0.197	-0.201
-72.494	800.000	-0.124	0.366
-71.480	-115.725	-0.155	-0.029
-70.465	-74.455	-0.129	-0.046
-69.451	-200.000	0.060	-0.307
-68.436	171.991	0.110	0.156
-67.422	568.578	-0.128	0.306
-66.407	-118.758	-0.119	0.021
-65.392	33.325	-0.152	0.130
-64.378	800.000	-0.112	0.374
-63.363	21.619	0.254	0.204
-62.349	-138.607	0.408	0.044
-61.334	235.492	-0.610	-0.993
-60.319	79.544	0.421	0.445
-59.305	102.449	-0.549	-0.633
-58.290	800.000	0.339	1.213
-57.276	303.379	0.734	1.340
-56.261	-200.000	94.818	549.424
-55.246	519.321	1403.603	3241.272
-54.232	147.573	2627.146	3488.615
-53.217	105.968	2341.782	2732.026
-52.203	43.925	1949.033	1760.002
-51.188	37.805	1732.082	1516.592
-50.173	35.078	1686.540	1455.953
-49.159	50.531	1733.420	1615.907
-48.144	53.152	1751.337	1652.776
-47.130	37.527	1707.897	1493.043
-46.115	34.693	1692.961	1458.330
-45.100	34.476	1688.227	1452.534
-44.086	34.497	1685.317	1450.139
-43.071	34.343	1683.207	1447.090
-42.057	34.367	1681.006	1445.326
-41.042	34.505	1678.156	1443.864
-40.027	34.457	1676.611	1442.114
-39.013	34.431	1674.788	1440.294
-37.998	34.418	1672.889	1438.506
-36.984	34.492	1671.864	1438.121
-35.969	34.766	1669.772	1438.325
-34.954	34.612	1668.485	1436.004
-33.940	34.519	1667.064	1434.026
-32.925	34.522	1664.861	1432.096
-31.911	34.664	1662.653	1431.201
-30.896	34.607	1660.647	1428.992
-29.881	34.616	1659.227	1427.783
-28.867	34.529	1657.835	1425.882
-27.852	34.626	1656.053	1425.011
-26.838	34.523	1655.030	1423.309
-25.823	34.659	1653.316	1422.792
-24.809	34.570	1652.469	1421.345
-23.794	34.556	1651.247	1420.134
-22.779	34.632	1649.214	1418.892
-21.765	34.693	1647.231	1417.585
-20.750	34.510	1645.939	1415.057
-19.736	34.595	1644.427	1414.334
-18.721	34.669	1642.439	1413.111
-17.706	34.687	1641.039	1411.981
-16.692	34.622	1639.355	1409.998
-15.677	34.523	1638.388	1408.381
-14.663	34.669	1636.649	1407.907
-13.648	34.649	1634.962	1406.253
-12.633	34.694	1633.431	1405.211
-11.619	34.668	1632.132	1403.848
-10.604	34.661	1630.700	1402.506
-9.590	34.616	1629.217	1400.847
-8.575	34.585	1628.053	1399.561
-7.560	34.581	1626.717	1398.330
-6.546	34.614	1625.754	1397.685
-5.531	34.659	1624.219	1396.639
-4.517	34.654	1622.916	1395.431
-3.502	34.681	1622.034	1394.813
-2.487	34.662	1620.656	1393.435
-1.473	34.698	1609.863	1384.359
-0.458	32.388	1591.299	1351.770
0.556	27.363	1590.824	1318.996
1.571	24.424	1614.415	1316.790
2.586	23.554	1628.251	1321.479
3.600	21.152	1575.310	1261.070
4.615	11.992	1459.340	1106.539
5.629	2.572	1388.982	992.313
6.644	0.603	1379.530	972.796
7.659	0.390	1378.550	970.648
8.673	0.424	1376.913	969.628
9.688	0.244	1375.726	967.553
10.702	0.214	1372.105	964.729
11.717	4.258	1379.678	995.979
12.731	13.498	1394.807	1066.569
13.746	18.329	1400.457	1101.959
14.761	17.502	1397.726	1094.401
15.775	16.503	1394.915	1085.694
16.790	15.400	1392.404	1076.565
17.804	14.649	1389.953	1069.764
18.819	14.308	1388.446	1066.326
19.834	14.053	1386.818	1063.353
20.848	13.686	1386.400	1060.591
21.863	13.513	1384.702	1058.090
22.877	13.345	1383.196	1055.779
23.892	13.293	1382.390	1054.738
24.907	13.333	1381.471	1054.196
25.921	13.284	1380.832	1053.304
26.936	13.350	1379.623	1052.710
27.950	13.321	1379.167	1052.086
28.965	13.470	1377.846	1051.929
29.980	13.426	1376.980	1050.898
30.994	13.436	1376.178	1050.254
32.009	13.536	1375.192	1050.042
33.023	13.649	1373.532	1049.400
34.038	13.539	1372.643	1047.928
35.053	13.483	1371.195	1046.378
36.067	13.483	1370.489	1045.748
37.082	13.397	1369.722	1044.527
38.096	13.476	1368.091	1043.685
39.111	13.568	1367.534	1043.751
40.126	13.393	1366.987	1042.134
41.140	13.322	1366.162	1040.970
42.155	13.326	1365.595	1040.472
43.169	13.370	1365.312	1040.440
44.184	13.248	1365.204	1039.498
45.199	13.297	1364.806	1039.414
46.213	13.278	1363.831	1038.460
47.228	13.413	1362.824	1038.447
48.242	13.464	1361.666	1037.793
49.257	13.448	1360.406	1036.640
50.271	13.339	1358.880	1034.702
51.286	13.348	1358.063	1034.043
52.301	13.398	1356.534	1033.103
53.315	13.359	1355.441	1031.933
54.330	13.362	1354.112	1030.853
55.344	13.383	1352.965	1030.014
56.359	13.418	1351.827	1029.279
57.374	13.361	1351.126	1028.299
58.388	13.393	1350.082	1027.609
59.403	13.280	1349.883	1026.667
60.417	13.191	1349.425	1025.677
61.432	13.227	1348.108	1024.806
62.447	13.301	1346.906	1024.259
63.461	13.269	1345.735	1023.082
64.476	13.153	1345.232	1021.891
65.490	13.150	1343.757	1020.663
66.505	13.222	1341.698	1019.453
67.520	13.280	1340.565	1018.857
68.534	13.329	1339.794	1018.486
69.549	13.231	1338.794	1017.032
70.563	13.279	1337.291	1016.096
71.578	13.196	1336.256	1014.710
72.593	13.220	1335.411	1014.124
73.607	13.195	1334.462	1013.161
74.622	13.174	1333.916	1012.529
75.636	13.141	1333.658	1012.040
76.651	13.073	1332.818	1010.894
77.666	13.206	1332.067	1011.048
78.680	13.260	1331.618	1010.950
79.695	13.268	1330.245	1009.869
80.709	13.271	1329.791	1009.449
81.724	13.193	1328.875	1008.194
82.739	13.381	1327.705	1008.361
83.753	13.382	1326.588	1007.427
84.768	13.435	1325.399	1006.758
85.782	13.373	1324.972	1005.966
86.797	13.447	1323.246	1005.019
87.812	13.330	1322.397	1003.574
88.826	13.419	1320.770	1002.788
89.841	13.381	1319.870	1001.786
90.855	13.383	1319.379	1001.340
91.870	13.424	1318.454	1000.798
92.884	13.471	1317.174	1000.020
93.899	13.493	1316.642	999.662
94.914	13.608	1315.932	999.729
95.928	13.570	1314.508	998.330
96.943	13.574	1314.057	997.920
97.957	13.516	1313.091	996.748
98.972	13.489	1312.120	995.760
99.987	13.479	1311.135	994.869
101.001	13.479	1310.216	994.082
102.016	13.459	1309.347	993.214
103.030	13.566	1307.948	992.708
104.045	13.465	1307.123	991.389
105.060	13.566	1305.754	990.866
106.074	13.336	1304.828	988.701
107.089	13.328	1303.760	987.759
108.103	13.236	1302.396	986.088
109.118	13.227	1301.012	984.898
110.133	13.411	1299.407	984.691
111.147	13.283	1298.292	982.998
112.162	13.322	1296.939	982.117
113.176	13.428	1295.789	981.786
114.191	13.371	1295.084	980.827
115.206	13.336	1294.385	980.007
116.220	13.424	1292.747	979.198
117.235	13.400	1292.067	978.457
118.249	13.405	1290.587	977.280
119.264	13.370	1289.565	976.212
120.279	13.468	1288.438	975.848
121.293	13.381	1287.248	974.348
122.308	13.427	1286.303	973.820
123.322	13.301	1285.618	972.471
124.337	13.293	1284.873	971.778
125.352	13.379	1283.372	971.060
126.366	13.283	1281.982	969.359
127.381	13.291	1280.900	968.503
128.395	13.367	1279.367	967.704
129.410	13.379	1278.815	967.270
130.424	13.352	1278.674	966.917
131.439	13.449	1277.346	966.394
132.454	13.297	1276.450	964.745
133.468	13.434	1275.214	964.525
134.483	13.449	1274.833	964.241
135.497	13.446	1273.503	963.133
136.512	13.434	1271.978	961.824
137.527	13.433	1271.133	961.090
138.541	13.413	1269.595	959.727
139.556	13.377	1268.314	958.466
140.570	13.537	1267.303	958.545
141.585	13.521	1266.004	957.382
142.600	13.500	1265.128	956.516
143.614	13.532	1263.895	955.682
144.629	13.702	1262.573	955.578
145.643	13.568	1261.775	954.120
146.658	13.504	1260.569	952.755
147.673	13.513	1258.769	951.359
148.687	13.389	1258.031	950.006
149.702	13.451	1256.439	949.074
150.716	13.432	1255.391	948.091
151.731	13.425	1254.077	946.975
152.746	13.483	1252.753	946.227
153.760	13.454	1251.732	945.202
154.775	13.527	1250.299	944.455
155.789	13.577	1249.530	944.075
156.804	13.575	1248.185	942.963
157.819	13.676	1246.786	942.399
158.833	13.613	1245.898	941.285
159.848	13.719	1244.895	941.045
160.862	13.740	1243.972	940.385
161.877	13.625	1243.080	938.976
162.892	13.586	1242.140	937.962
163.906	13.651	1241.009	937.388
164.921	13.665	1240.280	936.838
165.935	13.617	1239.303	935.745
166.950	13.652	1238.427	935.196
167.964	13.767	1237.809	935.297
168.979	13.688	1236.716	933.946
169.994	13.719	1236.167	933.621
171.008	13.780	1235.102	933.077
172.023	13.741	1234.307	932.172
173.037	13.853	1233.572	932.164
174.052	13.682	1232.935	930.642
175.067	13.671	1231.952	929.755
176.081	13.688	1231.159	929.171
177.096	13.668	1230.153	928.215
178.110	13.664	1229.253	927.435
179.125	13.793	1227.393	926.669
180.140	13.809	1226.361	925.900
181.154	13.686	1225.662	924.601
182.169	13.783	1224.436	924.135
183.183	13.883	1222.901	923.453
184.198	13.859	1221.736	922.359
185.213	13.980	1220.212	921.797
186.227	13.815	1219.626	920.359
187.242	13.924	1218.945	920.363
188.256	13.907	1217.601	919.172
189.271	13.949	1216.880	918.784
190.286	13.861	1215.502	917.172
191.300	13.752	1214.891	916.029
192.315	13.766	1214.109	915.434
193.329	13.846	1213.486	915.328
194.344	13.793	1212.935	914.537
195.359	13.840	1212.019	914.024
196.373	13.904	1211.659	914.026
197.388	13.994	1211.044	913.973
198.402	14.040	1210.691	913.879
199.417	14.089	1210.103	913.625
200.432	14.211	1208.763	913.203
201.446	14.127	1208.453	912.428
202.461	14.147	1207.393	911.656
203.475	14.161	1206.306	910.829
204.490	14.156	1204.981	909.720
205.504	14.158	1203.939	908.869
206.519	14.176	1202.441	907.750
207.534	14.133	1201.290	906.572
208.548	14.133	1200.228	905.687
209.563	14.210	1199.453	905.441
210.577	14.164	1198.766	904.590
211.592	14.165	1197.951	903.903
212.607	14.283	1197.056	903.790
213.621	14.330	1196.297	903.390
214.636	14.200	1195.831	902.251
215.650	14.323	1194.427	901.782
216.665	14.355	1193.151	900.911
217.680	14.385	1192.718	900.664
218.694	14.385	1191.922	899.988
219.709	14.235	1191.382	898.688
220.723	14.331	1190.339	898.342
221.738	14.352	1189.835	897.994
222.753	14.339	1189.260	897.409
223.767	14.438	1188.519	897.304
224.782	14.538	1187.199	896.765
225.796	14.504	1187.122	896.444
226.811	14.534	1186.402	895.981
227.826	14.469	1185.548	894.913
228.840	14.467	1184.722	894.200
229.855	14.514	1184.069	893.876
230.869	14.471	1183.248	892.948
231.884	14.441	1182.564	892.192
232.899	14.371	1182.033	891.340
233.913	14.412	1180.882	890.613
234.928	14.408	1180.160	889.968
235.942	14.469	1179.094	889.409
236.957	14.441	1178.551	888.773
237.972	14.420	1178.112	888.250
238.986	14.610	1176.914	888.278
240.001	14.587	1176.211	887.549
241.015	14.633	1175.437	887.128
242.030	14.659	1174.573	886.538
243.045	14.604	1174.134	885.835
244.059	14.590	1173.530	885.228
245.074	14.731	1172.396	885.038
246.088	14.741	1171.489	884.333
247.103	14.703	1171.062	883.730
248.117	14.830	1169.885	883.434
249.132	14.801	1169.228	882.706
250.147	14.811	1168.503	882.132
251.161	14.924	1167.644	882.002
252.176	14.779	1167.213	880.833
253.190	15.047	1166.051	881.291
254.205	15.029	1165.690	880.848
255.220	15.023	1165.177	880.347
256.234	15.054	1164.385	879.836
257.249	15.009	1163.984	879.216
258.263	15.065	1163.263	878.887
259.278	15.123	1162.624	878.634
260.293	15.196	1162.053	878.507
261.307	15.109	1161.577	877.614
262.322	15.171	1160.699	877.196
263.336	15.060	1160.291	876.231
264.351	15.148	1159.545	876.049
265.366	15.261	1158.469	875.749
266.380	15.112	1158.145	874.646
267.395	15.248	1157.295	874.637
268.409	15.213	1156.246	873.588
269.424	15.096	1156.276	872.922
270.439	15.084	1155.415	872.132
271.453	15.174	1154.488	871.822
272.468	15.140	1153.711	870.981
273.482	15.145	1152.842	870.274
274.497	15.269	1152.007	870.211
275.512	15.162	1151.600	869.272
276.526	15.219	1150.905	868.966
277.541	15.252	1149.997	868.372
278.555	15.122	1149.628	867.347
279.570	15.187	1148.805	866.983
280.585	15.339	1147.713	866.869
281.599	15.347	1147.145	866.407
282.614	15.284	1146.299	865.365
283.628	15.391	1144.769	864.682
284.643	15.336	1143.653	863.483
285.657	15.307	1143.018	862.778
286.672	15.398	1142.000	862.400
287.687	15.384	1141.224	861.664
288.701	15.476	1140.340	861.395
289.716	15.354	1139.703	860.210
290.730	15.494	1139.044	860.355
291.745	15.417	1138.349	859.358
292.760	15.544	1137.748	859.477
293.774	15.477	1137.352	858.761
294.789	15.550	1136.868	858.692
295.803	15.481	1136.145	857.718
296.818	15.445	1135.480	856.955
297.833	15.563	1134.403	856.671
298.847	15.531	1133.603	855.828
299.862	15.543	1133.163	855.479
300.876	15.508	1132.285	854.562
301.891	15.636	1131.763	854.746
302.906	15.659	1130.856	854.102
303.920	15.722	1129.944	853.658
304.935	15.758	1129.141	853.159
305.949	15.762	1128.933	852.946
306.964	15.720	1127.885	851.864
307.979	15.820	1127.163	851.749
308.993	15.832	1126.281	851.071
310.008	15.814	1125.677	850.446
311.022	15.864	1124.828	849.982
312.037	15.873	1124.176	849.459
313.052	15.836	1123.331	848.562
314.066	15.804	1122.444	847.654
315.081	15.773	1121.378	846.617
316.095	15.713	1120.757	845.771
317.110	15.701	1120.336	845.318
318.125	15.679	1119.554	844.544
319.139	15.722	1118.993	844.263
320.154	15.873	1117.780	844.027
321.168	15.884	1117.401	843.721
322.183	15.806	1117.005	842.957
323.197	15.852	1116.087	842.421
324.212	15.797	1115.725	841.797
325.227	15.739	1115.512	841.272
326.241	16.008	1113.989	841.395
327.256	15.899	1113.490	840.399
328.270	15.816	1113.138	839.643
329.285	15.871	1111.510	838.616
330.300	15.879	1110.650	837.933
331.314	15.850	1110.048	837.259
332.329	16.018	1108.472	836.832
333.343	16.041	1108.021	836.533
334.358	16.005	1107.283	835.722
335.373	15.983	1106.896	835.247
336.387	16.087	1105.716	834.795
337.402	16.139	1104.980	834.423
338.416	16.034	1104.737	833.649
339.431	16.197	1103.324	833.315
340.446	16.177	1103.111	832.980
341.460	16.213	1102.385	832.535
342.475	16.176	1101.630	831.711
343.489	16.224	1100.676	831.154
344.504	16.256	1099.690	830.491
345.519	16.463	1098.454	830.502
346.533	16.325	1098.068	829.459
347.548	16.304	1097.589	828.919
348.562	16.347	1096.682	828.374
349.577	16.310	1095.966	827.575
350.592	16.285	1095.154	826.768
351.606	16.367	1094.451	826.568
352.621	16.325	1093.673	825.702
353.635	16.265	1093.247	825.013
354.650	16.359	1092.006	824.461
355.665	16.257	1092.154	824.001
356.679	16.298	1091.192	823.405
357.694	16.352	1090.678	823.206
358.708	16.315	1090.381	822.730
359.723	16.463	1089.040	822.362
360.738	16.557	1088.439	822.292
361.752	16.381	1088.264	821.232
362.767	16.393	1088.002	821.020
363.781	16.384	1087.259	820.347
364.796	16.495	1086.368	820.136
365.810	16.510	1085.814	819.720
366.825	16.635	1084.987	819.630
367.840	16.628	1084.726	819.326
368.854	16.652	1083.806	818.675
369.869	16.671	1083.248	818.274
370.883	16.747	1082.296	817.846
371.898	16.630	1081.671	816.738
372.913	16.624	1081.358	816.398
373.927	16.701	1080.693	816.197
374.942	16.794	1079.924	815.991
375.956	16.835	1079.527	815.818
376.971	16.764	1078.797	814.850
377.986	16.808	1078.164	814.514
379.000	16.851	1077.508	814.152
380.015	16.914	1077.070	814.054
381.029	16.926	1076.416	813.541
382.044	16.838	1075.735	812.533
383.059	16.950	1075.178	812.578
384.073	16.914	1074.111	811.529
385.088	16.997	1072.856	810.904
386.102	16.907	1072.660	810.256
387.117	16.978	1071.357	809.538
388.132	16.916	1070.309	808.380
389.146	16.886	1069.801	807.778
390.161	16.854	1069.417	807.265
391.175	16.900	1068.283	806.557
392.190	16.834	1067.781	805.794
393.205	17.113	1066.631	806.178
394.219	17.012	1065.766	804.974
395.234	16.967	1064.955	804.077
396.248	16.982	1064.140	803.464
397.263	16.972	1062.966	802.459
398.278	16.988	1062.433	802.059
399.292	17.060	1061.439	801.580
400.307	16.900	1061.280	800.633
401.321	17.048	1060.451	800.637
402.336	16.988	1059.928	799.887
403.350	16.989	1059.371	799.398
404.365	17.049	1058.202	798.730
405.380	17.189	1057.073	798.464
406.394	17.116	1056.522	797.634
407.409	17.101	1056.395	797.396
408.423	17.189	1055.629	797.161
409.438	17.163	1055.192	796.640
410.453	17.183	1054.364	796.036
411.467	17.383	1053.119	795.962
412.482	17.271	1052.740	795.081
413.496	17.221	1052.571	794.652
414.511	17.367	1051.577	794.514
415.526	17.375	1050.853	793.933
416.540	17.402	1050.631	793.818
417.555	17.370	1050.469	793.478
418.569	17.488	1049.388	793.140
419.584	17.575	1048.835	793.057
420.599	17.406	1048.551	791.988
421.613	98.278	1315.080	1440.571
422.628	90.412	1353.881	1440.688
