DTS Sentinel unit serial number:	SN413079Multiplexer serial number:	ORYXHardware model number:	OX4-SRSoftware version number:	ORYX F/W v4.00 Oryx Data Collector v3.7.2.0data status	okinstallation	princeton_trtdifferential loss correction	single-endedforward channel	channel 2reverse channel	N/Adate	2019/09/13time	05:35:35forward acquisition time	60.00reverse acquisition time	0.00gamma	496.2192k internal	0.2338k external	0.2338temperature offset calibration	1.0190default loss term (dB/km)	0.3790temperature slope calibration	1.0000multiplexer offset coefficient	1.0000multiplexer slope coefficient	1.0000fibre end	0.00T internal ref (°C)	26.25T ext. ref 1 (°C)	4.05T ext. ref 2 (°C)	20.87length (m)	temperature (°C)	Stokes	anti-Stokes-747.200	-26.891	-0.281	-0.165
-746.185	450.840	-0.114	0.253
-745.171	-104.886	-0.487	-0.112
-744.156	-4.335	-0.274	0.191
-743.142	426.731	-0.045	0.098
-742.127	251.681	-0.217	-0.370
-741.112	354.195	0.071	0.141
-740.098	271.365	-0.066	0.116
-739.083	27.808	0.141	0.119
-738.069	232.330	-0.072	0.119
-737.054	-112.816	0.340	-0.068
-736.039	-170.515	-0.535	-0.019
-735.025	462.570	0.175	0.393
-734.010	-6.540	-0.148	0.101
-732.996	-56.489	-0.363	0.161
-731.981	800.000	-0.067	0.275
-730.966	-200.000	-0.035	-0.224
-729.952	295.887	0.081	-0.148
-728.937	-11.345	0.190	0.125
-727.923	42.966	-0.131	-0.120
-726.908	76.909	-0.220	0.234
-725.894	-33.785	-0.228	-0.126
-724.879	-137.871	-0.247	0.028
-723.864	-22.323	-0.097	-0.059
-722.850	-11.651	0.063	0.042
-721.835	-95.360	0.302	-0.081
-720.821	36.912	0.093	0.082
-719.806	-153.578	0.139	0.010
-718.791	-79.793	-0.122	-0.041
-717.777	15.017	-0.291	0.229
-716.762	-200.000	0.015	-0.351
-715.748	414.868	0.108	-0.231
-714.733	-200.000	0.020	0.098
-713.718	800.000	0.083	-0.268
-712.704	41.791	-0.152	-0.139
-711.689	-117.990	-0.272	0.049
-710.675	-175.742	0.391	-0.011
-709.660	114.300	0.240	-0.293
-708.645	-200.000	-0.019	0.195
-707.631	-12.264	-0.292	-0.191
-706.616	800.000	0.045	0.143
-705.602	212.855	-0.139	0.220
-704.587	149.950	0.180	-0.245
-703.572	-141.193	-0.294	0.030
-702.558	35.787	-0.106	-0.093
-701.543	-80.874	-0.187	-0.062
-700.529	-106.668	0.096	0.021
-699.514	588.593	0.064	-0.159
-698.499	-96.621	0.125	-0.033
-697.485	143.189	0.200	0.266
-696.470	-20.968	-0.117	-0.072
-695.456	-42.732	-0.192	-0.098
-694.441	172.724	-0.159	0.229
-693.426	-3.061	-0.326	-0.228
-692.412	-12.487	0.308	0.202
-691.397	-117.769	-0.179	0.032
-690.383	-200.000	0.001	-0.054
-689.368	1.680	-0.234	-0.169
-688.354	-17.816	0.495	0.311
-687.339	3.325	-0.231	0.169
-686.324	-77.680	-0.376	-0.130
-685.310	800.000	0.066	0.190
-684.295	-200.000	-0.038	0.418
-683.281	108.248	-0.096	-0.115
-682.266	-106.097	0.250	0.056
-681.251	-200.000	0.002	0.136
-680.237	-200.000	0.028	-0.295
-679.222	-32.345	0.372	0.208
-678.208	-1.871	-0.042	0.030
-677.193	800.000	0.059	-0.252
-676.178	1.176	0.100	-0.072
-675.164	-200.000	0.024	0.312
-674.149	-118.009	-0.224	0.040
-673.135	-200.000	0.013	-0.295
-672.120	800.000	0.070	-0.296
-671.105	-125.349	0.162	-0.025
-670.091	-74.402	0.199	0.072
-669.076	187.132	-0.097	0.144
-668.062	2.995	0.109	-0.079
-667.047	800.000	-0.117	-0.365
-666.032	371.000	0.097	-0.196
-665.018	536.812	0.027	0.065
-664.003	-148.181	-0.195	0.016
-662.989	800.000	-0.018	0.051
-661.974	328.395	-0.203	-0.389
-660.959	-122.326	-0.264	-0.043
-659.945	296.801	-0.094	-0.173
-658.930	277.698	-0.148	-0.264
-657.916	724.360	-0.215	-0.574
-656.901	335.702	0.033	-0.063
-655.886	595.368	0.069	0.170
-654.872	-107.470	-0.297	0.065
-653.857	-107.604	-0.128	0.028
-652.843	800.000	0.028	-0.118
-651.828	28.028	0.162	0.137
-650.814	214.804	-0.084	-0.133
-649.799	-200.000	-0.018	-0.159
-648.784	377.833	-0.071	0.146
-647.770	800.000	0.014	-0.057
-646.755	-100.260	0.392	0.097
-645.741	-116.312	-0.341	0.063
-644.726	-104.162	0.191	0.044
-643.711	792.697	0.070	0.192
-642.697	-43.455	0.315	-0.159
-641.682	-116.606	-0.517	0.095
-640.668	-200.000	0.068	-0.380
-639.653	-200.000	0.008	-0.201
-638.638	-69.867	-0.187	0.071
-637.624	-99.587	0.209	0.052
-636.609	-25.400	0.225	0.133
-635.595	-99.023	-0.076	0.019
-634.580	-200.000	-0.010	-0.318
-633.565	-98.756	-0.202	-0.051
-632.551	-149.795	0.526	0.041
-631.536	4.627	0.116	0.085
-630.522	-59.747	0.136	-0.058
-629.507	-93.375	0.058	-0.016
-628.492	-104.768	0.412	0.095
-627.478	800.000	-0.113	-0.482
-626.463	210.823	0.155	-0.244
-625.449	570.163	-0.024	-0.059
-624.434	215.125	-0.128	-0.202
-623.419	-200.000	0.023	0.245
-622.405	-25.966	0.218	-0.128
-621.390	-200.000	0.038	-0.183
-620.376	-200.000	-0.030	-0.182
-619.361	-200.000	0.063	-0.399
-618.346	138.773	-0.112	0.147
-617.332	373.199	-0.107	-0.218
-616.317	800.000	0.094	0.328
-615.303	-35.906	-0.147	-0.080
-614.288	-115.336	-0.470	-0.089
-613.273	-56.548	0.158	0.070
-612.259	7.409	-0.239	0.178
-611.244	-86.416	-0.172	0.053
-610.230	-22.718	-0.087	0.052
-609.215	-102.085	0.153	0.037
-608.201	-0.949	0.189	0.133
-607.186	800.000	-0.017	-0.074
-606.171	-200.000	0.021	-0.218
-605.157	213.030	0.142	-0.224
-604.142	-26.848	-0.262	0.153
-603.128	-200.000	-0.020	0.185
-602.113	230.956	-0.083	0.135
-601.098	79.498	-0.071	0.076
-600.084	-200.000	0.008	-0.278
-599.069	205.786	-0.049	0.076
-598.055	-65.044	0.147	-0.059
-597.040	800.000	0.011	-0.034
-596.025	-50.242	0.182	-0.086
-595.011	-200.000	-0.012	-0.105
-593.996	-170.522	-0.111	0.004
-592.982	-34.680	0.149	-0.082
-591.967	-129.956	-0.152	0.021
-590.952	800.000	-0.066	-0.230
-589.938	-200.000	0.054	0.475
-588.923	-63.817	-0.132	-0.054
-587.909	-200.000	0.057	-0.407
-586.894	-68.961	-0.298	-0.114
-585.879	800.000	-0.050	0.154
-584.865	-45.716	0.302	0.149
-583.850	-200.000	-0.073	-0.432
-582.836	-200.000	-0.019	-0.121
-581.821	800.000	-0.049	-0.183
-580.806	-65.598	-0.251	-0.101
-579.792	-200.000	-0.051	0.259
-578.777	8.537	-0.260	-0.195
-577.763	-195.554	0.490	-0.004
-576.748	-39.960	-0.091	0.048
-575.733	-6.934	0.256	0.173
-574.719	-192.438	-0.287	-0.003
-573.704	426.131	0.076	0.162
-572.690	219.832	0.175	0.279
-571.675	115.666	-0.132	0.161
-570.661	-170.432	-0.289	0.010
-569.646	60.969	-0.107	0.106
-568.631	-19.629	0.280	0.173
-567.617	-200.000	-0.016	0.197
-566.602	-84.876	-0.197	0.062
-565.588	-113.890	0.166	0.032
-564.573	-149.056	0.230	-0.018
-563.558	0.050	0.338	-0.240
-562.544	446.830	-0.071	0.156
-561.529	247.650	0.083	0.140
-560.515	-200.000	0.036	0.351
-559.500	11.340	-0.099	-0.076
-558.485	-134.031	-0.324	-0.040
-557.471	-137.337	-0.387	0.044
-556.456	107.910	-0.080	0.095
-555.442	196.813	-0.177	0.269
-554.427	-8.366	0.383	0.257
-553.412	34.591	-0.067	-0.058
-552.398	800.000	0.054	-0.151
-551.383	-109.071	0.322	-0.068
-550.369	-103.215	-0.183	0.043
-549.354	-46.304	-0.272	0.133
-548.339	-200.000	-0.016	0.147
-547.325	-18.082	-0.360	0.224
-546.310	-200.000	0.062	0.322
-545.296	206.753	0.072	-0.111
-544.281	428.350	0.056	-0.121
-543.266	50.451	-0.177	-0.166
-542.252	-166.967	-0.047	-0.002
-541.237	24.503	-0.083	0.068
-540.223	-158.632	-0.546	0.031
-539.208	-147.192	0.070	0.006
-538.193	-126.071	-0.247	0.037
-537.179	156.034	-0.238	0.327
-536.164	800.000	0.027	-0.105
-535.150	-138.492	0.323	-0.035
-534.135	-200.000	-0.030	-0.200
-533.121	-73.614	0.188	0.068
-532.106	-32.509	-0.103	-0.057
-531.091	280.833	-0.157	-0.280
-530.077	72.392	0.331	-0.343
-529.062	437.346	-0.113	0.244
-528.048	-21.523	-0.162	-0.098
-527.033	134.306	0.286	-0.369
-526.018	196.051	-0.095	-0.144
-525.004	-94.080	0.274	0.075
-523.989	665.625	-0.198	0.508
-522.975	229.781	-0.063	-0.103
-521.960	457.072	0.158	0.349
-520.945	-124.048	0.126	0.020
-519.931	244.648	0.113	0.189
-518.916	-200.000	0.029	0.401
-517.902	61.085	-0.011	-0.011
-516.887	71.645	-0.138	-0.143
-515.872	-143.817	0.134	0.013
-514.858	177.394	0.170	-0.246
-513.843	-200.000	0.020	-0.108
-512.829	-200.000	-0.022	0.234
-511.814	5.795	-0.384	-0.283
-510.799	-109.653	0.151	0.032
-509.785	309.482	0.065	0.122
-508.770	-33.756	0.463	-0.254
-507.756	-104.070	-0.355	0.082
-506.741	-85.207	-0.301	0.094
-505.726	-200.000	-0.042	0.231
-504.712	-81.227	0.151	0.050
-503.697	-150.924	0.087	-0.007
-502.683	80.920	-0.072	-0.077
-501.668	-87.663	0.097	0.029
-500.653	0.661	0.189	0.134
-499.639	-200.000	0.004	0.061
-498.624	9.010	-0.217	-0.163
-497.610	-90.902	-0.239	-0.069
-496.595	-125.580	0.098	0.015
-495.581	-10.491	0.030	-0.019
-494.566	-124.848	0.154	-0.024
-493.551	8.661	-0.095	-0.071
-492.537	-200.000	-0.005	0.416
-491.522	-104.428	0.325	-0.075
-490.508	138.864	0.272	-0.355
-489.493	-146.388	-0.118	0.010
-488.478	32.816	-0.479	-0.412
-487.464	144.299	0.194	0.257
-486.449	-90.992	0.344	0.098
-485.435	144.876	-0.058	0.077
-484.420	232.282	0.056	-0.091
-483.405	53.396	-0.199	0.190
-482.391	-200.000	-0.001	0.063
-481.376	-37.838	0.220	-0.116
-480.362	-74.178	-0.344	-0.124
-479.347	-86.480	0.389	0.118
-478.332	-129.280	-0.153	-0.021
-477.318	800.000	-0.046	0.132
-476.303	82.868	0.225	0.242
-475.289	-86.490	0.304	-0.093
-474.274	-159.135	0.071	0.004
-473.259	-27.213	-0.250	0.145
-472.245	209.591	0.134	0.209
-471.230	284.762	-0.226	0.403
-470.216	26.353	0.300	0.249
-469.201	283.392	-0.139	0.248
-468.186	-200.000	0.005	0.308
-467.172	6.280	-0.069	-0.051
-466.157	-200.000	-0.085	-0.385
-465.143	-120.201	0.195	-0.033
-464.128	800.000	-0.013	0.053
-463.113	-59.663	-0.173	-0.074
-462.099	800.000	-0.006	0.023
-461.084	-90.431	0.156	0.045
-460.070	-144.850	-0.161	0.015
-459.055	-200.000	0.037	0.241
-458.040	-119.349	-0.036	-0.006
-457.026	800.000	0.067	0.224
-456.011	-200.000	-0.032	-0.159
-454.997	214.608	-0.023	-0.036
-453.982	-22.115	0.038	-0.023
-452.968	365.469	-0.120	-0.239
-451.953	-77.975	-0.156	-0.053
-450.938	-145.968	-0.253	0.022
-449.924	38.100	-0.220	-0.194
-448.909	-63.833	0.215	-0.088
-447.895	-145.298	-0.223	-0.020
-446.880	800.000	0.063	0.272
-445.865	437.204	0.226	-0.488
-444.851	-81.175	0.293	0.096
-443.836	-200.000	-0.036	0.206
-442.822	113.695	0.303	-0.365
-441.807	-139.419	0.305	0.032
-440.792	-200.000	0.017	0.108
-439.778	-76.623	0.134	0.047
-438.763	46.230	-0.124	-0.114
-437.749	800.000	0.073	0.230
-436.734	43.120	0.059	0.054
-435.719	-200.000	0.077	-0.545
-434.705	-200.000	0.108	-0.473
-433.690	-52.263	-0.297	0.136
-432.676	-10.923	-0.182	-0.119
-431.661	13.498	0.021	0.016
-430.646	133.460	-0.081	-0.103
-429.632	-200.000	0.044	-0.210
-428.617	282.738	-0.119	0.212
-427.603	142.929	-0.080	-0.105
-426.588	170.757	0.234	0.332
-425.573	-153.958	-0.237	-0.016
-424.559	-64.315	-0.002	-0.001
-423.544	-25.519	-0.195	0.114
-422.530	77.568	-0.011	-0.012
-421.515	-70.607	-0.249	-0.093
-420.500	-200.000	-0.013	0.316
-419.486	48.030	-0.108	-0.100
-418.471	470.516	0.160	-0.357
-417.457	-102.019	0.203	0.049
-416.442	-59.983	-0.081	0.034
-415.428	-26.075	-0.083	0.049
-414.413	356.393	0.045	-0.089
-413.398	800.000	0.159	-0.558
-412.384	656.397	-0.033	-0.085
-411.369	692.655	-0.054	0.139
-410.355	800.000	0.100	0.366
-409.340	759.190	0.092	-0.247
-408.325	-62.844	-0.123	-0.050
-407.311	46.681	-0.077	-0.071
-406.296	7.848	0.247	-0.183
-405.282	-200.000	0.048	-0.215
-404.267	-0.893	0.074	-0.052
-403.252	-96.009	0.319	-0.084
-402.238	303.492	-0.164	-0.300
-401.223	-200.000	-0.002	0.028
-400.209	139.381	-0.093	-0.121
-399.194	-1.098	0.193	-0.135
-398.179	-200.000	0.038	0.322
-397.165	-200.000	-0.031	-0.338
-396.150	800.000	0.041	-0.127
-395.136	32.312	0.218	-0.187
-394.121	22.250	-0.438	-0.354
-393.106	123.292	-0.109	-0.136
-392.092	800.000	-0.057	-0.163
-391.077	150.483	-0.260	0.349
-390.063	-116.127	0.311	0.057
-389.048	-71.577	-0.062	0.023
-388.033	-44.044	-0.158	0.079
-387.019	-81.342	-0.249	-0.081
-386.004	47.288	0.055	-0.051
-384.990	-92.970	0.235	0.065
-383.975	800.000	-0.076	0.270
-382.960	800.000	0.072	-0.211
-381.946	329.233	0.096	-0.182
-380.931	-98.777	-0.373	-0.094
-379.917	800.000	-0.093	-0.346
-378.902	631.089	-0.073	-0.183
-377.888	-72.272	0.333	-0.122
-376.873	100.197	0.113	-0.129
-375.858	270.334	-0.111	-0.193
-374.844	-200.000	-0.003	0.033
-373.829	-40.464	0.242	0.125
-372.815	-200.000	-0.072	-0.331
-371.800	27.273	0.308	-0.256
-370.785	-94.317	0.101	-0.027
-369.771	39.426	-0.205	-0.182
-368.756	427.181	-0.187	-0.399
-367.742	86.907	0.138	0.151
-366.727	-86.957	-0.236	-0.071
-365.712	284.290	0.127	-0.226
-364.698	41.127	0.224	0.200
-363.683	-56.708	-0.347	-0.152
-362.669	-69.435	-0.208	0.079
-361.654	-169.880	0.063	-0.002
-360.639	-200.000	0.029	0.394
-359.625	-200.000	0.057	0.540
-358.610	-42.850	0.190	0.095
-357.596	183.247	-0.045	0.065
-356.581	61.730	-0.140	0.138
-355.566	446.631	-0.032	0.071
-354.552	800.000	-0.039	0.111
-353.537	-90.947	0.445	-0.127
-352.523	234.066	-0.080	-0.131
-351.508	87.533	0.092	-0.100
-350.493	-71.266	-0.152	0.056
-349.479	-200.000	-0.002	0.216
-348.464	-200.000	0.021	0.300
-347.450	-200.000	-0.021	-0.278
-346.435	-66.485	0.177	0.070
-345.420	-105.777	0.083	-0.019
-344.406	10.305	0.266	0.200
-343.391	137.987	0.137	-0.178
-342.377	511.932	-0.127	0.293
-341.362	182.867	0.078	0.114
-340.348	-151.773	-0.357	0.026
-339.333	800.000	-0.075	0.260
-338.318	-84.052	0.312	0.098
-337.304	56.347	0.185	0.178
-336.289	-131.618	0.172	-0.022
-335.275	-150.884	0.224	0.017
-334.260	-200.000	-0.002	0.208
-333.245	-200.000	0.022	0.167
-332.231	233.547	-0.005	-0.007
-331.216	616.937	-0.079	-0.196
-330.202	53.737	0.083	-0.079
-329.187	-90.194	0.325	-0.093
-328.172	-200.000	0.035	-0.282
-327.158	-35.156	-0.038	-0.020
-326.143	16.067	-0.290	-0.226
-325.129	-136.558	0.210	0.024
-324.114	800.000	0.038	0.123
-323.099	-176.785	-0.088	0.002
-322.085	125.404	-0.046	-0.057
-321.070	78.526	-0.095	-0.100
-320.056	-130.207	0.179	-0.024
-319.041	248.567	-0.163	-0.272
-318.026	54.036	-0.177	-0.168
-317.012	-100.879	0.298	0.072
-315.997	-13.281	-0.073	-0.047
-314.983	-121.458	0.061	0.010
-313.968	-106.138	0.132	0.029
-312.953	41.004	0.074	0.066
-311.939	491.301	-0.134	-0.303
-310.924	-100.151	0.276	0.068
-309.910	-200.000	-0.032	0.249
-308.895	-48.397	0.057	-0.027
-307.880	535.203	-0.160	0.375
-306.866	15.709	-0.209	0.162
-305.851	-91.900	-0.114	0.032
-304.837	-27.197	0.340	-0.195
-303.822	-96.099	0.050	0.013
-302.807	66.138	-0.132	-0.132
-301.793	-32.434	0.302	0.166
-300.778	-200.000	0.012	0.158
-299.764	383.159	-0.048	-0.098
-298.749	-23.343	-0.284	-0.169
-297.735	-87.653	0.088	0.026
-296.720	45.538	0.096	0.088
-295.705	-200.000	-0.012	-0.250
-294.691	-94.597	-0.511	-0.137
-293.676	98.974	0.102	0.117
-292.662	330.831	0.086	-0.163
-291.647	-80.785	-0.585	0.192
-290.632	80.258	-0.261	-0.276
-289.618	-38.181	0.201	0.105
-288.603	-200.000	0.004	0.068
-287.589	-200.000	-0.006	-0.118
-286.574	-43.027	0.200	0.100
-285.559	589.929	0.036	0.088
-284.545	-155.810	-0.191	-0.012
-283.530	-30.892	-0.218	0.121
-282.516	-61.633	0.265	0.110
-281.501	-97.081	0.239	0.062
-280.486	121.366	0.227	-0.278
-279.472	-100.718	0.330	-0.080
-278.457	36.604	-0.154	0.134
-277.443	-48.949	-0.241	-0.114
-276.428	-88.295	0.064	-0.019
-275.413	-157.047	0.417	0.025
-274.399	-121.058	0.195	-0.032
-273.384	511.636	0.130	0.298
-272.370	-200.000	-0.016	0.160
-271.355	-200.000	-0.009	0.050
-270.340	85.964	0.093	0.101
-269.326	-7.959	0.127	0.084
-268.311	234.053	0.101	-0.164
-267.297	-200.000	0.144	-0.000
-266.282	21.771	0.091	-0.073
-265.267	112.207	0.152	-0.181
-264.253	-35.085	-0.280	-0.151
-263.238	154.615	-0.170	-0.230
-262.224	800.000	0.020	-0.074
-261.209	16.901	-0.205	0.160
-260.195	-140.882	0.242	-0.024
-259.180	-110.524	-0.464	0.095
-258.165	-200.000	0.009	-0.063
-257.151	-200.000	0.075	0.403
-256.136	-67.644	-0.198	-0.077
-255.122	-200.000	-0.024	-0.287
-254.107	-26.050	-0.108	0.062
-253.092	293.981	0.052	0.093
-252.078	-51.192	0.268	0.124
-251.063	167.208	-0.160	0.224
-250.049	-200.000	-0.016	-0.112
-249.034	200.542	-0.185	0.280
-248.019	-73.440	-0.166	0.060
-247.005	-190.490	-0.085	-0.001
-245.990	287.872	0.231	0.412
-244.976	-82.860	0.295	0.094
-243.961	645.793	0.040	-0.100
-242.946	107.249	0.170	0.199
-241.932	-61.009	-0.148	-0.061
-240.917	223.491	-0.079	-0.125
-239.903	74.611	0.042	0.044
-238.888	-200.000	-0.014	0.216
-237.873	-12.203	0.097	-0.062
-236.859	170.049	0.202	-0.284
-235.844	800.000	-0.128	0.432
-234.830	-154.213	0.377	0.025
-233.815	-200.000	0.025	0.314
-232.800	-200.000	-0.034	0.282
-231.786	93.469	-0.106	0.118
-230.771	-200.000	-0.034	-0.150
-229.757	-200.000	-0.054	-0.234
-228.742	47.408	-0.112	0.102
-227.727	800.000	0.048	0.206
-226.713	8.453	-0.088	-0.065
-225.698	-200.000	-0.022	0.180
-224.684	20.520	-0.100	-0.079
-223.669	315.505	0.100	-0.185
-222.655	56.968	0.232	0.223
-221.640	60.933	-0.060	-0.059
-220.625	800.000	0.040	0.133
-219.611	-99.453	0.236	-0.058
-218.596	800.000	-0.045	-0.135
-217.582	-200.000	0.006	-0.485
-216.567	-80.678	0.144	0.047
-215.552	-22.015	-0.240	0.144
-214.538	-76.565	-0.141	-0.049
-213.523	800.000	-0.049	-0.197
-212.509	222.415	-0.235	0.371
-211.494	79.834	0.122	0.129
-210.479	-34.544	0.143	0.077
-209.465	74.451	-0.238	0.246
-208.450	13.304	-0.066	-0.051
-207.436	-108.781	0.109	-0.023
-206.421	-14.208	0.257	-0.163
-205.406	-200.000	-0.001	0.094
-204.392	-200.000	-0.025	0.141
-203.377	-12.023	0.112	-0.072
-202.363	-200.000	0.035	-0.151
-201.348	800.000	-0.084	0.260
-200.333	-200.000	0.021	0.213
-199.319	37.090	-0.092	0.080
-198.304	272.619	0.088	-0.152
-197.290	-200.000	0.029	0.346
-196.275	-74.316	-0.287	0.102
-195.260	-200.000	-0.020	0.167
-194.246	0.127	0.044	-0.031
-193.231	-200.000	0.025	-0.111
-192.217	-64.994	-0.184	-0.073
-191.202	-128.559	-0.109	0.015
-190.187	756.222	-0.101	-0.267
-189.173	-83.327	-0.225	0.071
-188.158	98.180	-0.211	0.239
-187.144	17.144	0.206	-0.160
-186.129	-118.171	-0.306	-0.054
-185.114	-137.414	0.159	0.018
-184.100	800.000	-0.047	-0.192
-183.085	-159.525	0.348	-0.019
-182.071	357.568	-0.070	-0.137
-181.056	441.346	0.048	0.103
-180.042	101.302	0.115	-0.131
-179.027	800.000	0.110	0.386
-178.012	-200.000	-0.026	-0.185
-176.998	-200.000	-0.012	-0.265
-175.983	-185.500	-0.138	0.002
-174.969	20.538	-0.133	-0.106
-173.954	-40.688	-0.242	-0.123
-172.939	298.335	-0.090	0.163
-171.925	42.991	-0.189	-0.169
-170.910	-200.000	-0.026	-0.159
-169.896	800.000	-0.122	0.360
-168.881	-86.496	0.280	0.084
-167.866	53.253	-0.200	0.188
-166.852	-72.521	-0.286	-0.104
-165.837	215.625	0.185	0.287
-164.823	45.541	0.169	-0.153
-163.808	-75.370	0.053	0.019
-162.793	-78.009	-0.157	0.053
-161.779	75.579	-0.162	-0.168
-160.764	800.000	-0.086	-0.258
-159.750	458.137	0.023	0.051
-158.735	-70.496	-0.116	-0.043
-157.720	-68.709	-0.414	-0.157
-156.706	-153.985	0.044	-0.003
-155.691	294.902	-0.152	0.272
-154.677	-158.923	-0.189	0.011
-153.662	-41.812	-0.082	-0.041
-152.647	-111.018	0.092	-0.019
-151.633	-121.798	0.133	-0.022
-150.618	14.445	-0.074	-0.057
-149.604	60.703	0.027	-0.026
-148.589	-200.000	-0.012	-0.071
-147.574	-14.768	-0.145	0.091
-146.560	-200.000	0.036	0.179
-145.545	48.460	0.261	-0.240
-144.531	-51.925	0.155	-0.070
-143.516	-53.831	0.135	0.060
-142.502	473.258	-0.121	-0.266
-141.487	-200.000	-0.050	-0.271
-140.472	-97.751	-0.271	0.069
-139.458	-70.016	0.311	0.116
-138.443	-173.309	-0.189	-0.006
-137.429	-61.213	0.154	-0.064
-136.414	-200.000	-0.016	-0.329
-135.399	-113.048	0.141	0.027
-134.385	30.656	0.373	-0.312
-133.370	-122.550	-0.162	-0.026
-132.356	800.000	0.035	0.112
-131.341	-6.794	-0.199	-0.133
-130.326	80.613	-0.080	-0.084
-129.312	-85.126	-0.132	0.040
-128.297	-200.000	-0.019	0.098
-127.283	-165.024	-0.241	0.011
-126.268	93.256	-0.305	0.338
-125.253	-47.605	0.127	-0.061
-124.239	92.183	0.307	-0.338
-123.224	-200.000	-0.009	-0.165
-122.210	-39.125	-0.124	0.064
-121.195	-8.100	-0.306	-0.202
-120.180	-200.000	-0.010	-0.249
-119.166	-54.462	-0.080	-0.035
-118.151	-56.606	-0.095	0.041
-117.137	-161.689	-0.187	0.009
-116.122	297.511	-0.053	0.095
-115.107	-79.199	0.233	0.077
-114.093	-200.000	0.026	0.179
-113.078	-30.945	0.113	0.062
-112.064	-45.567	-0.132	0.064
-111.049	50.668	0.152	0.141
-110.034	-106.355	-0.300	0.066
-109.020	90.284	-0.203	-0.223
-108.005	-44.434	0.095	-0.047
-106.991	-71.596	0.196	0.072
-105.976	800.000	-0.072	-0.196
-104.962	5.143	0.154	-0.111
-103.947	382.077	0.175	-0.353
-102.932	130.088	-0.211	0.265
-101.918	18.701	0.285	0.223
-100.903	-93.244	-0.103	-0.028
-99.889	6.797	-0.084	-0.061
-98.874	-155.501	-0.066	0.004
-97.859	-20.010	0.229	-0.138
-96.845	-152.843	0.176	-0.012
-95.830	-200.000	-0.024	0.267
-94.816	76.865	-0.086	-0.089
-93.801	56.683	0.152	0.145
-92.786	-200.000	0.048	0.215
-91.772	176.055	0.181	0.258
-90.757	-99.648	0.072	-0.018
-89.743	123.646	-0.175	0.215
-88.728	340.260	-0.040	-0.076
-87.713	249.498	0.120	-0.199
-86.699	-200.000	0.005	-0.572
-85.684	800.000	0.071	-0.270
-84.670	800.000	0.063	0.216
-83.655	108.078	-0.252	-0.294
-82.640	55.205	-0.103	0.097
-81.626	-24.957	-0.284	-0.165
-80.611	-59.124	0.022	0.009
-79.597	-166.651	0.183	0.007
-78.582	-200.000	-0.004	0.052
-77.567	-85.730	0.394	-0.120
-76.553	162.624	0.019	-0.026
-75.538	157.337	0.198	0.268
-74.524	-76.792	0.265	0.091
-73.509	-200.000	-0.031	-0.136
-72.494	-200.000	0.023	0.300
-71.480	-53.825	-0.053	-0.024
-70.465	-200.000	0.000	-0.360
-69.451	-21.367	-0.129	0.077
-68.436	287.665	-0.166	-0.293
-67.422	-200.000	-0.006	-0.167
-66.407	-0.014	-0.360	0.250
-65.392	-33.544	0.300	-0.162
-64.378	503.101	0.042	-0.095
-63.363	-200.000	0.021	-0.226
-62.349	28.498	0.261	0.215
-61.334	59.904	-1.046	-1.010
-60.319	170.700	0.538	0.753
-59.305	800.000	-0.383	-1.111
-58.290	271.349	0.668	1.149
-57.276	800.000	0.532	1.494
-56.261	-200.000	116.716	640.003
-55.246	489.550	1547.873	3456.688
-54.232	173.150	2728.656	3841.860
-53.217	97.603	2294.249	2575.274
-52.203	35.230	1900.449	1627.250
-51.188	29.350	1694.476	1406.151
-50.173	27.031	1653.274	1354.629
-49.159	46.726	1711.603	1552.622
-48.144	45.525	1725.091	1555.672
-47.130	28.884	1681.257	1391.439
-46.115	26.330	1667.389	1360.708
-45.100	26.122	1662.519	1355.118
-44.086	26.100	1660.455	1353.216
-43.071	26.129	1657.545	1351.008
-42.057	26.051	1655.093	1348.370
-41.042	26.080	1653.217	1347.006
-40.027	26.192	1650.369	1345.466
-39.013	26.137	1648.973	1343.865
-37.998	26.073	1647.628	1342.239
-36.984	26.189	1646.005	1341.725
-35.969	26.186	1644.947	1340.791
-34.954	26.307	1643.177	1340.191
-33.940	26.275	1641.363	1338.421
-32.925	26.231	1640.072	1336.991
-31.911	26.243	1638.043	1335.375
-30.896	26.219	1636.461	1333.852
-29.881	26.172	1635.269	1332.480
-28.867	26.331	1633.224	1331.933
-27.852	26.303	1631.530	1330.289
-26.838	26.274	1630.018	1328.793
-25.823	26.219	1628.929	1327.451
-24.809	26.309	1627.924	1327.240
-23.794	26.417	1625.875	1326.309
-22.779	26.259	1624.876	1324.278
-21.765	26.267	1623.083	1322.823
-20.750	26.258	1621.048	1321.048
-19.736	26.251	1620.343	1320.367
-18.721	26.313	1618.764	1319.487
-17.706	26.239	1617.304	1317.704
-16.692	26.298	1615.701	1316.777
-15.677	26.211	1614.839	1315.385
-14.663	26.317	1613.317	1314.866
-13.648	26.249	1612.138	1313.359
-12.633	26.262	1610.400	1311.982
-11.619	26.296	1608.627	1310.730
-10.604	26.327	1606.716	1309.349
-9.590	26.340	1605.138	1308.104
-8.575	26.301	1604.419	1307.184
-7.560	26.202	1603.059	1305.313
-6.546	26.231	1601.773	1304.424
-5.531	26.235	1601.098	1303.848
-4.517	26.347	1599.326	1303.158
-3.502	26.317	1598.431	1302.164
-2.487	26.346	1596.838	1301.023
-1.473	26.009	1584.842	1288.787
-0.458	23.028	1565.619	1252.028
0.556	21.557	1567.065	1221.380
1.571	19.163	1590.774	1222.769
2.586	18.742	1603.670	1229.562
3.600	17.020	1549.790	1176.217
4.615	10.715	1442.699	1054.035
5.629	5.057	1383.764	975.584
6.644	3.935	1376.400	963.320
7.659	3.989	1375.096	962.662
8.673	4.177	1374.245	963.146
9.688	4.099	1372.542	961.387
10.702	4.064	1369.226	958.759
11.717	6.819	1374.101	979.186
12.731	14.127	1388.282	1034.825
13.746	20.886	1398.905	1084.882
14.761	22.688	1401.322	1097.892
15.775	22.147	1399.551	1093.043
16.790	21.188	1397.086	1085.064
17.804	20.539	1394.478	1078.917
18.819	20.211	1393.516	1076.039
19.834	20.125	1392.700	1074.781
20.848	20.131	1391.855	1074.074
21.863	19.896	1390.808	1071.711
22.877	19.857	1389.703	1070.524
23.892	19.789	1388.762	1069.287
24.907	19.702	1387.767	1067.887
25.921	19.803	1386.692	1067.586
26.936	19.756	1386.179	1066.810
27.950	19.822	1384.641	1065.937
28.965	19.805	1384.245	1065.434
29.980	19.990	1383.110	1065.604
30.994	20.144	1382.081	1065.663
32.009	20.212	1381.128	1065.253
33.023	20.152	1379.909	1063.850
34.038	20.019	1378.403	1061.783
35.053	19.880	1376.993	1059.748
36.067	19.867	1376.063	1058.859
37.082	19.927	1375.105	1058.399
38.096	20.086	1374.325	1058.672
39.111	20.070	1373.513	1057.853
40.126	19.879	1372.378	1055.723
41.140	19.547	1371.796	1053.155
42.155	19.472	1371.074	1052.055
43.169	19.338	1370.670	1050.831
44.184	19.497	1370.093	1051.267
45.199	19.439	1369.967	1050.721
46.213	19.684	1370.131	1052.247
47.228	19.797	1369.353	1052.244
48.242	19.932	1367.826	1051.799
49.257	19.838	1366.713	1050.279
50.271	19.930	1364.952	1049.392
51.286	19.961	1363.534	1048.398
52.301	19.926	1362.303	1047.145
53.315	19.687	1361.491	1044.981
54.330	19.545	1360.433	1043.218
55.344	19.477	1358.940	1041.570
56.359	19.498	1357.638	1040.612
57.374	19.435	1357.178	1039.783
58.388	19.386	1356.091	1038.565
59.403	19.387	1355.844	1038.291
60.417	19.320	1354.676	1036.903
61.432	19.203	1353.797	1035.433
62.447	19.257	1352.810	1034.911
63.461	19.130	1351.639	1033.159
64.476	19.110	1350.756	1032.275
65.490	19.230	1349.266	1031.761
66.505	19.059	1347.926	1029.626
67.520	19.169	1346.838	1029.361
68.534	19.159	1345.688	1028.328
69.549	19.037	1344.963	1026.955
70.563	19.110	1343.527	1026.207
71.578	18.882	1342.715	1024.138
72.593	18.835	1341.979	1023.202
73.607	18.830	1341.226	1022.509
74.622	18.877	1340.138	1021.867
75.636	19.039	1339.509	1022.259
76.651	19.114	1338.327	1021.714
77.666	19.061	1338.193	1021.208
78.680	19.086	1338.156	1021.235
79.695	19.291	1337.159	1021.603
80.709	19.408	1336.471	1021.680
81.724	19.540	1335.768	1021.830
82.739	19.551	1335.100	1021.296
83.753	19.726	1334.461	1021.748
84.768	20.012	1333.491	1022.608
85.782	20.113	1332.891	1022.649
86.797	19.995	1331.391	1020.712
87.812	19.905	1330.376	1019.318
88.826	19.812	1329.111	1017.711
89.841	19.861	1328.232	1017.235
90.855	19.970	1327.422	1017.162
91.870	20.151	1326.147	1017.160
92.884	20.194	1325.854	1017.094
93.899	20.220	1324.511	1016.129
94.914	20.222	1324.171	1015.789
95.928	20.129	1323.430	1014.589
96.943	20.099	1322.035	1013.252
97.957	20.026	1321.333	1012.197
98.972	19.982	1320.435	1011.166
99.987	20.079	1318.979	1010.527
101.001	19.926	1318.413	1009.108
102.016	20.055	1317.094	1008.762
103.030	19.987	1316.784	1008.039
104.045	19.920	1315.826	1006.829
105.060	19.852	1313.838	1004.824
106.074	19.515	1312.443	1001.710
107.089	19.208	1310.696	998.513
108.103	19.121	1309.244	996.813
109.118	19.134	1307.954	995.817
110.133	19.192	1306.620	995.050
111.147	19.180	1305.299	993.888
112.162	19.356	1303.872	993.723
113.176	19.312	1303.557	993.141
114.191	19.392	1302.914	993.025
115.206	19.405	1301.636	992.041
116.220	19.320	1300.110	990.301
117.235	19.316	1299.277	989.556
118.249	19.306	1298.523	988.838
119.264	19.199	1296.949	986.937
120.279	19.165	1295.662	985.674
121.293	19.054	1294.798	984.295
122.308	18.959	1293.634	982.783
123.322	18.890	1292.560	981.487
124.337	18.840	1291.727	980.480
125.352	18.935	1290.333	979.877
126.366	18.807	1289.165	978.174
127.381	18.973	1287.492	977.760
128.395	18.900	1287.171	977.018
129.410	18.957	1286.649	976.860
130.424	18.941	1285.846	976.074
131.439	19.202	1284.654	976.557
132.454	19.288	1284.139	976.572
133.468	19.451	1282.858	976.432
134.483	19.329	1282.712	975.542
135.497	19.335	1281.511	974.575
136.512	19.283	1280.831	973.681
137.527	19.306	1279.353	972.601
138.541	19.444	1277.791	972.104
139.556	19.514	1276.790	971.651
140.570	19.610	1275.749	971.311
141.585	19.706	1274.612	970.902
142.600	19.821	1273.885	970.905
143.614	19.950	1273.406	971.177
144.629	20.105	1272.052	970.930
145.643	19.960	1270.862	969.121
146.658	19.857	1269.229	967.218
147.673	19.668	1267.435	964.710
148.687	19.502	1266.652	963.102
149.702	19.363	1264.758	960.801
150.716	19.335	1263.898	959.908
151.731	19.279	1262.946	958.785
152.746	19.346	1261.397	957.899
153.760	19.500	1260.647	958.099
154.775	19.462	1259.940	957.267
155.789	19.644	1258.945	957.437
156.804	19.741	1257.554	956.830
157.819	19.837	1256.923	956.798
158.833	20.002	1256.135	957.022
159.848	19.996	1255.906	956.732
160.862	20.003	1254.172	955.361
161.877	19.580	1252.889	951.968
162.892	19.344	1251.488	949.525
163.906	19.353	1250.630	948.837
164.921	19.294	1249.340	947.451
165.935	19.460	1248.936	947.969
166.950	19.596	1248.287	948.141
167.964	19.575	1247.127	947.064
168.979	19.372	1247.169	945.897
169.994	19.434	1246.356	945.535
171.008	19.529	1245.176	945.080
172.023	19.723	1244.581	945.601
173.037	19.866	1243.942	945.816
174.052	19.810	1242.765	944.534
175.067	19.578	1241.731	942.397
176.081	19.408	1240.281	940.286
177.096	19.375	1239.575	939.488
178.110	19.454	1238.224	938.810
179.125	19.417	1237.700	938.131
180.140	19.595	1236.379	938.013
181.154	19.743	1235.323	937.932
182.169	19.773	1234.262	937.202
183.183	19.883	1233.483	937.124
184.198	19.877	1232.323	936.129
185.213	19.911	1231.182	935.362
186.227	19.985	1229.829	934.650
187.242	19.893	1229.348	933.708
188.256	20.138	1228.447	934.260
189.271	20.139	1227.988	933.833
190.286	19.914	1226.465	931.384
191.300	19.519	1225.001	928.063
192.315	19.254	1224.085	925.864
193.329	19.405	1223.667	926.279
194.344	19.535	1222.838	926.268
195.359	19.567	1222.556	926.141
196.373	19.679	1222.163	926.364
197.388	19.853	1221.986	927.078
198.402	20.090	1221.684	928.037
199.417	20.159	1221.580	928.247
200.432	20.272	1220.969	928.306
201.446	20.504	1220.153	928.842
202.461	20.455	1219.699	928.154
203.475	20.426	1218.606	927.083
204.490	20.224	1216.595	924.395
205.504	19.942	1215.548	922.018
206.519	19.997	1214.004	921.059
207.534	19.896	1213.037	919.705
208.548	19.889	1211.769	918.626
209.563	19.931	1211.019	918.199
210.577	19.896	1210.249	917.349
211.592	20.060	1209.709	917.726
212.607	20.303	1209.096	918.464
213.621	20.098	1208.474	916.825
214.636	20.126	1207.108	915.859
215.650	20.145	1206.208	915.196
216.665	20.382	1205.311	915.682
217.680	20.571	1204.589	916.052
218.694	20.581	1204.083	915.635
219.709	20.433	1202.980	913.937
220.723	20.422	1201.962	913.024
221.738	20.392	1201.488	912.428
222.753	20.387	1200.678	911.704
223.767	20.277	1200.191	910.679
224.782	20.568	1199.766	911.798
225.796	20.650	1199.329	911.816
226.811	20.619	1198.331	910.817
227.826	20.448	1197.231	909.006
228.840	20.382	1196.228	907.820
229.855	20.348	1195.640	907.115
230.869	20.294	1194.753	906.075
231.884	20.241	1193.839	905.028
232.899	20.042	1193.274	903.483
233.913	20.006	1192.295	902.473
234.928	20.103	1191.223	902.085
235.942	20.002	1190.411	900.865
236.957	19.928	1189.665	899.835
237.972	19.908	1189.104	899.231
238.986	19.919	1188.729	898.925
240.001	19.993	1187.831	898.548
241.015	20.099	1186.878	898.297
242.030	20.124	1186.230	897.860
243.045	20.341	1185.773	898.553
244.059	20.208	1184.919	897.143
245.074	20.373	1184.480	897.583
246.088	20.488	1183.374	897.259
247.103	20.507	1182.777	896.827
248.117	20.647	1182.326	897.128
249.132	20.876	1181.682	897.737
250.147	21.066	1181.587	898.566
251.161	21.223	1180.716	898.630
252.176	21.348	1180.054	898.689
253.190	21.389	1179.519	898.415
254.205	21.410	1179.422	898.370
255.220	21.427	1178.622	897.768
256.234	21.441	1177.400	896.827
257.249	21.431	1176.756	896.207
258.263	21.272	1176.464	895.091
259.278	21.240	1175.484	894.100
260.293	21.418	1175.087	894.632
261.307	21.481	1174.771	894.635
262.322	21.543	1173.992	894.278
263.336	21.499	1173.207	893.379
264.351	21.487	1172.892	892.998
265.366	21.574	1172.154	892.798
266.380	21.536	1171.276	891.856
267.395	21.367	1169.944	889.906
268.409	21.261	1169.460	888.920
269.424	21.139	1169.141	887.977
270.439	21.227	1168.618	887.950
271.453	21.220	1167.386	886.896
272.468	20.987	1166.247	884.774
273.482	20.989	1165.407	884.069
274.497	20.958	1164.784	883.359
275.512	21.092	1164.307	883.597
276.526	21.040	1163.369	882.545
277.541	21.125	1162.934	882.566
278.555	21.192	1162.066	882.169
279.570	21.257	1162.115	882.455
280.585	21.576	1161.047	883.178
281.599	21.573	1159.935	882.236
282.614	21.212	1159.040	879.660
283.628	21.188	1157.841	878.553
284.643	21.162	1156.652	877.443
285.657	21.101	1155.984	876.549
286.672	21.226	1154.975	876.334
287.687	21.171	1154.046	875.275
288.701	21.171	1153.116	874.495
289.716	21.217	1152.555	874.221
290.730	21.151	1151.858	873.283
291.745	21.366	1151.161	873.756
292.760	21.348	1150.714	873.249
293.774	21.518	1150.176	873.612
294.789	21.455	1150.101	873.164
295.803	21.468	1148.898	872.237
296.818	21.345	1148.352	871.131
297.833	21.265	1147.141	869.737
298.847	21.215	1146.689	869.070
299.862	21.324	1145.353	868.521
300.876	21.330	1144.838	868.085
301.891	21.402	1144.463	868.081
302.906	21.635	1143.626	868.526
303.920	21.800	1143.480	869.155
304.935	21.894	1142.943	869.138
305.949	21.991	1142.197	868.970
306.964	22.069	1141.415	868.687
307.979	21.782	1140.656	866.610
308.993	21.628	1140.263	865.478
310.008	21.764	1139.386	865.407
311.022	21.913	1138.387	865.305
312.037	21.817	1137.774	864.290
313.052	21.550	1136.769	862.135
314.066	21.405	1135.382	860.292
315.081	21.366	1134.357	859.249
316.095	21.239	1133.681	858.035
317.110	21.300	1133.008	857.750
318.125	21.201	1132.536	856.832
319.139	21.246	1131.506	856.195
320.154	21.395	1130.724	856.257
321.168	21.366	1130.308	855.725
322.183	21.255	1129.808	854.728
323.197	21.346	1129.194	854.634
324.212	21.370	1128.283	853.985
325.227	21.419	1128.323	854.181
326.241	21.482	1127.348	853.676
327.256	21.468	1126.507	852.893
328.270	21.376	1125.627	851.705
329.285	21.316	1124.841	850.741
330.300	21.361	1123.885	850.161
331.314	21.318	1122.566	848.881
332.329	21.375	1121.879	848.561
333.343	21.424	1120.966	848.032
334.358	21.636	1120.475	848.615
335.373	21.728	1119.969	848.605
336.387	21.761	1119.223	848.123
337.402	21.878	1118.319	847.925
338.416	21.887	1117.740	847.458
339.431	21.942	1117.342	847.344
340.446	22.126	1116.608	847.603
341.460	22.226	1116.028	847.570
342.475	22.400	1115.575	847.986
343.489	22.307	1114.684	846.790
344.504	22.453	1113.542	846.544
345.519	22.425	1112.891	845.841
346.533	22.455	1112.207	845.391
347.548	22.405	1111.779	844.752
348.562	22.330	1110.905	843.654
349.577	22.167	1109.840	841.989
350.592	21.948	1108.953	840.194
351.606	21.861	1107.531	838.626
352.621	21.738	1107.018	837.576
353.635	21.716	1106.404	836.930
354.650	21.786	1105.346	836.392
355.665	21.756	1104.832	835.784
356.679	21.903	1104.492	836.155
357.694	21.892	1104.108	835.738
358.708	22.037	1103.278	835.727
359.723	22.019	1102.998	835.354
360.738	22.144	1101.961	835.091
361.752	22.070	1101.537	834.343
362.767	22.145	1100.612	833.925
363.781	22.104	1100.399	833.494
364.796	22.332	1100.025	834.216
365.810	22.499	1099.351	834.425
366.825	22.518	1099.007	834.177
367.840	22.843	1098.284	835.094
368.854	22.713	1098.257	834.385
369.869	22.817	1097.175	833.978
370.883	22.569	1096.394	832.139
371.898	22.427	1095.653	830.834
372.913	22.454	1094.588	830.080
373.927	22.490	1094.480	830.098
374.942	22.579	1094.262	830.279
375.956	22.546	1093.376	829.376
376.971	22.597	1092.893	829.177
377.986	22.694	1092.491	829.252
379.000	22.902	1091.561	829.450
380.015	22.834	1091.418	828.949
381.029	22.973	1090.568	828.885
382.044	22.988	1089.795	828.291
383.059	22.873	1089.014	827.086
384.073	22.901	1088.351	826.640
385.088	22.865	1087.354	825.644
386.102	22.839	1086.554	824.839
387.117	22.608	1085.375	822.793
388.132	22.552	1084.008	821.423
389.146	22.487	1083.125	820.382
390.161	22.375	1082.742	819.496
391.175	22.474	1082.191	819.466
392.190	22.683	1081.211	819.622
393.205	22.927	1081.046	820.558
394.219	22.850	1080.119	819.425
395.234	22.446	1079.455	816.976
396.248	22.532	1077.985	816.190
397.263	22.439	1076.943	814.897
398.278	22.401	1076.308	814.169
399.292	22.179	1075.185	812.223
400.307	22.203	1074.321	811.608
401.321	22.253	1073.898	811.447
402.336	22.225	1073.299	810.793
403.350	22.324	1072.492	810.569
404.365	22.565	1071.928	811.181
405.380	22.456	1071.474	810.265
406.394	22.486	1071.063	810.017
407.409	22.647	1070.492	810.256
408.423	22.920	1069.651	810.801
409.438	22.917	1069.076	810.278
410.453	22.920	1068.688	809.927
411.467	23.095	1067.810	809.993
412.482	23.160	1067.349	809.870
413.496	23.233	1066.671	809.617
414.511	23.293	1066.279	809.520
415.526	23.380	1065.841	809.515
416.540	23.422	1065.431	809.322
417.555	23.479	1064.704	808.958
418.569	23.276	1063.707	807.204
419.584	23.289	1063.390	806.950
420.599	23.276	1063.042	806.558
421.613	157.691	1405.084	1797.066
422.628	145.090	1454.881	1797.136
