DTS Sentinel unit serial number:	SN413079Multiplexer serial number:	ORYXHardware model number:	OX4-SRSoftware version number:	ORYX F/W v4.00 Oryx Data Collector v3.7.2.0data status	okinstallation	princeton_trtdifferential loss correction	single-endedforward channel	channel 2reverse channel	N/Adate	2019/09/17time	01:07:34forward acquisition time	60.00reverse acquisition time	0.00gamma	496.2192k internal	0.2328k external	0.2328temperature offset calibration	0.9970default loss term (dB/km)	0.3790temperature slope calibration	1.0000multiplexer offset coefficient	1.0000multiplexer slope coefficient	1.0000fibre end	0.00T internal ref (°C)	29.45T ext. ref 1 (°C)	0.10T ext. ref 2 (°C)	24.14length (m)	temperature (°C)	Stokes	anti-Stokes-747.200	-200.000	0.016	0.084
-746.185	-17.488	-0.402	0.255
-745.171	-97.942	-0.105	-0.027
-744.156	-200.000	0.041	0.433
-743.142	-121.394	-0.189	0.032
-742.127	-136.173	-0.283	-0.033
-741.112	52.760	-0.290	-0.279
-740.098	680.009	0.046	0.122
-739.083	664.676	0.083	-0.215
-738.069	800.000	0.060	-0.169
-737.054	800.000	0.060	0.235
-736.039	-200.000	-0.003	0.390
-735.025	259.192	0.075	-0.130
-734.010	800.000	-0.061	-0.173
-732.996	-98.967	-0.396	-0.101
-731.981	-13.465	-0.254	0.166
-730.966	70.289	0.082	0.085
-729.952	-200.000	-0.001	-0.204
-728.937	216.931	-0.228	-0.365
-727.923	272.104	-0.142	0.251
-726.908	800.000	-0.017	0.061
-725.894	-18.642	-0.247	-0.155
-724.879	240.072	0.302	-0.507
-723.864	74.774	-0.198	0.210
-722.850	-100.211	0.023	-0.006
-721.835	156.179	0.178	0.248
-720.821	-94.306	-0.228	-0.063
-719.806	-96.579	0.284	-0.075
-718.791	800.000	0.020	-0.059
-717.777	58.648	0.161	-0.159
-716.762	333.836	-0.155	-0.302
-715.748	-183.639	-0.111	-0.002
-714.733	800.000	0.043	-0.188
-713.718	-200.000	0.005	-0.156
-712.704	-200.000	-0.019	-0.096
-711.689	79.372	0.108	-0.116
-710.675	-4.705	0.429	-0.298
-709.660	257.818	-0.064	0.110
-708.645	-28.624	-0.128	-0.074
-707.631	-11.517	-0.359	0.238
-706.616	26.164	-0.130	0.109
-705.602	155.610	-0.027	-0.038
-704.587	53.111	-0.131	0.126
-703.572	-42.424	0.129	0.066
-702.558	-107.699	0.184	-0.040
-701.543	79.103	-0.482	0.519
-700.529	-66.701	0.372	-0.148
-699.514	733.655	0.107	-0.288
-698.499	-120.883	-0.197	-0.033
-697.485	50.431	-0.044	0.042
-696.470	800.000	0.107	-0.312
-695.456	-200.000	-0.009	0.266
-694.441	160.046	-0.108	-0.151
-693.426	-127.412	0.202	0.030
-692.412	-200.000	0.018	0.141
-691.397	-200.000	0.011	0.064
-690.383	-1.702	0.066	-0.047
-689.368	-5.837	-0.310	-0.213
-688.354	406.012	-0.102	-0.217
-687.339	32.314	0.196	-0.170
-686.324	2.135	-0.137	0.100
-685.310	-200.000	-0.005	0.083
-684.295	77.781	0.272	0.292
-683.281	165.869	-0.142	0.202
-682.266	-158.944	-0.523	0.030
-681.251	800.000	0.044	0.135
-680.237	-200.000	-0.254	-0.001
-679.222	58.594	-0.240	0.236
-678.208	-103.843	-0.305	0.072
-677.193	116.181	0.124	-0.152
-676.178	800.000	0.022	0.088
-675.164	-23.611	-0.240	-0.145
-674.149	-1.077	-0.217	-0.154
-673.135	-200.000	-0.031	-0.337
-672.120	-200.000	0.026	0.188
-671.105	-200.000	0.046	0.205
-670.091	79.140	-0.063	-0.068
-669.076	482.343	-0.108	-0.246
-668.062	-200.000	-0.023	-0.230
-667.047	-104.019	0.070	0.016
-666.032	305.115	0.132	-0.247
-665.018	-170.918	-0.332	-0.011
-664.003	278.366	0.182	-0.325
-662.989	81.671	-0.216	-0.235
-661.974	97.980	-0.090	-0.104
-660.959	94.360	-0.179	-0.204
-659.945	-119.575	-0.363	0.063
-658.930	-9.732	-0.182	0.121
-657.916	132.473	-0.296	-0.384
-656.901	-86.183	0.345	-0.107
-655.886	800.000	-0.094	0.306
-654.872	-60.068	-0.301	-0.129
-653.857	-140.905	-0.251	0.026
-652.843	-63.044	0.299	0.124
-651.828	156.111	-0.042	-0.057
-650.814	-174.488	0.248	0.007
-649.799	800.000	-0.075	0.209
-648.784	-195.197	0.315	0.002
-647.770	-12.152	-0.206	-0.135
-646.755	-18.204	-0.141	-0.089
-645.741	119.976	-0.217	-0.271
-644.726	-200.000	-0.030	-0.175
-643.711	-200.000	-0.069	-0.512
-642.697	-128.651	0.144	0.020
-641.682	-200.000	0.040	-0.180
-640.668	-200.000	0.020	0.122
-639.653	-200.000	0.003	0.261
-638.638	-200.000	0.618	0.000
-637.624	-77.233	-0.256	0.089
-636.609	-101.605	-0.107	0.026
-635.595	800.000	-0.087	0.244
-634.580	108.678	-0.230	-0.275
-633.565	800.000	0.024	0.093
-632.551	-35.424	-0.059	0.032
-631.536	-200.000	0.049	-0.291
-630.522	800.000	0.013	0.057
-629.507	-16.318	-0.212	-0.135
-628.492	-73.007	0.196	-0.072
-627.478	-33.433	0.181	-0.100
-626.463	224.083	-0.218	-0.353
-625.449	-32.933	-0.142	-0.079
-624.434	-140.339	0.270	-0.028
-623.419	-72.796	0.009	0.003
-622.405	346.399	-0.065	0.127
-621.390	800.000	0.103	0.297
-620.376	-200.000	0.003	0.044
-619.361	199.790	-0.105	-0.161
-618.346	672.124	0.135	-0.352
-617.332	-99.226	-0.227	-0.057
-616.317	-200.000	0.005	-0.120
-615.303	-29.632	0.159	0.091
-614.288	-167.438	-0.181	-0.007
-613.273	-17.937	-0.387	0.243
-612.259	51.004	0.121	-0.115
-611.244	110.361	0.075	0.090
-610.230	-151.801	0.304	-0.022
-609.215	34.538	0.184	-0.161
-608.201	-62.055	0.145	0.061
-607.186	489.200	-0.051	-0.118
-606.171	-200.000	0.003	0.096
-605.157	37.631	-0.233	0.207
-604.142	800.000	-0.072	0.240
-603.128	-100.909	-0.124	-0.031
-602.113	325.677	-0.202	-0.387
-601.098	-46.683	0.337	-0.165
-600.084	688.887	0.049	-0.130
-599.069	-65.612	-0.322	-0.130
-598.055	-200.000	-0.073	-0.420
-597.040	-200.000	-0.015	0.108
-596.025	76.773	-0.253	0.269
-595.011	3.120	0.308	-0.224
-593.996	-15.347	0.085	-0.054
-592.982	376.013	0.070	-0.142
-591.967	-173.505	0.093	-0.003
-590.952	392.499	-0.035	0.073
-589.938	-137.953	0.151	-0.017
-588.923	-200.000	0.027	-0.365
-587.909	-48.844	0.243	-0.117
-586.894	124.252	0.251	0.316
-585.879	762.144	-0.060	0.163
-584.865	-93.949	-0.112	-0.031
-583.850	169.885	0.091	0.130
-582.836	-50.432	0.177	0.084
-581.821	24.872	-0.139	0.115
-580.806	-188.218	0.448	0.006
-579.792	800.000	0.042	-0.159
-578.777	-100.389	-0.291	-0.072
-577.763	664.216	0.155	-0.399
-576.748	172.737	0.087	-0.126
-575.733	-200.000	-0.012	-0.157
-574.719	-41.793	-0.204	-0.105
-573.704	503.338	0.064	-0.148
-572.690	156.552	-0.138	-0.191
-571.675	-65.298	-0.158	0.064
-570.661	-47.318	0.099	0.048
-569.646	-200.000	0.003	-0.099
-568.631	504.050	0.089	0.206
-567.617	348.196	0.086	0.170
-566.602	-116.176	-0.280	-0.052
-565.588	-12.893	-0.117	-0.076
-564.573	89.834	0.084	0.094
-563.558	284.101	0.115	0.207
-562.544	800.000	0.026	0.073
-561.529	-45.248	-0.179	-0.089
-560.515	-150.108	-0.051	-0.004
-559.500	-70.617	-0.046	0.017
-558.485	201.856	0.074	0.114
-557.471	-200.000	-0.001	-0.035
-556.456	-11.359	0.189	-0.125
-555.442	-29.998	0.045	0.025
-554.427	443.392	-0.035	0.077
-553.412	-178.415	0.109	0.003
-552.398	-200.000	-0.004	-0.099
-551.383	44.378	-0.115	-0.106
-550.369	162.896	0.049	0.069
-549.354	259.349	0.174	-0.300
-548.339	23.933	0.192	-0.158
-547.325	-142.794	-0.509	0.050
-546.310	-68.815	-0.168	0.065
-545.296	-200.000	0.006	0.180
-544.281	461.969	0.038	-0.085
-543.266	-200.000	-0.003	-0.062
-542.252	84.956	0.190	0.208
-541.237	351.923	0.059	-0.118
-540.223	-59.357	-0.249	0.107
-539.208	69.424	-0.228	-0.235
-538.193	399.299	-0.109	-0.228
-537.179	288.982	-0.101	-0.183
-536.164	163.358	0.163	-0.229
-535.150	554.051	0.121	0.292
-534.135	800.000	0.051	-0.211
-533.121	-200.000	-0.003	-0.073
-532.106	-27.409	0.343	-0.200
-531.091	800.000	0.011	-0.049
-530.077	-164.239	0.253	0.012
-529.062	2.138	-0.236	-0.171
-528.048	-62.270	-0.102	-0.043
-527.033	800.000	-0.053	-0.164
-526.018	321.063	0.055	-0.105
-525.004	16.648	0.041	-0.033
-523.989	-200.000	-0.047	0.208
-522.975	326.884	-0.113	-0.216
-521.960	800.000	0.115	0.376
-520.945	-136.482	0.127	0.015
-519.931	-120.546	-0.031	-0.005
-518.916	108.261	-0.092	-0.109
-517.902	-200.000	-0.005	-0.083
-516.887	-1.037	-0.168	0.119
-515.872	107.762	-0.067	0.080
-514.858	-106.171	0.324	-0.073
-513.843	-58.824	-0.075	-0.032
-512.829	-200.000	-0.033	0.214
-511.814	197.562	-0.074	-0.112
-510.799	-7.996	0.107	0.072
-509.785	-126.464	0.251	0.037
-508.770	-117.489	0.209	-0.038
-507.756	65.607	-0.116	0.117
-506.741	-200.000	-0.009	0.047
-505.726	-200.000	-0.025	0.335
-504.712	800.000	0.049	0.189
-503.697	800.000	-0.117	-0.352
-502.683	-198.587	-0.209	-0.001
-501.668	800.000	0.106	-0.411
-500.653	-200.000	-0.047	-0.316
-499.639	517.483	-0.196	-0.458
-498.624	408.342	0.088	-0.186
-497.610	29.756	-0.183	0.155
-496.595	-200.000	0.031	0.168
-495.581	-200.000	0.015	0.337
-494.566	129.988	-0.168	-0.214
-493.551	-67.114	0.169	-0.066
-492.537	-32.792	-0.190	-0.106
-491.522	-200.000	0.036	0.280
-490.508	166.213	-0.182	-0.257
-489.493	471.696	0.041	-0.093
-488.478	-37.074	-0.215	-0.115
-487.464	93.278	-0.114	-0.129
-486.449	-112.988	-0.227	0.045
-485.435	-200.000	0.070	-0.481
-484.420	234.601	0.035	-0.057
-483.405	-65.618	-0.174	-0.070
-482.391	-200.000	0.002	-0.013
-481.376	-82.048	-0.291	-0.095
-480.362	153.245	0.042	0.057
-479.347	-7.328	0.269	-0.181
-478.332	800.000	-0.086	-0.296
-477.318	-117.760	-0.115	-0.021
-476.303	-2.777	0.196	0.136
-475.289	-200.000	0.004	0.047
-474.274	56.350	-0.131	0.127
-473.259	18.390	0.147	0.117
-472.245	-42.928	-0.236	-0.120
-471.230	176.966	0.050	0.072
-470.216	-200.000	0.026	0.278
-469.201	-93.833	-0.497	-0.136
-468.186	-92.409	0.364	-0.102
-467.172	-67.837	-0.071	-0.028
-466.157	439.096	0.220	0.478
-465.143	-37.151	0.235	0.126
-464.128	265.232	-0.227	-0.394
-463.113	104.323	-0.106	0.124
-462.099	539.266	-0.037	-0.088
-461.084	31.560	-0.179	0.153
-460.070	-62.724	0.079	0.032
-459.055	-189.893	-0.192	-0.002
-458.040	-145.634	0.308	0.027
-457.026	-200.000	0.031	-0.144
-456.011	-93.598	0.309	0.085
-454.997	-152.621	0.076	-0.005
-453.982	800.000	-0.087	0.243
-452.968	-78.636	-0.179	-0.061
-451.953	4.659	-0.251	0.184
-450.938	800.000	0.048	0.185
-449.924	-143.755	0.165	0.016
-448.909	126.836	0.041	0.052
-447.895	73.153	0.088	0.092
-446.880	-58.001	0.373	0.162
-445.865	-107.071	0.103	-0.023
-444.851	27.824	-0.215	-0.180
-443.836	68.872	-0.148	0.151
-442.822	450.115	0.142	0.311
-441.807	-200.000	0.011	0.096
-440.792	800.000	-0.050	0.151
-439.778	-2.106	-0.110	-0.077
-438.763	76.451	-0.147	0.155
-437.749	320.808	-0.174	0.329
-436.734	-105.748	-0.249	-0.056
-435.719	-200.000	-0.056	0.331
-434.705	160.525	-0.204	0.283
-433.690	498.968	-0.136	0.313
-432.676	-165.012	-0.122	0.005
-431.661	-104.322	0.145	0.033
-430.646	-126.149	-0.085	0.013
-429.632	-8.981	0.162	0.108
-428.617	-44.278	-0.316	0.158
-427.603	-98.271	0.181	-0.046
-426.588	171.366	-0.225	0.321
-425.573	295.357	-0.034	-0.062
-424.559	50.023	-0.314	0.295
-423.544	81.050	0.049	0.053
-422.530	800.000	-0.059	-0.241
-421.515	-122.051	-0.301	0.049
-420.500	800.000	0.028	0.078
-419.486	-40.823	0.221	0.114
-418.471	59.744	0.135	0.133
-417.457	53.826	0.131	0.126
-416.442	214.167	0.261	-0.411
-415.428	90.952	0.030	-0.034
-414.413	-85.660	-0.330	0.102
-413.398	-0.962	0.251	0.177
-412.384	-144.839	0.123	-0.011
-411.369	52.305	0.154	0.146
-410.355	126.739	-0.270	-0.340
-409.340	-58.211	-0.102	0.044
-408.325	460.481	-0.064	0.141
-407.311	-200.000	0.009	-0.100
-406.296	-200.000	-0.003	-0.177
-405.282	-37.861	-0.123	0.065
-404.267	659.019	0.119	0.305
-403.252	800.000	-0.075	0.322
-402.238	692.866	0.163	-0.424
-401.223	385.002	0.129	-0.265
-400.209	131.422	0.181	0.231
-399.194	-47.463	0.193	-0.093
-398.179	-65.922	-0.055	-0.022
-397.165	-200.000	0.034	0.302
-396.150	-200.000	-0.079	0.398
-395.136	800.000	-0.016	0.065
-394.121	-200.000	0.009	0.112
-393.106	-60.267	-0.184	-0.078
-392.092	800.000	0.010	-0.033
-391.077	469.075	0.070	-0.156
-390.063	-108.346	-0.120	0.026
-389.048	348.592	0.103	0.202
-388.033	-200.000	-0.399	0.001
-387.019	-34.808	-0.163	-0.089
-386.004	14.253	0.268	0.208
-384.990	-200.000	-0.043	-0.379
-383.975	-129.609	0.395	0.054
-382.960	232.413	-0.049	0.081
-381.946	161.049	0.059	-0.082
-380.931	215.481	-0.048	0.076
-379.917	800.000	-0.102	-0.314
-378.902	728.803	-0.018	0.047
-377.888	-200.000	0.013	-0.274
-376.873	63.224	-0.112	0.111
-375.858	-90.977	0.254	0.073
-374.844	800.000	0.056	0.188
-373.829	81.512	0.294	0.315
-372.815	-200.000	0.059	-0.323
-371.800	67.133	-0.250	0.253
-370.785	-186.340	-0.258	-0.004
-369.771	519.852	-0.086	0.200
-368.756	-53.062	-0.189	0.086
-367.742	88.098	-0.203	0.223
-366.727	-47.414	-0.137	-0.066
-365.712	122.249	0.092	0.114
-364.698	40.414	-0.073	0.065
-363.683	800.000	-0.035	-0.105
-362.669	137.925	-0.056	0.073
-361.654	-108.457	-0.382	-0.082
-360.639	-200.000	0.002	0.082
-359.625	800.000	-0.034	-0.131
-358.610	-124.072	-0.337	0.053
-357.596	-145.113	-0.096	0.009
-356.581	-200.000	0.031	0.320
-355.566	107.209	-0.017	-0.020
-354.552	-51.752	-0.087	0.040
-353.537	109.331	-0.168	-0.199
-352.523	-127.756	-0.284	-0.041
-351.508	-149.911	0.206	-0.016
-350.493	-101.126	0.019	-0.005
-349.479	475.950	-0.133	-0.298
-348.464	-99.846	-0.045	0.011
-347.450	56.038	0.070	0.068
-346.435	72.841	-0.126	-0.130
-345.420	-131.743	0.086	0.011
-344.406	-200.000	0.004	-0.137
-343.391	-24.825	0.162	0.095
-342.377	-200.000	-0.050	0.370
-341.362	-91.763	-0.450	0.127
-340.348	-30.653	0.101	0.057
-339.333	262.002	0.139	0.239
-338.318	11.210	0.075	0.057
-337.304	290.265	0.084	0.151
-336.289	-49.602	0.174	-0.082
-335.275	321.998	0.088	0.166
-334.260	-92.708	0.330	0.092
-333.245	-3.520	0.111	-0.076
-332.231	-200.000	0.098	0.000
-331.216	12.603	0.190	0.146
-330.202	294.405	-0.107	0.194
-329.187	123.625	-0.052	0.065
-328.172	167.015	-0.248	-0.349
-327.158	-4.420	-0.026	-0.018
-326.143	36.236	-0.195	0.170
-325.129	-200.000	0.014	0.070
-324.114	-134.117	0.397	-0.049
-323.099	20.651	-0.077	0.062
-322.085	-62.507	-0.082	-0.034
-321.070	-96.534	-0.081	-0.021
-320.056	-67.321	-0.123	0.048
-319.041	-124.596	0.153	0.023
-318.026	42.227	0.207	0.186
-317.012	-200.000	-0.003	-0.125
-315.997	-200.000	-0.007	-0.194
-314.983	184.915	0.098	0.144
-313.968	20.799	0.128	-0.103
-312.953	175.465	-0.131	-0.188
-311.939	-200.000	-0.010	0.049
-310.924	280.357	-0.112	0.199
-309.910	660.945	0.053	0.135
-308.895	-58.590	0.214	-0.092
-307.880	-109.593	0.175	-0.036
-306.866	-38.466	-0.181	-0.095
-305.851	-21.916	-0.208	0.125
-304.837	800.000	-0.113	-0.348
-303.822	120.484	-0.135	0.166
-302.807	-16.485	0.267	-0.168
-301.793	-200.000	0.005	0.119
-300.778	-106.520	0.309	0.068
-299.764	-200.000	0.000	-0.116
-298.749	-29.534	-0.243	-0.138
-297.735	800.000	0.130	0.373
-296.720	-147.740	0.146	-0.012
-295.705	-119.854	0.153	-0.026
-294.691	-76.964	0.090	-0.031
-293.676	-112.768	-0.236	0.046
-292.662	184.329	0.070	-0.103
-291.647	9.493	-0.093	0.070
-290.632	41.346	0.198	-0.177
-289.618	800.000	0.098	0.390
-288.603	-20.082	-0.058	0.036
-287.589	-46.415	0.077	-0.038
-286.574	-84.480	0.223	0.070
-285.559	414.121	-0.088	-0.184
-284.545	-35.545	-0.251	0.135
-283.530	-44.426	-0.074	-0.037
-282.516	178.341	-0.127	0.183
-281.501	-147.641	0.282	0.023
-280.486	74.352	-0.193	0.201
-279.472	800.000	0.049	0.167
-278.457	40.838	-0.187	-0.167
-277.443	-200.000	-0.049	-0.553
-276.428	104.936	-0.087	0.101
-275.413	110.098	0.197	-0.233
-274.399	115.596	0.128	-0.155
-273.384	800.000	0.024	-0.071
-272.370	758.372	-0.040	0.107
-271.355	-200.000	0.036	-0.296
-270.340	796.349	-0.049	-0.133
-269.326	-200.000	-0.011	0.168
-268.311	800.000	-0.048	0.187
-267.297	-191.730	0.198	0.002
-266.282	-125.841	-0.134	0.020
-265.267	82.491	-0.045	-0.048
-264.253	-136.863	0.320	-0.036
-263.238	-16.913	-0.284	0.177
-262.224	376.729	0.057	0.116
-261.209	163.702	-0.148	-0.206
-260.195	-9.861	-0.362	-0.238
-259.180	59.531	-0.168	-0.164
-258.165	-62.801	0.231	0.095
-257.151	45.970	0.262	0.239
-256.136	2.504	0.174	0.125
-255.122	-82.406	0.213	0.068
-254.107	-38.911	0.200	0.104
-253.092	-113.451	-0.062	0.012
-252.078	8.121	-0.227	-0.169
-251.063	-200.000	0.005	-0.066
-250.049	-108.391	0.096	0.020
-249.034	353.044	-0.213	0.418
-248.019	-118.463	0.324	0.057
-247.005	-200.000	-0.004	0.092
-245.990	800.000	0.047	0.175
-244.976	-125.622	-0.194	-0.029
-243.961	-200.000	-0.024	-0.181
-242.946	-14.184	-0.228	-0.145
-241.932	494.387	-0.046	-0.104
-240.917	800.000	0.140	-0.557
-239.903	92.327	0.212	-0.236
-238.888	-111.205	-0.508	-0.103
-237.873	-132.787	-0.009	-0.001
-236.859	-76.124	-0.071	-0.025
-235.844	-149.210	0.168	-0.013
-234.830	84.733	0.295	-0.319
-233.815	22.004	-0.290	-0.234
-232.800	-179.593	-0.221	0.005
-231.786	352.326	0.148	0.290
-230.771	102.438	-0.064	0.074
-229.757	616.867	-0.016	0.039
-228.742	-200.000	-0.006	0.070
-227.727	800.000	0.075	0.258
-226.713	-25.172	0.193	-0.113
-225.698	-200.000	-0.004	-0.243
-224.684	-53.305	-0.084	-0.038
-223.669	800.000	-0.021	0.087
-222.655	-126.048	-0.129	0.019
-221.640	-122.615	0.195	-0.031
-220.625	40.124	-0.168	0.149
-219.611	-51.262	0.163	0.075
-218.596	-121.109	-0.140	0.023
-217.582	-153.387	0.159	0.011
-216.567	-98.289	0.487	-0.123
-215.552	-70.052	0.089	0.033
-214.538	-200.000	0.032	0.313
-213.523	-140.483	0.219	-0.022
-212.509	-172.176	-0.182	-0.006
-211.494	-164.919	0.247	-0.011
-210.479	13.665	-0.180	0.138
-209.465	270.854	-0.172	0.298
-208.450	-200.000	-0.027	0.141
-207.436	-200.000	0.009	-0.103
-206.421	-142.811	-0.150	-0.014
-205.406	87.879	0.131	-0.143
-204.392	54.474	0.199	-0.189
-203.377	-200.000	0.059	-0.293
-202.363	-79.003	0.269	0.090
-201.348	-39.174	-0.150	-0.078
-200.333	-200.000	-0.033	-0.158
-199.319	110.514	0.246	0.291
-198.304	95.756	0.202	-0.228
-197.290	248.979	0.152	0.253
-196.275	69.561	0.034	0.035
-195.260	36.539	0.128	0.111
-194.246	-149.989	0.124	0.010
-193.231	-163.778	0.258	0.012
-192.217	94.931	0.068	0.076
-191.202	238.641	0.104	-0.171
-190.187	2.444	0.175	0.125
-189.173	152.911	-0.095	-0.128
-188.158	-60.214	0.316	0.133
-187.144	-74.895	0.315	-0.111
-186.129	-81.167	0.210	0.069
-185.114	-123.939	-0.079	0.012
-184.100	-6.940	-0.127	-0.085
-183.085	-200.000	0.055	0.251
-182.071	-34.929	-0.138	-0.074
-181.056	185.570	0.056	-0.082
-180.042	16.457	-0.268	-0.209
-179.027	-200.000	-0.073	-0.382
-178.012	179.002	-0.094	-0.135
-176.998	800.000	-0.066	-0.204
-175.983	800.000	0.042	-0.166
-174.969	106.938	0.200	0.234
-173.954	-49.330	-0.178	0.084
-172.939	-127.567	-0.173	-0.025
-171.925	377.259	0.071	0.142
-170.910	-123.839	0.197	-0.031
-169.896	-136.513	-0.176	-0.020
-168.881	-105.922	-0.082	0.018
-167.866	239.660	0.184	0.302
-166.852	800.000	-0.069	-0.215
-165.837	81.128	0.113	0.121
-164.823	800.000	0.031	0.117
-163.808	-172.467	0.337	0.011
-162.793	455.539	0.059	0.129
-161.779	-200.000	-0.021	0.105
-160.764	255.465	-0.189	0.319
-159.750	800.000	0.067	0.185
-158.735	204.996	-0.180	0.276
-157.720	-81.439	0.166	-0.054
-156.706	-200.000	0.010	-0.097
-155.691	157.721	-0.110	-0.150
-154.677	626.112	0.006	-0.015
-153.662	-28.493	-0.240	0.136
-152.647	711.820	-0.095	-0.248
-151.633	-200.000	0.013	0.063
-150.618	103.178	0.210	0.243
-149.604	-200.000	-0.009	0.077
-148.589	-40.390	0.172	0.088
-147.574	-92.338	-0.302	-0.084
-146.560	92.403	-0.016	0.017
-145.545	-35.113	-0.322	0.173
-144.531	-85.692	-0.013	-0.004
-143.516	-200.000	-0.004	-0.093
-142.502	-83.286	-0.100	-0.032
-141.487	-12.850	-0.110	-0.070
-140.472	-200.000	-0.020	0.122
-139.458	-200.000	-0.015	-0.124
-138.443	39.599	0.148	-0.130
-137.429	-109.790	0.195	-0.040
-136.414	213.510	0.132	-0.205
-135.399	-90.098	-0.082	0.023
-134.385	-44.871	0.324	0.159
-133.370	-19.869	-0.058	-0.035
-132.356	50.920	0.316	0.295
-131.341	49.314	0.203	0.187
-130.326	-0.409	-0.096	0.067
-129.312	-94.849	-0.202	-0.054
-128.297	800.000	-0.042	0.150
-127.283	423.867	-0.098	-0.207
-126.268	-151.159	0.445	0.033
-125.253	-97.607	0.132	-0.034
-124.239	464.906	-0.047	-0.104
-123.224	-92.651	-0.067	-0.018
-122.210	45.268	0.149	0.135
-121.195	-200.000	-0.004	0.148
-120.180	800.000	-0.113	-0.407
-119.166	-200.000	-0.011	-0.130
-118.151	-134.905	0.149	-0.018
-117.137	-109.103	-0.133	-0.028
-116.122	-105.626	0.214	0.048
-115.107	-64.277	0.198	0.079
-114.093	3.079	0.232	0.165
-113.078	161.426	-0.136	-0.187
-112.064	-82.081	-0.149	0.048
-111.049	-127.190	-0.138	-0.020
-110.034	-54.077	-0.163	0.073
-109.020	-158.869	-0.251	-0.014
-108.005	-200.000	-0.016	-0.114
-106.991	-7.230	0.397	-0.265
-105.976	-105.689	0.159	0.035
-104.962	800.000	0.045	0.137
-103.947	97.362	0.051	-0.058
-102.932	-92.268	-0.104	-0.029
-101.918	-200.000	0.062	0.363
-100.903	-82.882	-0.180	-0.057
-99.889	-200.000	0.033	-0.202
-98.874	-123.525	0.142	0.022
-97.859	-20.186	-0.297	0.180
-96.845	-196.842	-0.162	0.001
-95.830	-200.000	-0.001	-0.242
-94.816	-200.000	0.000	0.066
-93.801	30.572	0.230	0.193
-92.786	800.000	0.064	0.204
-91.772	359.871	0.168	0.331
-90.757	54.076	0.060	0.057
-89.743	-18.872	0.257	0.157
-88.728	-113.297	0.473	0.091
-87.713	391.473	-0.112	-0.228
-86.699	-87.396	-0.357	0.106
-85.684	-200.000	-0.040	-0.264
-84.670	-145.201	0.270	-0.024
-83.655	-200.000	0.018	0.174
-82.640	192.658	-0.088	-0.131
-81.626	-25.026	-0.228	0.133
-80.611	304.728	-0.066	0.120
-79.597	-127.152	-0.220	-0.032
-78.582	-31.027	0.124	0.069
-77.567	-200.000	0.009	0.167
-76.553	7.810	0.216	0.159
-75.538	-43.616	-0.181	0.089
-74.524	40.451	-0.246	0.217
-73.509	365.991	0.093	-0.185
-72.494	800.000	0.025	0.107
-71.480	-200.000	-0.032	0.200
-70.465	-200.000	-0.028	-0.200
-69.451	324.524	0.291	0.546
-68.436	-12.685	0.251	0.161
-67.422	-86.562	-0.096	-0.029
-66.407	81.050	0.129	-0.137
-65.392	-11.467	0.059	-0.038
-64.378	-200.000	0.010	-0.116
-63.363	-122.331	-0.171	0.027
-62.349	-62.800	0.173	0.070
-61.334	-1.174	-1.241	-0.860
-60.319	21.498	0.752	0.600
-59.305	800.000	-0.253	-1.021
-58.290	37.057	0.929	0.806
-57.276	205.012	0.853	1.298
-56.261	-200.000	108.860	592.890
-55.246	445.566	1485.095	3199.620
-54.232	146.046	2674.675	3518.473
-53.217	99.596	2288.256	2597.204
-52.203	38.479	1898.657	1659.747
-51.188	32.661	1687.593	1431.161
-50.173	30.061	1644.216	1375.054
-49.159	49.327	1698.597	1566.379
-48.144	49.433	1713.593	1580.943
-47.130	32.260	1671.137	1413.970
-46.115	29.514	1656.489	1381.013
-45.100	29.452	1651.268	1376.138
-44.086	29.383	1648.823	1373.536
-43.071	29.337	1646.153	1370.912
-42.057	29.395	1643.434	1369.029
-41.042	29.319	1641.622	1366.897
-40.027	29.336	1640.096	1365.702
-39.013	29.292	1638.223	1363.764
-37.998	29.313	1636.347	1362.298
-36.984	29.381	1634.894	1361.541
-35.969	29.379	1633.580	1360.376
-34.954	29.491	1631.922	1359.769
-33.940	29.472	1630.667	1358.525
-32.925	29.476	1628.652	1356.824
-31.911	29.456	1627.221	1355.429
-30.896	29.494	1625.555	1354.266
-29.881	29.473	1623.650	1352.475
-28.867	29.415	1621.988	1350.609
-27.852	29.420	1620.966	1349.739
-26.838	29.530	1618.841	1348.722
-25.823	29.422	1617.790	1347.005
-24.809	29.519	1616.669	1346.723
-23.794	29.470	1615.112	1345.017
-22.779	29.507	1613.236	1343.675
-21.765	29.467	1611.802	1342.134
-20.750	29.525	1610.081	1341.067
-19.736	29.398	1609.060	1339.241
-18.721	29.495	1607.621	1338.697
-17.706	29.493	1606.149	1337.401
-16.692	29.522	1604.716	1336.367
-15.677	29.480	1603.200	1334.749
-14.663	29.491	1601.847	1333.642
-13.648	29.416	1600.528	1331.953
-12.633	29.479	1598.582	1330.739
-11.619	29.471	1597.466	1329.694
-10.604	29.541	1595.554	1328.558
-9.590	29.568	1594.764	1328.037
-8.575	29.558	1593.122	1326.550
-7.560	29.515	1592.221	1325.438
-6.546	29.355	1591.678	1323.779
-5.531	29.357	1590.742	1322.967
-4.517	29.525	1588.499	1322.254
-3.502	29.475	1587.473	1320.990
-2.487	29.535	1586.056	1320.183
-1.473	29.194	1574.379	1307.991
-0.458	26.604	1555.246	1273.854
0.556	21.390	1556.675	1243.727
1.571	19.270	1580.235	1247.111
2.586	18.896	1593.609	1254.828
3.600	17.289	1540.322	1201.413
4.615	9.548	1430.714	1064.822
5.629	1.714	1365.797	966.819
6.644	0.259	1357.284	951.524
7.659	0.145	1355.927	949.765
8.673	-0.032	1355.623	948.355
9.688	0.028	1353.494	947.161
10.702	-0.138	1350.424	943.886
11.717	3.550	1356.010	970.941
12.731	12.079	1369.813	1034.766
13.746	17.238	1376.550	1072.400
14.761	17.215	1375.121	1071.050
15.775	16.164	1372.380	1062.207
16.790	15.082	1369.599	1053.156
17.804	14.467	1366.991	1047.196
18.819	14.106	1365.963	1044.052
19.834	13.807	1364.435	1040.914
20.848	13.510	1363.302	1038.097
21.863	13.242	1361.940	1035.289
22.877	13.152	1360.655	1033.655
23.892	13.040	1360.320	1032.611
24.907	13.009	1359.296	1031.549
25.921	12.990	1358.586	1030.797
26.936	13.082	1357.647	1030.569
27.950	13.157	1356.670	1030.207
28.965	13.261	1355.528	1029.895
29.980	13.300	1354.990	1029.636
30.994	13.425	1353.380	1029.102
32.009	13.424	1352.590	1028.405
33.023	13.306	1351.852	1027.016
34.038	13.316	1350.542	1025.996
35.053	13.234	1349.370	1024.501
36.067	13.122	1348.732	1023.236
37.082	13.327	1347.222	1023.269
38.096	13.255	1346.884	1022.473
39.111	13.216	1346.220	1021.641
40.126	13.198	1344.956	1020.477
41.140	13.063	1344.674	1019.341
42.155	13.128	1343.884	1019.051
43.169	13.104	1342.961	1018.115
44.184	13.061	1343.149	1017.904
45.199	13.068	1342.788	1017.582
46.213	13.163	1342.413	1017.791
47.228	13.092	1341.484	1016.559
48.242	13.233	1340.154	1016.330
49.257	13.254	1338.792	1015.336
50.271	13.174	1337.531	1013.800
51.286	13.255	1335.879	1012.957
52.301	13.232	1334.622	1011.772
53.315	13.194	1333.795	1010.820
54.330	13.163	1332.714	1009.725
55.344	13.068	1331.717	1008.296
56.359	13.077	1330.577	1007.400
57.374	13.055	1329.877	1006.648
58.388	13.005	1329.365	1005.868
59.403	12.998	1328.867	1005.356
60.417	13.056	1327.462	1004.558
61.432	12.917	1326.962	1003.248
62.447	12.930	1325.911	1002.442
63.461	12.945	1324.626	1001.471
64.476	12.890	1323.631	1000.301
65.490	13.015	1322.090	999.800
66.505	13.012	1320.688	998.635
67.520	12.973	1319.515	997.422
68.534	13.035	1318.496	996.943
69.549	13.107	1317.359	996.427
70.563	12.938	1316.373	994.576
71.578	13.087	1315.108	994.431
72.593	13.032	1314.416	993.486
73.607	13.001	1313.630	992.614
74.622	12.851	1313.063	991.200
75.636	12.895	1312.250	990.764
76.651	13.062	1311.372	991.014
77.666	12.927	1310.867	989.732
78.680	13.000	1310.316	989.667
79.695	12.897	1309.983	988.710
80.709	13.007	1308.417	988.101
81.724	13.205	1307.445	988.463
82.739	13.055	1307.133	987.245
83.753	13.110	1306.130	986.727
84.768	13.182	1305.152	986.331
85.782	13.182	1303.676	985.132
86.797	13.212	1302.629	984.427
87.812	13.132	1301.597	983.087
88.826	13.119	1300.302	981.943
89.841	13.170	1299.040	981.209
90.855	13.219	1298.289	980.845
91.870	13.299	1296.956	980.223
92.884	13.216	1296.808	979.532
93.899	13.258	1295.862	978.982
94.914	13.360	1294.379	978.375
95.928	13.310	1294.095	977.781
96.943	13.272	1293.169	976.771
97.957	13.333	1291.954	976.124
98.972	13.333	1291.413	975.631
99.987	13.346	1289.802	974.406
101.001	13.362	1288.774	973.637
102.016	13.255	1288.248	972.520
103.030	13.280	1287.669	972.149
104.045	13.187	1286.832	970.882
105.060	13.260	1284.930	969.790
106.074	13.119	1283.933	968.124
107.089	13.081	1282.492	966.729
108.103	13.056	1281.367	965.648
109.118	13.135	1279.873	964.901
110.133	13.119	1278.574	963.743
111.147	12.974	1277.580	962.063
112.162	13.051	1276.354	961.500
113.176	13.100	1274.733	960.480
114.191	13.173	1273.928	960.215
115.206	13.188	1272.549	959.178
116.220	13.162	1271.160	957.892
117.235	13.199	1270.419	957.466
118.249	13.165	1269.622	956.585
119.264	13.120	1268.601	955.471
120.279	13.077	1267.583	954.369
121.293	13.099	1266.260	953.418
122.308	13.024	1265.255	952.142
123.322	13.099	1264.151	951.659
124.337	13.099	1263.065	950.757
125.352	13.131	1261.708	949.836
126.366	13.098	1260.846	948.912
127.381	13.138	1259.544	948.078
128.395	13.125	1259.045	947.542
129.410	13.169	1257.826	946.796
130.424	13.109	1257.159	945.867
131.439	13.115	1256.253	945.137
132.454	13.074	1255.737	944.428
133.468	13.209	1254.156	943.927
134.483	13.131	1253.270	942.732
135.497	13.151	1252.372	942.090
136.512	13.221	1250.676	941.125
137.527	13.176	1249.649	940.015
138.541	13.129	1248.321	938.664
139.556	13.250	1247.066	938.325
140.570	13.217	1245.974	937.234
141.585	13.262	1244.763	936.493
142.600	13.281	1243.541	935.598
143.614	13.382	1242.819	935.546
144.629	13.350	1241.594	934.359
145.643	13.313	1241.107	933.704
146.658	13.293	1239.666	932.420
147.673	13.298	1237.549	930.776
148.687	13.270	1236.781	929.958
149.702	13.199	1235.451	928.474
150.716	13.172	1234.133	927.253
151.731	13.279	1232.919	926.859
152.746	13.284	1231.738	925.915
153.760	13.336	1230.940	925.524
154.775	13.266	1230.036	924.375
155.789	13.257	1228.884	923.374
156.804	13.394	1228.053	923.432
157.819	13.348	1227.121	922.395
158.833	13.541	1225.726	922.341
159.848	13.583	1224.969	921.920
160.862	13.530	1223.756	920.630
161.877	13.491	1222.585	919.451
162.892	13.305	1221.752	917.716
163.906	13.402	1220.862	917.499
164.921	13.348	1219.984	916.460
165.935	13.385	1219.300	916.073
166.950	13.413	1218.549	915.583
167.964	13.512	1217.603	915.335
168.979	13.470	1216.942	914.525
169.994	13.492	1216.074	913.912
171.008	13.480	1215.770	913.539
172.023	13.466	1214.798	912.651
173.037	13.565	1214.080	912.576
174.052	13.715	1212.787	912.347
175.067	13.523	1211.710	910.401
176.081	13.503	1211.189	909.822
177.096	13.480	1210.270	908.923
178.110	13.522	1208.962	908.090
179.125	13.699	1207.304	907.732
180.140	13.545	1206.915	906.518
181.154	13.627	1205.658	905.942
182.169	13.686	1204.116	905.023
183.183	13.599	1203.089	903.700
184.198	13.777	1201.408	903.328
185.213	13.717	1200.572	902.291
186.227	13.766	1199.453	901.635
187.242	13.711	1198.615	900.627
188.256	13.827	1197.764	900.540
189.271	13.755	1196.971	899.473
190.286	13.756	1195.440	898.248
191.300	13.556	1194.981	896.743
192.315	13.526	1194.128	895.860
193.329	13.584	1193.396	895.546
194.344	13.539	1193.033	894.952
195.359	13.714	1192.125	895.136
196.373	13.732	1191.732	894.855
197.388	13.806	1191.521	895.019
198.402	13.870	1190.763	894.713
199.417	13.988	1189.602	894.400
200.432	14.046	1188.758	893.996
201.446	13.991	1188.080	893.112
202.461	14.065	1186.919	892.558
203.475	13.920	1186.458	891.356
204.490	13.996	1184.844	890.470
205.504	13.965	1183.786	889.430
206.519	13.812	1183.193	888.087
207.534	13.867	1181.524	887.049
208.548	13.883	1180.819	886.525
209.563	13.990	1179.363	885.924
210.577	13.942	1178.615	885.029
211.592	13.962	1178.193	884.740
212.607	14.041	1177.373	884.468
213.621	14.040	1176.222	883.521
214.636	14.192	1174.999	883.330
215.650	14.115	1174.407	882.400
216.665	14.090	1173.452	881.471
217.680	14.167	1172.317	880.946
218.694	14.163	1171.958	880.578
219.709	14.132	1171.021	879.631
220.723	14.250	1170.256	879.601
221.738	14.210	1169.527	878.769
222.753	14.104	1168.790	877.575
223.767	14.339	1167.874	878.048
224.782	14.304	1167.928	877.829
225.796	14.294	1167.189	877.142
226.811	14.229	1166.379	876.111
227.826	14.302	1165.510	875.765
228.840	14.341	1164.938	875.466
229.855	14.208	1164.448	874.320
230.869	14.213	1163.268	873.381
231.884	14.243	1162.662	873.008
232.899	14.210	1162.069	872.311
233.913	14.180	1161.435	871.603
234.928	14.126	1160.415	870.476
235.942	14.167	1159.721	870.092
236.957	14.218	1159.099	869.817
237.972	14.220	1157.834	868.803
238.986	14.303	1157.337	868.786
240.001	14.344	1156.721	868.461
241.015	14.434	1155.538	867.965
242.030	14.425	1154.803	867.288
243.045	14.445	1154.196	866.857
244.059	14.296	1153.303	865.336
245.074	14.506	1152.618	865.837
246.088	14.430	1151.573	864.581
247.103	14.468	1151.138	864.374
248.117	14.470	1150.651	863.944
249.132	14.562	1149.823	863.720
250.147	14.684	1148.877	863.564
251.161	14.665	1148.571	863.161
252.176	14.687	1148.173	862.898
253.190	14.762	1147.001	862.330
254.205	14.830	1146.337	862.103
255.220	14.793	1145.517	861.222
256.234	14.932	1145.016	861.485
257.249	14.805	1144.406	860.296
258.263	14.839	1143.832	859.963
259.278	14.862	1142.997	859.376
260.293	14.784	1142.802	858.754
261.307	14.847	1142.183	858.536
262.322	14.865	1141.245	857.846
263.336	14.904	1140.357	857.302
264.351	14.927	1139.749	856.886
265.366	15.003	1139.161	856.762
266.380	15.010	1138.544	856.257
267.395	15.097	1137.528	855.859
268.409	14.963	1136.827	854.573
269.424	14.971	1136.524	854.312
270.439	15.065	1135.894	854.238
271.453	15.053	1135.094	853.499
272.468	14.922	1134.384	852.226
273.482	15.030	1133.466	852.007
274.497	14.923	1133.386	851.332
275.512	15.058	1132.136	851.002
276.526	14.978	1131.502	850.042
277.541	14.994	1130.912	849.604
278.555	14.968	1130.616	849.175
279.570	15.052	1129.594	848.759
280.585	15.070	1129.001	848.332
281.599	15.160	1127.711	847.739
282.614	15.105	1127.056	846.895
283.628	15.250	1125.479	846.367
284.643	15.148	1124.940	845.371
285.657	15.177	1123.972	844.719
286.672	15.107	1123.246	843.745
287.687	15.180	1122.188	843.243
288.701	15.183	1121.700	842.815
289.716	15.226	1120.671	842.184
290.730	15.228	1120.011	841.624
291.745	15.254	1119.358	841.188
292.760	15.337	1118.957	841.230
293.774	15.319	1118.349	840.609
294.789	15.364	1117.729	840.290
295.803	15.367	1117.057	839.727
296.818	15.321	1116.629	839.104
297.833	15.389	1115.569	838.571
298.847	15.344	1115.097	837.917
299.862	15.474	1113.543	837.325
300.876	15.339	1113.551	836.583
301.891	15.509	1112.564	836.616
302.906	15.499	1112.020	836.081
303.920	15.472	1111.243	835.288
304.935	15.577	1110.646	835.289
305.949	15.620	1109.899	834.867
306.964	15.525	1109.306	833.874
307.979	15.543	1108.946	833.621
308.993	15.588	1107.927	833.005
310.008	15.642	1106.942	832.458
311.022	15.568	1106.457	831.650
312.037	15.658	1105.665	831.426
313.052	15.593	1104.603	830.233
314.066	15.622	1103.398	829.397
315.081	15.635	1102.521	828.731
316.095	15.438	1102.174	827.424
317.110	15.511	1101.138	826.933
318.125	15.658	1100.575	827.161
319.139	15.625	1099.712	826.274
320.154	15.589	1099.479	825.853
321.168	15.648	1098.810	825.563
322.183	15.614	1098.092	824.785
323.197	15.683	1097.278	824.438
324.212	15.661	1096.942	824.009
325.227	15.651	1096.657	823.670
326.241	15.658	1095.818	823.003
327.256	15.715	1094.662	822.342
328.270	15.591	1093.932	821.114
329.285	15.637	1092.863	820.462
330.300	15.699	1092.042	820.075
331.314	15.734	1091.079	819.452
332.329	15.766	1090.120	818.812
333.343	15.870	1089.153	818.521
334.358	15.735	1088.540	817.331
335.373	15.800	1087.886	817.084
336.387	15.802	1087.233	816.533
337.402	15.829	1086.494	816.036
338.416	15.870	1085.714	815.577
339.431	15.956	1085.250	815.572
340.446	15.989	1084.114	814.807
341.460	16.003	1083.865	814.612
342.475	16.088	1083.017	814.315
343.489	15.980	1081.976	812.938
344.504	16.059	1081.019	812.530
345.519	16.036	1080.604	812.034
346.533	16.172	1079.573	811.841
347.548	16.255	1078.511	811.372
348.562	16.176	1078.132	810.633
349.577	15.967	1077.856	809.350
350.592	16.058	1076.727	808.868
351.606	16.049	1076.030	808.231
352.621	16.122	1075.352	807.998
353.635	16.168	1074.367	807.409
354.650	16.183	1073.683	806.894
355.665	16.125	1073.203	806.182
356.679	16.048	1072.698	805.363
357.694	16.191	1072.211	805.612
358.708	16.263	1071.141	805.080
359.723	16.167	1070.947	804.403
360.738	16.321	1070.017	804.367
361.752	16.258	1069.798	803.832
362.767	16.308	1068.846	803.283
363.781	16.259	1068.398	802.643
364.796	16.334	1068.106	802.707
365.810	16.447	1067.256	802.537
366.825	16.398	1066.763	801.861
367.840	16.293	1066.670	801.223
368.854	16.401	1065.609	800.866
369.869	16.530	1064.821	800.812
370.883	16.458	1063.762	799.605
371.898	16.420	1063.189	798.923
372.913	16.549	1062.611	799.028
373.927	16.389	1062.323	797.987
374.942	16.511	1061.762	798.072
375.956	16.515	1060.987	797.436
376.971	16.484	1060.413	796.788
377.986	16.609	1060.257	797.188
379.000	16.616	1059.366	796.480
380.015	16.649	1059.025	796.311
381.029	16.752	1057.927	795.897
382.044	16.572	1057.740	794.843
383.059	16.792	1056.619	794.963
384.073	16.777	1056.001	794.358
385.088	16.856	1054.851	793.790
386.102	16.801	1053.973	792.804
387.117	16.755	1053.223	791.953
388.132	16.667	1052.571	790.981
389.146	16.681	1051.599	790.247
390.161	16.615	1051.298	789.640
391.175	16.734	1050.214	789.311
392.190	16.825	1049.281	788.968
393.205	16.801	1048.886	788.487
394.219	16.881	1047.998	788.122
395.234	16.893	1047.141	787.465
396.248	16.825	1045.953	786.186
397.263	16.977	1044.958	786.073
398.278	16.786	1044.528	784.792
399.292	16.654	1044.182	783.851
400.307	16.749	1043.222	783.501
401.321	16.796	1042.437	783.062
402.336	16.874	1041.920	782.964
403.350	16.875	1041.380	782.491
404.365	16.788	1040.878	781.644
405.380	16.849	1039.884	781.111
406.394	16.936	1039.121	780.869
407.409	17.027	1038.403	780.677
408.423	17.060	1037.782	780.295
409.438	17.102	1037.032	779.853
410.453	17.005	1036.428	778.888
411.467	17.038	1035.791	778.491
412.482	17.107	1035.323	778.386
413.496	17.197	1034.284	777.947
414.511	17.070	1033.951	777.049
415.526	17.283	1033.280	777.449
416.540	17.234	1033.111	777.030
417.555	17.173	1032.808	776.452
418.569	17.236	1032.278	776.274
419.584	17.221	1031.641	775.659
420.599	17.223	1030.963	775.086
421.613	103.603	1322.101	1470.598
422.628	94.829	1364.492	1470.699
