DTS Sentinel unit serial number:	SN413079Multiplexer serial number:	ORYXHardware model number:	OX4-SRSoftware version number:	ORYX F/W v4.00 Oryx Data Collector v3.7.2.0data status	okinstallation	princeton_trtdifferential loss correction	single-endedforward channel	channel 2reverse channel	N/Adate	2019/09/13time	19:03:35forward acquisition time	60.00reverse acquisition time	0.00gamma	496.2192k internal	0.2328k external	0.2328temperature offset calibration	1.0171default loss term (dB/km)	0.3790temperature slope calibration	1.0000multiplexer offset coefficient	1.0000multiplexer slope coefficient	1.0000fibre end	0.00T internal ref (°C)	31.80T ext. ref 1 (°C)	3.92T ext. ref 2 (°C)	25.08length (m)	temperature (°C)	Stokes	anti-Stokes-747.200	660.687	-0.136	0.353
-746.185	753.527	0.083	-0.226
-745.171	164.618	-0.087	0.124
-744.156	800.000	-0.188	0.542
-743.142	34.132	-0.054	-0.047
-742.127	800.000	-0.051	0.158
-741.112	-174.687	-0.478	0.014
-740.098	723.209	0.107	0.287
-739.083	-200.000	0.027	-0.232
-738.069	800.000	0.042	-0.121
-737.054	-93.872	-0.156	0.043
-736.039	88.231	-0.110	0.123
-735.025	800.000	0.048	0.183
-734.010	246.301	0.075	-0.127
-732.996	-110.264	-0.356	0.075
-731.981	-92.265	0.084	-0.024
-730.966	117.331	0.167	0.206
-729.952	-30.785	-0.395	0.225
-728.937	-191.951	0.214	0.002
-727.923	12.736	0.073	0.057
-726.908	34.274	-0.231	0.203
-725.894	-184.700	-0.197	-0.003
-724.879	122.410	-0.250	-0.315
-723.864	-152.400	-0.142	-0.010
-722.850	408.273	0.156	-0.332
-721.835	-200.000	-0.012	0.072
-720.821	-139.448	-0.308	-0.033
-719.806	-13.767	-0.209	-0.136
-718.791	484.823	-0.080	0.183
-717.777	-200.000	-0.017	0.193
-716.762	154.433	-0.113	-0.156
-715.748	685.983	0.016	-0.043
-714.733	800.000	-0.073	-0.318
-713.718	43.432	-0.128	-0.118
-712.704	298.551	-0.164	0.303
-711.689	-200.000	-0.041	-0.238
-710.675	193.563	0.086	-0.132
-709.660	-2.332	0.181	-0.128
-708.645	-135.961	-0.233	0.028
-707.631	94.665	0.144	0.165
-706.616	109.071	0.113	-0.136
-705.602	-24.801	0.357	0.213
-704.587	-77.680	0.233	0.081
-703.572	-52.423	0.244	-0.114
-702.558	-34.696	-0.069	-0.038
-701.543	-54.467	-0.159	0.072
-700.529	240.362	0.279	0.469
-699.514	116.872	0.109	0.134
-698.499	58.135	-0.209	-0.206
-697.485	-200.000	-0.041	0.227
-696.470	-93.379	-0.226	-0.063
-695.456	-46.025	0.259	-0.129
-694.441	14.316	-0.149	-0.117
-693.426	25.744	0.186	-0.156
-692.412	-81.388	0.450	0.149
-691.397	-200.000	0.025	0.296
-690.383	-137.145	-0.193	-0.022
-689.368	-198.646	0.645	0.004
-688.354	233.324	-0.292	-0.483
-687.339	81.564	0.080	0.087
-686.324	-200.000	0.057	-0.397
-685.310	148.608	-0.188	0.256
-684.295	-26.515	0.132	0.078
-683.281	-200.000	-0.003	-0.078
-682.266	-144.896	-0.376	-0.035
-681.251	800.000	0.065	-0.192
-680.237	451.483	-0.191	0.423
-679.222	689.300	0.103	-0.270
-678.208	3.212	-0.363	0.266
-677.193	111.058	-0.107	-0.129
-676.178	-33.354	0.318	-0.177
-675.164	-102.434	-0.230	0.055
-674.149	32.141	0.205	0.178
-673.135	6.394	-0.229	0.171
-672.120	142.143	-0.290	0.387
-671.105	-29.413	0.154	0.089
-670.091	-126.409	-0.168	-0.025
-669.076	-113.170	-0.349	-0.069
-668.062	409.401	-0.084	-0.179
-667.047	-147.079	0.274	0.024
-666.032	-132.339	-0.057	0.007
-665.018	-10.498	-0.183	-0.122
-664.003	45.388	-0.370	0.343
-662.989	364.070	-0.037	0.076
-661.974	64.887	-0.157	0.160
-660.959	-165.018	-0.267	0.012
-659.945	-54.789	-0.334	0.151
-658.930	24.910	-0.056	0.047
-657.916	-200.000	-0.011	-0.082
-656.901	3.876	0.251	-0.184
-655.886	-150.377	0.376	-0.029
-654.872	249.286	-0.197	-0.336
-653.857	3.131	-0.268	-0.196
-652.843	254.424	0.128	0.220
-651.828	-161.563	-0.187	0.010
-650.814	230.834	0.156	-0.257
-649.799	143.406	-0.106	-0.141
-648.784	800.000	-0.108	-0.331
-647.770	114.068	-0.185	-0.226
-646.755	2.345	-0.239	-0.173
-645.741	194.869	0.204	0.311
-644.726	800.000	-0.059	-0.215
-643.711	-144.570	0.080	-0.007
-642.697	656.578	0.115	-0.297
-641.682	298.632	-0.078	-0.143
-640.668	793.667	-0.017	0.047
-639.653	16.640	-0.379	-0.301
-638.638	230.445	0.093	0.153
-637.624	689.760	0.041	-0.108
-636.609	-200.000	-0.125	-0.000
-635.595	800.000	0.031	-0.130
-634.580	62.240	0.116	-0.116
-633.565	384.798	0.046	0.095
-632.551	248.666	-0.065	0.110
-631.536	319.923	0.127	-0.242
-630.522	-84.922	-0.228	0.072
-629.507	-41.235	0.184	0.095
-628.492	-107.451	-0.251	-0.055
-627.478	800.000	-0.053	-0.227
-626.463	361.076	0.216	0.434
-625.449	-150.836	-0.219	0.017
-624.434	-41.822	-0.256	-0.132
-623.419	-71.649	-0.432	-0.162
-622.405	-118.455	-0.325	-0.058
-621.390	-45.556	-0.152	0.076
-620.376	800.000	0.022	-0.068
-619.361	-171.405	-0.169	0.006
-618.346	665.526	-0.194	-0.502
-617.332	201.949	-0.104	-0.160
-616.317	256.196	0.048	0.083
-615.303	445.927	-0.089	-0.195
-614.288	800.000	0.062	0.259
-613.273	800.000	-0.111	0.312
-612.259	37.667	-0.208	0.185
-611.244	-66.694	-0.266	-0.106
-610.230	-4.051	0.081	0.056
-609.215	-22.701	0.128	-0.077
-608.201	128.537	-0.208	0.265
-607.186	800.000	-0.042	0.138
-606.171	800.000	0.021	-0.077
-605.157	-200.000	0.040	-0.200
-604.142	-106.963	0.058	-0.013
-603.128	272.922	0.230	-0.408
-602.113	408.750	-0.075	0.159
-601.098	-200.000	-0.026	0.140
-600.084	-69.744	-0.226	-0.087
-599.069	220.018	-0.154	-0.247
-598.055	200.196	0.150	0.231
-597.040	-13.686	0.174	0.113
-596.025	418.369	0.111	0.239
-595.011	-29.645	0.209	0.120
-593.996	498.699	-0.160	0.369
-592.982	-200.000	0.035	0.181
-591.967	-144.138	-0.110	-0.010
-590.952	-200.000	0.002	0.249
-589.938	-121.727	-0.074	-0.012
-588.923	-200.000	-0.000	0.138
-587.909	-200.000	0.023	-0.124
-586.894	-132.671	-0.023	-0.003
-585.879	67.481	0.094	0.096
-584.865	181.957	0.075	-0.110
-583.850	34.469	0.242	-0.212
-582.836	-200.000	-0.057	-0.686
-581.821	-143.900	0.169	-0.016
-580.806	-158.224	-0.497	-0.029
-579.792	-157.840	0.171	0.010
-578.777	-153.718	0.231	0.016
-577.763	-128.441	0.150	0.021
-576.748	26.415	0.271	0.227
-575.733	22.678	-0.049	-0.040
-574.719	800.000	-0.070	0.272
-573.704	-12.774	-0.058	0.038
-572.690	-200.000	0.014	-0.214
-571.675	583.974	-0.083	0.204
-570.661	-116.418	0.145	-0.027
-569.646	-200.000	-0.106	-0.534
-568.631	158.807	0.063	0.087
-567.617	-32.034	-0.151	0.085
-566.602	-5.537	0.254	-0.175
-565.588	125.165	0.087	0.110
-564.573	-91.867	-0.099	0.028
-563.558	29.490	0.248	0.211
-562.544	-101.400	0.082	0.020
-561.529	-200.000	-0.020	-0.609
-560.515	26.921	-0.244	0.205
-559.500	-36.288	-0.166	0.089
-558.485	654.238	0.059	-0.152
-557.471	22.916	-0.235	-0.192
-556.456	53.976	-0.283	0.272
-555.442	800.000	0.065	-0.241
-554.427	-36.108	0.248	-0.134
-553.412	-117.925	-0.400	0.072
-552.398	430.535	0.116	-0.250
-551.383	-134.985	-0.312	-0.038
-550.369	276.249	0.160	-0.284
-549.354	-200.000	-0.014	-0.153
-548.339	-102.570	0.237	0.057
-547.325	253.664	-0.009	0.015
-546.310	-200.000	-0.018	0.134
-545.296	-200.000	0.009	-0.164
-544.281	-46.775	0.274	-0.134
-543.266	301.017	0.146	-0.269
-542.252	-124.844	-0.035	-0.005
-541.237	56.969	0.011	-0.011
-540.223	-65.769	-0.229	-0.091
-539.208	154.351	-0.144	-0.198
-538.193	-107.883	-0.099	-0.021
-537.179	-200.000	0.009	-0.223
-536.164	17.204	-0.131	-0.104
-535.150	-58.828	-0.130	-0.056
-534.135	251.628	-0.088	0.150
-533.121	-46.784	-0.121	-0.059
-532.106	-174.587	-0.224	0.006
-531.091	-111.723	0.124	0.025
-530.077	296.044	0.119	-0.218
-529.062	-39.568	-0.160	0.084
-528.048	154.845	0.099	0.136
-527.033	-200.000	-0.055	-0.248
-526.018	800.000	-0.085	0.322
-525.004	-200.000	0.014	0.320
-523.989	800.000	-0.027	0.101
-522.975	-161.287	0.159	-0.008
-521.960	557.888	-0.019	0.045
-520.945	-200.000	0.075	0.350
-519.931	-200.000	-0.040	-0.195
-518.916	374.714	-0.035	0.071
-517.902	-26.413	0.290	0.170
-516.887	209.501	-0.103	-0.161
-515.872	11.137	-0.149	0.114
-514.858	441.765	-0.050	-0.110
-513.843	103.155	-0.230	0.270
-512.829	33.214	-0.219	0.189
-511.814	-92.834	-0.148	0.041
-510.799	-100.736	-0.123	-0.030
-509.785	-37.341	0.197	0.105
-508.770	131.859	-0.175	-0.224
-507.756	416.093	0.064	-0.136
-506.741	-89.379	0.139	0.041
-505.726	800.000	0.033	-0.135
-504.712	188.260	0.275	0.410
-503.697	117.700	-0.168	-0.206
-502.683	-200.000	0.017	0.226
-501.668	-97.426	0.162	0.042
-500.653	-58.110	0.187	0.081
-499.639	99.056	0.117	0.135
-498.624	30.347	0.123	-0.105
-497.610	-94.276	-0.238	-0.065
-496.595	516.769	0.113	0.263
-495.581	-200.000	0.034	0.191
-494.566	156.038	-0.172	0.236
-493.551	45.342	0.148	0.136
-492.537	-200.000	0.020	0.421
-491.522	-149.918	0.386	-0.030
-490.508	30.043	-0.191	0.163
-489.493	-155.192	0.164	-0.011
-488.478	-81.337	0.110	0.036
-487.464	-102.572	0.340	0.081
-486.449	-90.107	0.304	0.088
-485.435	45.587	0.166	0.153
-484.420	86.629	-0.025	0.027
-483.405	-47.597	-0.153	-0.074
-482.391	-110.441	-0.237	-0.049
-481.376	800.000	0.081	-0.351
-480.362	-200.000	0.009	0.075
-479.347	34.913	-0.049	0.043
-478.332	-33.571	0.231	-0.127
-477.318	-148.556	0.168	0.014
-476.303	-30.909	0.091	-0.051
-475.289	-17.800	-0.197	0.124
-474.274	-82.427	-0.159	0.051
-473.259	-107.402	-0.100	0.022
-472.245	369.501	0.166	0.334
-471.230	72.356	0.151	-0.157
-470.216	-140.457	-0.341	0.035
-469.201	-200.000	-0.013	0.097
-468.186	-192.045	-0.454	-0.004
-467.172	-200.000	-0.015	0.273
-466.157	140.834	0.053	-0.070
-465.143	17.364	-0.143	0.113
-464.128	25.484	-0.167	0.138
-463.113	-45.197	0.154	0.076
-462.099	48.350	0.141	0.132
-461.084	117.686	-0.169	0.207
-460.070	-200.000	0.006	0.177
-459.055	90.672	-0.189	0.210
-458.040	29.442	0.030	0.025
-457.026	-94.193	0.207	-0.056
-456.011	800.000	-0.028	-0.094
-454.997	293.804	0.042	0.076
-453.982	-112.590	0.259	0.051
-452.968	-11.638	-0.158	-0.104
-451.953	104.985	-0.183	-0.215
-450.938	-96.358	-0.131	0.035
-449.924	-25.787	0.193	-0.113
-448.909	47.383	0.194	0.180
-447.895	11.914	-0.166	0.127
-446.880	-149.296	-0.321	-0.025
-445.865	52.729	-0.162	-0.154
-444.851	800.000	-0.011	-0.047
-443.836	179.647	0.070	0.102
-442.822	-200.000	-0.012	-0.118
-441.807	-55.055	0.128	0.058
-440.792	152.763	-0.106	-0.144
-439.778	-200.000	-0.024	0.297
-438.763	0.652	0.141	0.100
-437.749	-65.536	0.189	-0.076
-436.734	800.000	0.047	-0.141
-435.719	800.000	-0.081	0.229
-434.705	-200.000	0.013	0.143
-433.690	231.102	0.069	0.112
-432.676	-31.680	-0.170	0.095
-431.661	-106.644	0.328	0.073
-430.646	-33.187	-0.163	-0.090
-429.632	-200.000	0.014	0.096
-428.617	140.692	-0.081	0.106
-427.603	-200.000	0.070	-0.413
-426.588	28.096	-0.024	0.020
-425.573	-80.730	-0.241	0.080
-424.559	666.125	0.058	-0.149
-423.544	-142.141	-0.122	0.012
-422.530	-200.000	-0.011	0.186
-421.515	211.719	0.228	0.357
-420.500	30.516	-0.209	-0.178
-419.486	128.850	0.073	-0.092
-418.471	-46.667	0.304	-0.148
-417.457	-200.000	-0.005	-0.153
-416.442	-200.000	0.013	0.166
-415.428	-200.000	-0.015	-0.165
-414.413	800.000	0.068	0.211
-413.398	64.752	-0.030	-0.030
-412.384	758.078	-0.038	0.102
-411.369	-2.251	-0.099	-0.069
-410.355	-79.007	0.122	0.041
-409.340	-200.000	-0.027	0.165
-408.325	781.725	0.089	0.243
-407.311	232.147	0.016	-0.026
-406.296	12.265	-0.202	0.155
-405.282	-36.249	0.233	-0.125
-404.267	-200.000	0.234	0.001
-403.252	-132.286	-0.300	-0.039
-402.238	57.841	-0.089	-0.086
-401.223	-200.000	0.019	0.098
-400.209	-200.000	-0.008	0.129
-399.194	297.637	0.205	-0.375
-398.179	-115.134	-0.185	-0.035
-397.165	-163.566	-0.175	0.008
-396.150	-68.331	-0.248	0.096
-395.136	-200.000	0.008	-0.107
-394.121	87.789	0.339	0.373
-393.106	-39.974	-0.176	-0.091
-392.092	-127.950	0.334	0.048
-391.077	-55.162	-0.057	0.025
-390.063	-104.582	-0.161	-0.037
-389.048	-87.933	-0.307	0.092
-388.033	-171.450	-0.071	-0.002
-387.019	-200.000	-0.054	-0.239
-386.004	-200.000	-0.035	0.205
-384.990	-34.737	0.037	-0.020
-383.975	-109.149	-0.112	0.024
-382.960	800.000	0.123	0.360
-381.946	-112.461	0.207	-0.041
-380.931	-139.125	0.103	-0.011
-379.917	78.775	0.094	-0.100
-378.902	-19.251	-0.298	-0.184
-377.888	800.000	-0.066	-0.201
-376.873	-105.135	0.311	-0.071
-375.858	-93.521	0.092	0.025
-374.844	-42.823	-0.235	-0.119
-373.829	67.584	-0.031	0.032
-372.815	-38.615	0.111	0.058
-371.800	-200.000	0.033	0.154
-370.785	70.812	0.131	-0.135
-369.771	800.000	-0.068	-0.291
-368.756	-181.554	0.134	-0.003
-367.742	-200.000	0.034	-0.332
-366.727	5.933	0.195	0.144
-365.712	368.828	0.054	0.109
-364.698	90.548	0.239	-0.266
-363.683	93.889	-0.230	-0.259
-362.669	79.263	-0.113	0.120
-361.654	-156.523	0.033	-0.002
-360.639	83.326	0.268	0.290
-359.625	-200.000	-0.036	-0.166
-358.610	14.251	-0.112	-0.086
-357.596	641.190	0.083	0.210
-356.581	-83.585	-0.190	-0.060
-355.566	51.187	0.061	-0.058
-354.552	-34.420	0.132	-0.072
-353.537	-156.776	0.218	0.013
-352.523	-200.000	-0.012	-0.122
-351.508	572.645	-0.102	0.247
-350.493	-48.689	-0.136	0.065
-349.479	105.386	0.056	-0.066
-348.464	-200.000	-0.268	-0.001
-347.450	-200.000	0.024	-0.107
-346.435	181.251	0.168	-0.245
-345.420	135.056	0.227	-0.292
-344.406	682.057	0.053	-0.137
-343.391	-123.165	-0.205	-0.033
-342.377	800.000	-0.073	0.208
-341.362	29.505	0.262	0.221
-340.348	-89.137	0.190	-0.056
-339.333	268.994	0.121	-0.210
-338.318	-92.818	0.249	0.069
-337.304	800.000	-0.088	0.309
-336.289	137.084	0.135	0.175
-335.275	800.000	-0.099	0.314
-334.260	-48.696	-0.222	-0.106
-333.245	-121.697	-0.168	0.028
-332.231	-107.817	0.181	-0.039
-331.216	112.302	0.138	-0.165
-330.202	158.882	0.192	0.264
-329.187	800.000	0.037	-0.124
-328.172	-71.066	-0.335	-0.125
-327.158	6.208	0.100	-0.073
-326.143	-53.235	0.042	-0.019
-325.129	-12.409	-0.275	-0.178
-324.114	436.445	-0.042	0.091
-323.099	647.564	0.053	0.135
-322.085	-49.141	0.184	-0.087
-321.070	49.579	-0.078	-0.073
-320.056	-25.027	0.308	-0.181
-319.041	-138.100	-0.052	-0.006
-318.026	800.000	0.085	0.322
-317.012	-200.000	-0.001	0.083
-315.997	75.079	0.184	-0.192
-314.983	87.142	0.078	-0.085
-313.968	26.745	0.132	0.109
-312.953	-89.762	0.220	0.064
-311.939	82.521	0.151	0.162
-310.924	-18.136	-0.142	-0.088
-309.910	-128.175	-0.222	0.031
-308.895	-138.077	-0.145	0.016
-307.880	-132.895	0.231	0.029
-306.866	-60.497	-0.411	0.173
-305.851	-200.000	-0.011	0.257
-304.837	713.610	0.041	0.108
-303.822	800.000	-0.096	0.386
-302.807	166.816	0.114	-0.160
-301.793	-177.967	-0.280	0.007
-300.778	227.493	0.085	0.136
-299.764	-87.632	0.194	-0.058
-298.749	-200.000	0.056	0.355
-297.735	-98.537	-0.098	-0.025
-296.720	-89.258	-0.177	-0.052
-295.705	-14.519	-0.046	0.029
-294.691	-102.485	-0.240	0.057
-293.676	160.445	0.159	-0.220
-292.662	220.221	0.087	-0.138
-291.647	-21.717	0.152	0.092
-290.632	83.153	-0.132	0.142
-289.618	-200.000	0.015	-0.155
-288.603	-19.422	-0.111	-0.068
-287.589	-102.663	0.381	0.090
-286.574	256.208	-0.020	0.034
-285.559	-200.000	-0.033	0.167
-284.545	32.942	0.175	0.150
-283.530	-200.000	-0.013	-0.335
-282.516	-7.317	0.244	-0.163
-281.501	-146.566	0.333	-0.029
-280.486	57.264	-0.162	-0.156
-279.472	-200.000	-0.008	-0.103
-278.457	-88.925	0.465	0.136
-277.443	-39.676	-0.077	0.040
-276.428	-200.000	-0.014	-0.106
-275.413	52.034	0.108	0.102
-274.399	-68.532	-0.050	-0.019
-273.384	-200.000	0.022	0.231
-272.370	800.000	-0.071	-0.242
-271.355	221.535	0.203	-0.323
-270.340	-187.032	0.021	-0.000
-269.326	-200.000	0.051	0.477
-268.311	30.110	-0.300	-0.254
-267.297	-90.399	0.227	-0.065
-266.282	232.472	0.012	-0.019
-265.267	44.047	0.058	0.053
-264.253	800.000	-0.037	0.158
-263.238	-20.537	-0.064	0.039
-262.224	18.501	-0.068	-0.054
-261.209	444.033	0.092	0.199
-260.195	252.593	-0.019	-0.032
-259.180	-69.814	0.437	0.165
-258.165	-200.000	-0.016	0.115
-257.151	-200.000	0.061	-0.282
-256.136	-87.985	-0.256	-0.076
-255.122	-71.620	0.206	-0.076
-254.107	-59.419	0.150	0.064
-253.092	610.308	0.034	0.083
-252.078	800.000	0.038	-0.131
-251.063	158.156	0.090	-0.123
-250.049	-200.000	0.050	0.311
-249.034	120.689	0.129	0.159
-248.019	315.615	-0.125	-0.233
-247.005	-5.442	-0.241	-0.163
-245.990	-31.317	0.057	0.032
-244.976	676.138	0.065	-0.167
-243.961	65.908	0.078	0.079
-242.946	4.568	0.169	0.123
-241.932	-200.000	0.020	0.279
-240.917	-80.855	-0.250	-0.082
-239.903	800.000	0.119	-0.420
-238.888	-78.078	0.306	0.104
-237.873	15.097	-0.364	0.281
-236.859	-200.000	-0.020	-0.113
-235.844	20.527	0.362	-0.289
-234.830	39.740	-0.141	-0.125
-233.815	640.175	0.052	-0.130
-232.800	224.568	0.189	0.301
-231.786	607.102	-0.130	-0.320
-230.771	164.640	-0.120	0.168
-229.757	-200.000	-0.033	0.282
-228.742	-33.998	0.046	0.025
-227.727	800.000	-0.017	-0.061
-226.713	151.973	0.176	-0.237
-225.698	-200.000	-0.002	0.224
-224.684	152.656	0.047	-0.063
-223.669	-10.725	0.159	0.104
-222.655	-161.155	-0.134	0.007
-221.640	259.874	0.153	-0.260
-220.625	179.063	0.174	-0.251
-219.611	624.631	0.056	-0.139
-218.596	-94.137	-0.422	-0.114
-217.582	-23.467	0.377	0.224
-216.567	-200.000	0.022	0.102
-215.552	-153.853	-0.184	-0.012
-214.538	-63.964	0.090	-0.036
-213.523	800.000	-0.057	0.193
-212.509	108.925	0.103	-0.122
-211.494	-118.853	0.100	0.017
-210.479	-200.000	-0.023	-0.142
-209.465	-130.077	-0.265	-0.036
-208.450	-87.908	-0.235	0.070
-207.436	-200.000	0.011	-0.069
-206.421	166.026	0.059	-0.083
-205.406	-124.274	-0.143	-0.022
-204.392	-200.000	0.003	-0.092
-203.377	338.136	0.091	-0.175
-202.363	-200.000	-0.036	-0.235
-201.348	-32.767	0.241	0.132
-200.333	-105.505	-0.261	0.058
-199.319	-8.896	-0.113	0.075
-198.304	-200.000	0.029	0.155
-197.290	220.870	0.122	0.193
-196.275	362.897	-0.038	0.075
-195.260	-84.847	0.153	-0.047
-194.246	-146.228	0.061	0.005
-193.231	-132.359	-0.104	-0.013
-192.217	-117.488	-0.171	0.030
-191.202	-39.604	-0.083	0.043
-190.187	-174.449	-0.243	-0.007
-189.173	-200.000	0.055	-0.411
-188.158	-8.051	-0.208	-0.138
-187.144	800.000	0.067	0.223
-186.129	-139.961	0.300	-0.031
-185.114	-133.091	-0.243	0.030
-184.100	-25.733	0.220	-0.128
-183.085	-7.666	-0.161	0.108
-182.071	800.000	0.097	0.374
-181.056	116.349	0.142	-0.171
-180.042	-151.218	-0.166	0.012
-179.027	800.000	-0.043	0.127
-178.012	-116.418	-0.153	0.028
-176.998	-200.000	-0.012	0.210
-175.983	-156.428	0.259	-0.016
-174.969	-139.815	0.294	-0.031
-173.954	-107.753	0.035	-0.008
-172.939	-17.708	-0.068	-0.042
-171.925	75.097	0.104	-0.108
-170.910	-200.000	-0.001	-0.181
-169.896	381.029	0.145	-0.293
-168.881	24.820	-0.156	0.127
-167.866	126.638	-0.119	-0.149
-166.852	178.293	-0.152	-0.218
-165.837	40.439	-0.051	0.046
-164.823	-33.057	0.268	-0.146
-163.808	206.629	0.155	0.237
-162.793	152.121	-0.278	0.374
-161.779	-12.424	-0.308	-0.198
-160.764	-200.000	-0.004	-0.141
-159.750	-175.799	-0.234	0.006
-158.735	-124.879	-0.080	-0.012
-157.720	-107.634	-0.215	0.046
-156.706	-200.000	-0.009	-0.106
-155.691	55.887	-0.255	-0.244
-154.677	-126.044	0.168	-0.025
-153.662	-121.149	-0.140	-0.023
-152.647	-78.293	0.295	0.100
-151.633	148.738	-0.070	-0.093
-150.618	-200.000	0.046	0.532
-149.604	-54.714	0.202	0.090
-148.589	800.000	0.097	0.339
-147.574	-200.000	-0.018	-0.127
-146.560	-200.000	0.007	0.336
-145.545	-110.986	0.346	0.070
-144.531	14.368	-0.121	0.093
-143.516	-52.294	-0.266	0.121
-142.502	-46.393	0.226	-0.109
-141.487	-135.477	-0.485	0.057
-140.472	-165.231	0.215	-0.009
-139.458	-159.578	-0.205	-0.011
-138.443	-200.000	-0.036	-0.206
-137.429	-20.948	0.647	0.390
-136.414	46.276	-0.160	0.146
-135.399	-200.000	-0.010	-0.049
-134.385	77.621	-0.261	0.273
-133.370	-131.703	0.238	-0.031
-132.356	-200.000	-0.009	0.148
-131.341	-39.379	-0.217	-0.112
-130.326	62.798	0.142	-0.140
-129.312	-108.087	-0.084	-0.018
-128.297	192.388	-0.157	-0.233
-127.283	-60.894	0.076	-0.032
-126.268	68.240	-0.236	0.238
-125.253	-200.000	-0.036	0.289
-124.239	-124.044	0.149	-0.023
-123.224	282.439	-0.113	-0.200
-122.210	532.840	0.149	0.348
-121.195	192.094	0.196	-0.291
-120.180	118.676	0.107	0.130
-119.166	-200.000	0.040	-0.355
-118.151	139.436	-0.073	-0.094
-117.137	196.655	0.105	-0.157
-116.122	-200.000	0.031	-0.135
-115.107	604.345	-0.142	0.348
-114.093	620.512	0.078	0.193
-113.078	2.462	0.118	-0.084
-112.064	-193.264	-0.221	-0.002
-111.049	55.425	0.195	-0.186
-110.034	-96.543	0.206	0.054
-109.020	115.162	-0.219	0.263
-108.005	52.116	0.104	-0.097
-106.991	208.809	0.218	-0.336
-105.976	128.518	0.147	0.183
-104.962	404.211	-0.125	0.259
-103.947	-20.005	-0.320	0.194
-102.932	-46.545	0.117	0.056
-101.918	386.781	-0.014	-0.028
-100.903	214.218	-0.172	0.267
-99.889	326.942	0.124	-0.233
-98.874	249.433	-0.060	0.100
-97.859	144.372	-0.222	-0.292
-96.845	-81.338	0.199	0.064
-95.830	124.508	0.143	0.177
-94.816	-30.883	-0.117	-0.065
-93.801	482.883	-0.075	0.168
-92.786	142.810	0.208	-0.272
-91.772	-17.775	-0.333	-0.205
-90.757	-85.078	0.154	-0.047
-89.743	-125.451	0.201	0.030
-88.728	-112.373	-0.068	0.013
-87.713	268.295	-0.130	0.224
-86.699	-200.000	-0.026	-0.344
-85.684	-189.683	-0.067	0.001
-84.670	106.002	-0.248	0.288
-83.655	-132.065	-0.305	-0.039
-82.640	-114.740	-0.394	0.074
-81.626	-142.122	0.155	-0.015
-80.611	-125.801	-0.230	-0.034
-79.597	-127.419	0.388	-0.055
-78.582	271.665	0.181	0.312
-77.567	-63.497	0.202	-0.082
-76.553	-200.000	-0.096	0.465
-75.538	-139.428	-0.338	-0.036
-74.524	112.886	-0.356	-0.424
-73.509	108.806	0.084	-0.098
-72.494	216.627	-0.129	0.201
-71.480	112.165	0.094	-0.111
-70.465	10.370	-0.235	-0.176
-69.451	-200.000	-0.011	0.247
-68.436	-60.774	0.106	0.044
-67.422	306.299	-0.062	-0.113
-66.407	312.380	0.113	-0.209
-65.392	-200.000	-0.012	0.478
-64.378	32.450	-0.191	0.162
-63.363	-91.194	0.041	-0.012
-62.349	-62.169	0.321	0.131
-61.334	-7.983	-0.996	-0.659
-60.319	122.384	0.220	0.270
-59.305	262.689	-0.490	-0.835
-58.290	95.521	0.782	0.875
-57.276	800.000	0.530	1.481
-56.261	-200.000	99.119	605.326
-55.246	598.757	1398.339	3402.327
-54.232	193.926	2585.799	3841.616
-53.217	112.820	2266.869	2693.853
-52.203	41.411	1893.138	1680.199
-51.188	35.131	1685.204	1448.295
-50.173	32.414	1641.956	1391.019
-49.159	50.139	1690.845	1565.764
-48.144	51.927	1707.451	1594.482
-47.130	34.701	1666.899	1429.118
-46.115	31.932	1652.527	1396.168
-45.100	31.784	1647.903	1391.105
-44.086	31.777	1645.109	1388.639
-43.071	31.682	1642.731	1385.878
-42.057	31.728	1640.324	1384.127
-41.042	31.752	1638.173	1382.436
-40.027	31.696	1636.708	1380.736
-39.013	31.678	1634.776	1378.919
-37.998	31.707	1632.871	1377.465
-36.984	31.603	1632.243	1376.123
-35.969	31.770	1630.212	1375.582
-34.954	31.725	1628.693	1373.911
-33.940	31.754	1627.254	1372.857
-32.925	31.767	1625.038	1371.031
-31.911	31.661	1623.709	1369.079
-30.896	31.822	1621.350	1368.213
-29.881	31.760	1619.974	1366.543
-28.867	31.758	1618.685	1365.381
-27.852	31.706	1617.000	1363.533
-26.838	31.709	1615.669	1362.379
-25.823	31.845	1613.926	1361.843
-24.809	31.869	1612.708	1360.931
-23.794	31.842	1611.123	1359.349
-22.779	31.847	1609.773	1358.190
-21.765	31.766	1608.716	1356.660
-20.750	31.803	1606.627	1355.108
-19.736	31.811	1605.640	1354.280
-18.721	31.869	1603.990	1353.254
-17.706	31.799	1602.381	1351.334
-16.692	31.783	1601.022	1350.020
-15.677	31.785	1599.465	1348.670
-14.663	31.909	1597.976	1348.250
-13.648	31.832	1596.957	1346.786
-12.633	31.813	1595.636	1345.483
-11.619	31.995	1593.223	1344.698
-10.604	31.901	1592.227	1343.130
-9.590	31.934	1590.684	1342.010
-8.575	31.927	1589.835	1341.196
-7.560	31.841	1588.977	1339.801
-6.546	31.904	1587.274	1338.760
-5.531	31.845	1586.631	1337.747
-4.517	31.859	1585.582	1336.908
-3.502	31.880	1584.019	1335.688
-2.487	31.860	1582.703	1334.384
-1.473	31.370	1570.305	1320.415
-0.458	27.857	1549.706	1278.497
0.556	25.276	1549.007	1240.496
1.571	22.396	1572.220	1238.742
2.586	21.614	1584.090	1242.437
3.600	18.725	1530.271	1180.289
4.615	11.281	1423.036	1049.718
5.629	4.940	1361.903	965.361
6.644	3.879	1354.326	953.364
7.659	3.821	1352.724	951.794
8.673	3.900	1351.768	951.521
9.688	4.071	1350.096	951.313
10.702	3.833	1347.728	948.099
11.717	6.674	1352.088	968.542
12.731	14.343	1366.419	1026.132
13.746	20.481	1376.878	1071.875
14.761	21.555	1376.970	1078.479
15.775	20.817	1374.815	1072.151
16.790	19.917	1371.803	1064.177
17.804	19.049	1369.918	1057.287
18.819	18.586	1368.739	1053.441
19.834	18.518	1367.694	1052.127
20.848	18.383	1366.458	1050.257
21.863	18.116	1365.491	1047.786
22.877	18.058	1364.250	1046.382
23.892	17.965	1363.213	1044.927
24.907	17.926	1362.788	1044.269
25.921	18.003	1361.589	1043.730
26.936	17.965	1360.622	1042.661
27.950	17.996	1359.991	1042.276
28.965	18.148	1359.091	1042.425
29.980	18.299	1357.781	1042.242
30.994	18.229	1357.021	1041.142
32.009	18.214	1356.190	1040.325
33.023	18.248	1355.137	1039.628
34.038	18.358	1353.037	1038.596
35.053	18.185	1351.841	1036.536
36.067	18.125	1350.863	1035.330
37.082	18.250	1349.495	1034.946
38.096	18.236	1348.997	1034.386
39.111	18.296	1348.148	1034.007
40.126	18.074	1347.535	1032.104
41.140	17.908	1346.348	1030.106
42.155	17.717	1345.868	1028.495
43.169	17.766	1345.202	1028.190
44.184	17.811	1344.997	1028.213
45.199	17.712	1344.689	1027.292
46.213	17.903	1343.970	1027.800
47.228	18.029	1343.892	1028.406
48.242	18.136	1342.633	1027.995
49.257	18.088	1340.453	1025.949
50.271	18.182	1339.203	1025.463
51.286	18.159	1338.372	1024.602
52.301	18.121	1337.365	1023.513
53.315	17.912	1335.835	1020.997
54.330	17.773	1334.986	1019.429
55.344	17.771	1333.443	1018.150
56.359	17.816	1332.437	1017.561
57.374	17.792	1331.696	1016.761
58.388	17.688	1330.764	1015.339
59.403	17.650	1330.509	1014.831
60.417	17.734	1329.121	1014.179
61.432	17.596	1328.678	1012.928
62.447	17.619	1327.656	1012.196
63.461	17.542	1326.418	1010.709
64.476	17.472	1325.414	1009.438
65.490	17.472	1324.207	1008.430
66.505	17.656	1322.193	1007.893
67.520	17.551	1321.015	1006.289
68.534	17.671	1320.077	1006.194
69.549	17.590	1319.339	1005.065
70.563	17.541	1317.909	1003.597
71.578	17.345	1317.347	1001.924
72.593	17.364	1316.363	1001.197
73.607	17.414	1315.431	1000.695
74.622	17.441	1314.644	1000.170
75.636	17.426	1314.603	999.960
76.651	17.400	1313.677	999.012
77.666	17.478	1313.622	999.340
78.680	17.481	1313.098	998.874
79.695	17.575	1311.682	998.256
80.709	17.653	1311.313	998.346
81.724	17.772	1310.293	998.178
82.739	17.830	1309.318	997.683
83.753	17.922	1308.923	997.833
84.768	18.135	1307.866	998.184
85.782	18.207	1307.167	997.981
86.797	18.221	1305.767	996.907
87.812	18.091	1304.669	995.223
88.826	18.047	1303.732	994.163
89.841	18.147	1302.401	993.645
90.855	18.199	1301.482	993.157
91.870	18.232	1300.737	992.691
92.884	18.226	1300.100	992.083
93.899	18.254	1299.025	991.333
94.914	18.358	1298.018	991.082
95.928	18.386	1297.386	990.675
96.943	18.161	1296.592	988.678
97.957	18.190	1295.886	988.219
98.972	18.270	1294.453	987.502
99.987	18.198	1293.970	986.630
101.001	18.233	1292.284	985.459
102.016	18.137	1291.857	984.496
103.030	18.296	1291.135	984.769
104.045	18.140	1289.988	982.916
105.060	18.069	1288.516	981.296
106.074	17.888	1287.367	979.294
107.089	17.778	1285.771	977.364
108.103	17.621	1283.931	974.981
109.118	17.652	1283.306	974.601
110.133	17.638	1281.886	973.351
111.147	17.689	1280.514	972.517
112.162	17.617	1279.361	971.143
113.176	17.811	1278.211	971.293
114.191	17.681	1277.742	970.107
115.206	17.809	1275.850	969.313
116.220	17.778	1274.845	968.291
117.235	17.757	1273.808	967.294
118.249	17.746	1272.981	966.523
119.264	17.653	1271.613	964.870
120.279	17.608	1270.861	963.959
121.293	17.524	1269.342	962.248
122.308	17.496	1268.349	961.248
123.322	17.425	1267.514	960.131
124.337	17.422	1266.308	959.119
125.352	17.389	1265.439	958.186
126.366	17.534	1264.013	957.842
127.381	17.529	1262.871	956.862
128.395	17.497	1262.160	956.057
129.410	17.419	1261.488	955.027
130.424	17.561	1260.526	955.008
131.439	17.715	1259.547	955.044
132.454	17.742	1258.830	954.570
133.468	17.735	1258.173	953.949
134.483	17.778	1257.744	953.780
135.497	17.741	1256.521	952.560
136.512	17.808	1255.362	951.969
137.527	17.837	1254.078	951.073
138.541	17.806	1252.870	949.903
139.556	17.944	1251.544	949.582
140.570	18.076	1250.349	949.324
141.585	18.139	1249.401	948.866
142.600	18.125	1248.411	947.952
143.614	18.226	1247.589	947.805
144.629	18.225	1246.724	947.060
145.643	18.185	1245.300	945.672
146.658	18.103	1243.676	943.905
147.673	17.878	1242.395	941.606
148.687	17.888	1241.110	940.606
149.702	17.793	1239.960	939.127
150.716	17.873	1238.211	938.157
151.731	17.757	1237.469	936.875
152.746	17.789	1236.534	936.264
153.760	17.933	1235.143	935.914
154.775	18.063	1234.298	935.903
155.789	17.943	1233.829	934.807
156.804	18.055	1232.443	934.287
157.819	18.153	1231.377	933.931
158.833	18.214	1230.891	933.815
159.848	18.294	1230.090	933.562
160.862	18.231	1228.799	932.156
161.877	18.012	1227.237	929.698
162.892	17.864	1226.343	928.133
163.906	17.927	1225.206	927.531
164.921	17.869	1224.066	926.270
165.935	17.999	1223.875	926.750
166.950	18.073	1223.311	926.643
167.964	18.008	1222.437	925.543
168.979	17.985	1222.027	925.031
169.994	18.042	1220.913	924.411
171.008	18.039	1220.477	923.984
172.023	18.232	1219.332	924.075
173.037	18.324	1218.653	923.980
174.052	18.223	1218.008	922.862
175.067	17.986	1216.694	920.509
176.081	17.895	1215.677	919.166
177.096	17.941	1214.757	918.639
178.110	18.035	1213.625	918.208
179.125	18.112	1212.520	917.699
180.140	18.111	1211.085	916.528
181.154	18.167	1209.917	915.863
182.169	18.306	1209.028	915.857
183.183	18.292	1208.242	915.104
184.198	18.289	1206.982	914.049
185.213	18.321	1205.874	913.300
186.227	18.417	1204.587	912.760
187.242	18.419	1204.148	912.355
188.256	18.517	1202.763	911.745
189.271	18.614	1201.491	911.219
190.286	18.201	1201.114	908.657
191.300	17.848	1200.005	905.863
192.315	17.804	1199.143	904.900
193.329	17.843	1198.731	904.714
194.344	18.032	1197.712	904.867
195.359	18.119	1197.569	905.139
196.373	18.206	1197.193	905.234
197.388	18.254	1196.480	904.870
198.402	18.388	1196.395	905.435
199.417	18.591	1195.837	906.004
200.432	18.686	1195.017	905.803
201.446	18.693	1194.544	905.403
202.461	18.813	1193.319	905.026
203.475	18.793	1192.353	904.109
204.490	18.607	1190.730	901.821
205.504	18.521	1189.555	900.401
206.519	18.495	1188.330	899.257
207.534	18.427	1187.106	897.895
208.548	18.480	1186.695	897.782
209.563	18.435	1185.797	896.785
210.577	18.433	1184.859	895.986
211.592	18.557	1184.046	895.943
212.607	18.712	1183.293	896.103
213.621	18.677	1182.684	895.377
214.636	18.704	1181.476	894.522
215.650	18.614	1180.689	893.382
216.665	18.811	1179.450	893.389
217.680	18.857	1179.092	893.277
218.694	18.935	1178.154	892.892
219.709	18.784	1177.438	891.491
220.723	18.873	1176.478	891.142
221.738	18.805	1175.774	890.182
222.753	18.730	1175.119	889.220
223.767	18.814	1174.654	889.222
224.782	18.895	1173.927	889.012
225.796	19.036	1173.290	889.180
226.811	18.942	1172.670	888.144
227.826	18.835	1171.686	886.771
228.840	18.704	1171.281	885.707
229.855	18.859	1169.857	885.353
230.869	18.720	1169.451	884.250
231.884	18.751	1168.376	883.519
232.899	18.683	1167.706	882.583
233.913	18.601	1166.989	881.543
234.928	18.634	1166.212	881.044
235.942	18.508	1165.968	880.137
236.957	18.564	1164.643	879.345
237.972	18.669	1163.615	879.031
238.986	18.769	1163.071	879.054
240.001	18.486	1162.717	877.258
241.015	18.638	1161.664	877.166
242.030	18.669	1160.810	876.599
243.045	18.863	1160.282	877.116
244.059	18.881	1159.536	876.567
245.074	18.884	1158.924	876.040
246.088	18.919	1157.832	875.317
247.103	18.992	1157.571	875.413
248.117	19.130	1156.713	875.387
249.132	19.334	1156.103	875.885
250.147	19.500	1155.775	876.404
251.161	19.591	1155.039	876.231
252.176	19.537	1154.056	875.131
253.190	19.648	1153.416	875.133
254.205	19.633	1153.146	874.771
255.220	19.677	1152.332	874.301
256.234	19.660	1152.139	873.993
257.249	19.624	1151.334	873.119
258.263	19.607	1150.607	872.409
259.278	19.622	1150.092	872.015
260.293	19.747	1149.345	872.004
261.307	19.643	1148.936	871.091
262.322	19.705	1148.338	870.873
263.336	19.744	1147.775	870.564
264.351	19.851	1147.158	870.558
265.366	19.816	1146.654	869.923
266.380	19.789	1145.734	869.010
267.395	19.710	1144.776	867.812
268.409	19.622	1143.937	866.655
269.424	19.649	1143.399	866.310
270.439	19.658	1142.389	865.513
271.453	19.596	1141.640	864.555
272.468	19.521	1140.876	863.524
273.482	19.472	1140.225	862.711
274.497	19.489	1139.551	862.212
275.512	19.532	1138.733	861.729
276.526	19.513	1137.849	860.890
277.541	19.611	1137.085	860.727
278.555	19.628	1136.574	860.346
279.570	19.745	1136.531	860.819
280.585	19.845	1135.547	860.498
281.599	19.771	1134.897	859.561
282.614	19.677	1133.407	857.890
283.628	19.582	1132.294	856.499
284.643	19.654	1131.414	856.117
285.657	19.689	1130.401	855.446
286.672	19.678	1129.414	854.569
287.687	19.674	1129.074	854.215
288.701	19.706	1128.121	853.575
289.716	19.779	1127.168	853.139
290.730	19.776	1126.757	852.738
291.745	19.780	1126.252	852.301
292.760	19.898	1125.406	852.165
293.774	19.980	1124.903	852.114
294.789	20.008	1124.784	852.085
295.803	20.048	1123.782	851.448
296.818	19.806	1123.190	849.736
297.833	19.833	1122.339	849.147
298.847	19.878	1121.414	848.595
299.862	19.897	1120.456	847.888
300.876	19.989	1119.491	847.534
301.891	20.011	1119.246	847.381
302.906	20.048	1118.675	847.054
303.920	20.168	1118.383	847.343
304.935	20.264	1117.454	847.034
305.949	20.349	1116.841	846.911
306.964	20.317	1116.299	846.266
307.979	20.284	1115.537	845.456
308.993	20.202	1114.463	844.167
310.008	20.289	1113.816	844.022
311.022	20.332	1113.308	843.771
312.037	20.325	1112.073	842.730
313.052	20.164	1111.415	841.374
314.066	20.008	1110.457	839.820
315.081	19.962	1109.374	838.702
316.095	19.921	1108.834	838.019
317.110	20.019	1107.989	837.784
318.125	19.901	1107.369	836.671
319.139	19.905	1106.605	836.039
320.154	19.998	1105.592	835.646
321.168	20.054	1105.338	835.649
322.183	20.060	1104.943	835.309
323.197	20.008	1104.494	834.644
324.212	19.973	1103.869	833.928
325.227	20.083	1103.173	833.861
326.241	20.147	1102.646	833.693
327.256	19.924	1101.880	831.969
328.270	20.054	1100.733	831.654
329.285	20.124	1099.188	830.748
330.300	20.020	1098.699	829.808
331.314	20.091	1097.886	829.461
332.329	20.121	1096.982	828.847
333.343	20.149	1096.315	828.405
334.358	20.324	1095.298	828.399
335.373	20.266	1095.039	827.851
336.387	20.330	1094.229	827.471
337.402	20.375	1093.419	827.001
338.416	20.514	1092.965	827.243
339.431	20.402	1092.192	826.051
340.446	20.559	1091.951	826.543
341.460	20.657	1091.262	826.417
342.475	20.735	1090.469	826.112
343.489	20.704	1089.826	825.402
344.504	20.861	1088.434	825.022
345.519	20.816	1087.677	824.163
346.533	20.886	1086.945	823.863
347.548	21.004	1086.669	824.140
348.562	20.836	1085.897	822.688
349.577	20.611	1084.866	820.774
350.592	20.629	1083.760	819.947
351.606	20.383	1083.268	818.345
352.621	20.368	1082.626	817.716
353.635	20.394	1081.811	817.153
354.650	20.484	1081.136	816.992
355.665	20.421	1080.432	816.091
356.679	20.559	1079.831	816.212
357.694	20.622	1079.168	815.935
358.708	20.636	1078.668	815.553
359.723	20.688	1078.201	815.369
360.738	20.640	1077.741	814.725
361.752	20.674	1076.993	814.246
362.767	20.727	1076.494	814.043
363.781	20.693	1075.466	813.034
364.796	20.863	1075.621	813.876
365.810	20.979	1074.694	813.643
366.825	20.979	1074.664	813.551
367.840	21.194	1073.352	813.487
368.854	21.331	1073.086	813.849
369.869	21.282	1072.227	812.898
370.883	21.118	1071.555	811.553
371.898	21.053	1070.625	810.477
372.913	20.963	1070.397	809.816
373.927	21.172	1069.792	810.253
374.942	21.172	1069.354	809.850
375.956	21.232	1068.611	809.495
376.971	21.185	1067.995	808.740
377.986	21.173	1067.384	808.150
379.000	21.166	1067.181	807.890
380.015	21.307	1066.510	807.966
381.029	21.511	1065.738	808.249
382.044	21.411	1064.878	807.067
383.059	21.387	1064.452	806.559
384.073	21.305	1063.361	805.284
385.088	21.361	1062.731	804.994
386.102	21.364	1061.718	804.169
387.117	21.170	1061.095	802.735
388.132	21.143	1059.635	801.436
389.146	21.082	1059.004	800.605
390.161	21.098	1058.202	800.002
391.175	21.020	1057.812	799.279
392.190	21.143	1057.413	799.469
393.205	21.304	1056.322	799.313
394.219	21.272	1055.510	798.482
395.234	21.281	1054.503	797.689
396.248	21.201	1053.542	796.527
397.263	21.278	1052.318	795.881
398.278	21.041	1051.817	794.351
399.292	21.024	1051.194	793.735
400.307	21.008	1050.333	792.940
401.321	20.999	1049.879	792.488
402.336	20.951	1049.005	791.540
403.350	21.119	1048.382	791.762
404.365	21.088	1047.702	791.040
405.380	21.207	1047.106	791.059
406.394	21.254	1046.532	790.765
407.409	21.270	1045.751	790.178
408.423	21.451	1045.297	790.586
409.438	21.539	1044.796	790.534
410.453	21.581	1043.886	789.965
411.467	21.835	1043.132	790.468
412.482	21.695	1042.344	789.170
413.496	21.768	1042.031	789.190
414.511	21.909	1040.923	788.917
415.526	21.925	1041.231	789.154
416.540	22.000	1040.451	788.829
417.555	21.956	1039.878	788.129
418.569	21.639	1039.946	786.684
419.584	21.636	1039.274	786.092
420.599	21.800	1038.526	786.195
421.613	155.688	1401.813	1794.242
422.628	142.424	1454.741	1794.315
