DTS Sentinel unit serial number:	SN413079Multiplexer serial number:	ORYXHardware model number:	OX4-SRSoftware version number:	ORYX F/W v4.00 Oryx Data Collector v3.7.2.0data status	okinstallation	princeton_trtdifferential loss correction	single-endedforward channel	channel 2reverse channel	N/Adate	2019/09/19time	04:39:34forward acquisition time	60.00reverse acquisition time	0.00gamma	496.2192k internal	0.2351k external	0.2351temperature offset calibration	1.0014default loss term (dB/km)	0.3790temperature slope calibration	1.0000multiplexer offset coefficient	1.0000multiplexer slope coefficient	1.0000fibre end	0.00T internal ref (°C)	20.00T ext. ref 1 (°C)	0.61T ext. ref 2 (°C)	12.94length (m)	temperature (°C)	Stokes	anti-Stokes-747.200	-64.370	-0.240	0.097
-746.185	-113.631	-0.285	0.056
-745.171	-107.307	-0.461	0.101
-744.156	362.077	-0.140	0.280
-743.142	393.431	-0.158	0.328
-742.127	24.013	-0.266	0.219
-741.112	91.014	0.049	-0.054
-740.098	-30.607	-0.488	0.275
-739.083	-29.784	-0.176	-0.100
-738.069	-167.006	-0.300	-0.012
-737.054	116.294	0.076	-0.093
-736.039	-200.000	-0.002	-0.331
-735.025	-87.410	0.153	-0.046
-734.010	-181.440	-0.180	0.004
-732.996	-3.524	-0.415	-0.288
-731.981	156.040	0.056	-0.078
-730.966	-109.324	0.413	-0.087
-729.952	800.000	0.051	-0.190
-728.937	-43.514	0.360	-0.181
-727.923	-153.381	-0.232	-0.016
-726.908	-200.000	-0.009	-0.124
-725.894	-96.611	0.225	0.059
-724.879	-170.693	-0.354	0.012
-723.864	302.361	-0.104	-0.193
-722.850	-26.828	0.192	0.112
-721.835	-78.724	-0.287	-0.098
-720.821	3.800	-0.317	0.231
-719.806	-54.028	-0.149	0.068
-718.791	-30.094	-0.103	-0.059
-717.777	100.693	0.211	0.244
-716.762	82.902	-0.206	-0.223
-715.748	124.781	-0.261	-0.328
-714.733	-41.950	0.146	-0.074
-713.718	-200.000	-0.018	0.100
-712.704	800.000	0.066	0.279
-711.689	-102.549	0.267	-0.064
-710.675	51.058	-0.154	0.145
-709.660	202.599	0.224	0.344
-708.645	800.000	0.002	0.007
-707.631	233.799	0.094	-0.154
-706.616	339.390	0.130	-0.252
-705.602	-200.000	0.022	-0.168
-704.587	344.633	0.123	0.241
-703.572	-28.278	0.131	0.075
-702.558	-10.476	-0.170	0.112
-701.543	-18.637	0.161	-0.100
-700.529	-200.000	0.000	0.060
-699.514	800.000	0.033	0.091
-698.499	771.640	0.131	0.357
-697.485	71.445	-0.087	-0.090
-696.470	-29.557	0.252	0.143
-695.456	23.423	0.056	-0.046
-694.441	800.000	0.046	0.189
-693.426	354.754	-0.068	0.134
-692.412	-200.000	0.014	-0.126
-691.397	800.000	-0.070	-0.291
-690.383	-77.237	-0.445	-0.154
-689.368	-123.406	-0.187	-0.030
-688.354	144.845	0.120	-0.160
-687.339	-23.066	-0.295	0.177
-686.324	-200.000	0.024	0.336
-685.310	-140.254	-0.199	0.021
-684.295	605.079	0.107	-0.266
-683.281	-11.299	0.350	0.230
-682.266	-200.000	-0.014	0.320
-681.251	416.669	0.096	0.204
-680.237	-139.487	-0.251	0.027
-679.222	484.453	-0.031	0.069
-678.208	121.510	0.067	-0.083
-677.193	161.385	-0.073	0.101
-676.178	-38.543	-0.215	0.113
-675.164	-50.609	0.041	0.019
-674.149	487.304	0.026	-0.059
-673.135	-100.599	0.158	0.039
-672.120	-200.000	0.009	0.178
-671.105	-200.000	-0.018	-0.106
-670.091	-8.732	0.068	0.045
-669.076	-200.000	0.003	0.024
-668.062	-24.540	-0.130	-0.077
-667.047	-200.000	0.047	-0.260
-666.032	-24.525	-0.259	-0.153
-665.018	-52.772	-0.095	0.044
-664.003	-91.802	0.176	-0.050
-662.989	-62.911	0.020	-0.008
-661.974	-85.607	-0.296	-0.092
-660.959	-200.000	0.000	0.034
-659.945	186.929	0.202	0.299
-658.930	81.180	0.352	-0.378
-657.916	-119.900	0.202	0.035
-656.901	603.622	-0.030	-0.074
-655.886	61.360	-0.103	0.102
-654.872	56.889	0.151	0.147
-653.857	-199.465	0.023	-0.000
-652.843	-67.769	-0.200	0.078
-651.828	-200.000	0.074	0.000
-650.814	-70.283	0.102	-0.038
-649.799	-200.000	0.006	0.087
-648.784	800.000	-0.097	-0.300
-647.770	-128.263	0.103	-0.015
-646.755	-45.081	-0.384	-0.190
-645.741	266.816	0.173	0.301
-644.726	-126.225	0.120	-0.018
-643.711	800.000	-0.052	-0.207
-642.697	-62.213	0.220	0.091
-641.682	0.950	-0.187	-0.133
-640.668	14.646	-0.167	0.130
-639.653	85.685	-0.090	0.098
-638.638	305.839	-0.097	-0.179
-637.624	511.677	-0.106	-0.245
-636.609	-121.189	0.211	0.035
-635.595	-200.000	-0.068	-0.313
-634.580	800.000	0.040	-0.137
-633.565	-143.886	0.250	0.023
-632.551	-200.000	0.040	0.200
-631.536	-52.872	-0.275	-0.126
-630.522	-2.002	0.235	0.164
-629.507	263.346	0.092	0.159
-628.492	800.000	-0.038	-0.152
-627.478	-27.117	0.094	0.055
-626.463	390.882	-0.082	0.168
-625.449	307.837	-0.043	-0.079
-624.434	-70.717	0.075	-0.028
-623.419	-200.000	-0.004	0.032
-622.405	37.073	-0.085	-0.074
-621.390	-17.449	-0.099	0.062
-620.376	-57.752	-0.313	0.136
-619.361	23.768	0.143	0.117
-618.346	-143.470	-0.287	0.027
-617.332	-42.734	0.462	-0.233
-616.317	-0.175	0.100	0.071
-615.303	-116.272	0.250	-0.046
-614.288	18.141	-0.244	-0.194
-613.273	46.304	0.262	-0.241
-612.259	501.441	0.154	0.352
-611.244	768.589	-0.031	-0.083
-610.230	244.655	0.205	0.343
-609.215	-135.654	-0.074	-0.009
-608.201	511.293	0.038	-0.089
-607.186	-200.000	0.056	-0.261
-606.171	117.128	-0.089	0.109
-605.157	-63.042	-0.368	-0.151
-604.142	-56.859	0.340	-0.149
-603.128	-155.364	-0.070	0.004
-602.113	-200.000	-0.024	-0.187
-601.098	-47.258	-0.354	-0.171
-600.084	510.841	-0.124	-0.287
-599.069	-75.078	-0.469	0.166
-598.055	-119.655	-0.158	-0.027
-597.040	107.853	-0.190	-0.225
-596.025	-130.331	-0.183	-0.025
-595.011	14.769	0.063	-0.049
-593.996	-200.000	0.003	-0.136
-592.982	61.212	-0.096	-0.094
-591.967	640.644	0.057	0.145
-590.952	128.235	0.181	-0.228
-589.938	-156.254	-0.172	-0.011
-588.923	-200.000	0.101	-0.674
-587.909	125.932	0.292	-0.366
-586.894	375.293	-0.115	0.233
-585.879	-59.327	0.345	0.147
-584.865	800.000	0.148	0.471
-583.850	-79.636	-0.250	-0.084
-582.836	-200.000	-0.009	0.186
-581.821	79.054	-0.058	0.062
-580.806	-200.000	0.010	-0.326
-579.792	-161.001	0.150	0.008
-578.777	-101.066	-0.364	-0.089
-577.763	-200.000	-0.009	-0.350
-576.748	-83.902	-0.205	0.065
-575.733	-110.205	-0.246	-0.051
-574.719	800.000	0.088	-0.267
-573.704	211.066	0.163	-0.254
-572.690	-141.611	0.322	-0.032
-571.675	-191.178	0.169	0.002
-570.661	-186.901	-0.174	0.002
-569.646	-179.116	0.330	-0.007
-568.631	42.471	-0.190	-0.171
-567.617	99.115	0.060	-0.069
-566.602	-104.795	-0.161	-0.037
-565.588	-116.060	0.108	-0.020
-564.573	198.058	-0.186	0.282
-563.558	-52.045	0.203	-0.093
-562.544	800.000	0.061	-0.253
-561.529	-125.536	0.096	0.014
-560.515	800.000	-0.042	0.137
-559.500	24.623	-0.103	0.084
-558.485	-200.000	-0.059	-0.350
-557.471	33.068	-0.105	0.090
-556.456	156.871	0.244	-0.334
-555.442	-125.923	-0.278	0.041
-554.427	800.000	-0.046	-0.167
-553.412	-200.000	-0.072	-0.395
-552.398	-127.223	0.132	-0.019
-551.383	309.014	0.096	0.177
-550.369	72.090	-0.046	-0.047
-549.354	65.329	0.165	-0.166
-548.339	-97.815	0.179	0.046
-547.325	313.806	-0.183	-0.342
-546.310	-200.000	-0.047	-0.301
-545.296	124.691	0.105	-0.130
-544.281	307.278	-0.115	0.212
-543.266	-5.220	0.384	0.261
-542.252	-165.045	0.286	-0.013
-541.237	319.345	-0.063	0.118
-540.223	-76.301	-0.146	0.051
-539.208	-11.165	-0.129	-0.084
-538.193	28.976	0.064	0.054
-537.179	-200.000	0.154	0.000
-536.164	6.909	0.281	-0.207
-535.150	70.019	-0.134	0.137
-534.135	254.632	0.132	-0.223
-533.121	569.986	-0.127	-0.305
-532.106	800.000	-0.101	-0.327
-531.091	-24.802	-0.087	-0.051
-530.077	-100.318	-0.342	-0.084
-529.062	-200.000	0.030	-0.211
-528.048	618.246	-0.061	-0.151
-527.033	500.392	-0.108	0.247
-526.018	133.925	-0.109	0.140
-525.004	192.953	0.152	0.227
-523.989	-200.000	-0.012	-0.208
-522.975	189.348	-0.273	-0.404
-521.960	200.051	-0.177	-0.269
-520.945	278.646	-0.065	-0.114
-519.931	800.000	-0.089	0.255
-518.916	-30.934	-0.243	0.135
-517.902	-200.000	-0.032	-0.324
-516.887	-58.967	-0.265	0.113
-515.872	800.000	-0.051	-0.209
-514.858	-47.743	-0.179	-0.086
-513.843	293.071	0.135	-0.244
-512.829	-142.570	0.241	0.023
-511.814	800.000	-0.097	0.404
-510.799	-14.953	0.215	-0.136
-509.785	181.411	-0.217	-0.316
-508.770	377.777	-0.110	0.223
-507.756	-200.000	0.023	0.510
-506.741	-4.831	0.229	0.156
-505.726	-169.703	0.221	0.008
-504.712	-200.000	0.015	0.270
-503.697	-120.216	-0.171	0.029
-502.683	-93.743	0.104	0.028
-501.668	-23.311	0.266	0.158
-500.653	285.371	-0.130	0.232
-499.639	-200.000	-0.055	-0.301
-498.624	-105.644	0.430	0.096
-497.610	60.193	0.306	-0.299
-496.595	12.015	-0.150	-0.114
-495.581	800.000	0.052	0.190
-494.566	103.895	0.126	0.146
-493.551	120.169	0.131	-0.161
-492.537	-200.000	0.049	-0.365
-491.522	-179.599	-0.057	0.001
-490.508	-200.000	-0.049	0.293
-489.493	-46.740	-0.275	-0.133
-488.478	-101.732	0.270	0.065
-487.464	-19.983	0.143	-0.087
-486.449	23.529	0.121	-0.098
-485.435	-200.000	-0.006	0.042
-484.420	-5.374	0.151	0.102
-483.405	-200.000	0.009	-0.075
-482.391	-200.000	-0.669	0.003
-481.376	86.784	0.053	0.058
-480.362	-109.054	-0.361	0.076
-479.347	-192.406	0.227	0.002
-478.332	-81.933	-0.155	0.050
-477.318	619.638	0.034	0.085
-476.303	-200.000	-0.021	-0.302
-475.289	-118.833	0.195	-0.034
-474.274	800.000	-0.014	-0.040
-473.259	-200.000	-0.010	0.225
-472.245	-200.000	0.001	0.069
-471.230	800.000	-0.051	0.151
-470.216	246.317	-0.082	0.136
-469.201	-200.000	-0.015	-0.287
-468.186	-149.813	-0.273	-0.021
-467.172	-91.701	0.391	-0.110
-466.157	108.911	-0.097	0.115
-465.143	-85.028	0.469	0.145
-464.128	-200.000	0.061	0.413
-463.113	-200.000	0.027	-0.185
-462.099	-3.839	-0.111	-0.076
-461.084	800.000	-0.078	-0.251
-460.070	-200.000	0.019	0.138
-459.055	349.769	0.054	0.105
-458.040	532.389	-0.082	0.191
-457.026	449.378	-0.044	-0.096
-456.011	4.822	0.121	-0.087
-454.997	-56.681	0.143	-0.063
-453.982	299.828	-0.114	0.208
-452.968	-200.000	0.031	0.155
-451.953	-106.949	-0.310	-0.068
-450.938	-200.000	0.023	0.118
-449.924	208.084	0.173	-0.266
-448.909	-71.799	0.240	-0.088
-447.895	-200.000	-0.025	0.176
-446.880	-200.000	0.014	0.073
-445.865	-32.453	0.317	-0.174
-444.851	340.187	-0.099	-0.191
-443.836	800.000	0.032	-0.130
-442.822	-200.000	-0.006	0.327
-441.807	-17.286	0.114	0.071
-440.792	-200.000	0.028	0.147
-439.778	-61.816	0.120	0.050
-438.763	-143.047	-0.149	-0.014
-437.749	344.158	-0.057	-0.110
-436.734	-83.400	0.040	0.013
-435.719	37.920	0.198	0.173
-434.705	76.717	0.082	0.086
-433.690	-200.000	0.016	0.198
-432.676	249.001	-0.034	-0.058
-431.661	-59.654	-0.189	-0.080
-430.646	336.663	0.088	-0.168
-429.632	-200.000	0.010	-0.045
-428.617	398.757	-0.053	0.110
-427.603	-64.981	-0.141	0.056
-426.588	-200.000	-0.039	-0.266
-425.573	-27.734	0.344	0.197
-424.559	66.472	-0.087	0.087
-423.544	-95.624	-0.247	0.065
-422.530	130.586	0.175	0.221
-421.515	-138.787	-0.533	0.057
-420.500	-200.000	0.011	0.190
-419.486	800.000	-0.042	-0.157
-418.471	-123.308	0.258	-0.041
-417.457	-49.043	-0.185	0.087
-416.442	-200.000	0.020	-0.202
-415.428	242.295	0.037	0.061
-414.413	43.088	0.033	0.030
-413.398	71.460	0.138	0.141
-412.384	100.487	-0.071	0.081
-411.369	-121.192	0.139	0.023
-410.355	15.429	-0.150	-0.116
-409.340	15.645	0.057	-0.044
-408.325	281.731	0.047	0.084
-407.311	-91.683	-0.314	-0.088
-406.296	-200.000	-0.000	0.037
-405.282	-39.621	0.071	0.037
-404.267	800.000	-0.134	-0.389
-403.252	-200.000	0.024	-0.307
-402.238	800.000	-0.056	0.159
-401.223	91.481	0.131	0.145
-400.209	650.129	-0.031	-0.078
-399.194	647.781	-0.069	-0.174
-398.179	-200.000	0.071	0.411
-397.165	134.090	-0.131	0.167
-396.150	800.000	0.083	0.268
-395.136	3.665	-0.013	0.009
-394.121	303.493	-0.253	-0.462
-393.106	216.582	0.115	-0.181
-392.092	441.268	-0.033	-0.072
-391.077	800.000	-0.044	0.180
-390.063	-99.421	-0.320	0.079
-389.048	227.159	-0.049	0.079
-388.033	630.515	0.119	0.297
-387.019	-127.898	-0.097	-0.014
-386.004	-68.198	0.138	-0.053
-384.990	-200.000	0.068	0.295
-383.975	-12.288	0.049	-0.032
-382.960	-200.000	-0.320	-0.001
-381.946	-200.000	-0.050	0.348
-380.931	800.000	0.080	0.314
-379.917	-200.000	-0.055	0.482
-378.902	68.205	-0.166	0.168
-377.888	-137.957	0.133	0.015
-376.873	-101.169	-0.317	-0.076
-375.858	-58.642	0.201	0.086
-374.844	180.425	-0.138	-0.198
-373.829	-3.001	0.094	-0.065
-372.815	-95.944	0.374	-0.098
-371.800	-91.092	-0.080	0.023
-370.785	-200.000	-0.034	-0.268
-369.771	-70.830	0.257	-0.095
-368.756	95.614	0.152	-0.170
-367.742	-200.000	0.033	0.151
-366.727	360.530	0.169	0.332
-365.712	81.193	-0.126	-0.134
-364.698	198.647	0.016	-0.024
-363.683	482.209	0.081	-0.181
-362.669	10.293	-0.274	-0.205
-361.654	-22.710	-0.323	-0.192
-360.639	126.078	0.134	-0.167
-359.625	-42.893	0.376	0.188
-358.610	800.000	-0.031	-0.126
-357.596	-46.596	-0.101	0.049
-356.581	-65.978	0.252	-0.099
-355.566	544.355	-0.114	0.267
-354.552	606.992	0.033	-0.081
-353.537	263.208	0.109	0.185
-352.523	-70.509	0.370	0.138
-351.508	69.460	-0.140	0.142
-350.493	199.055	-0.118	-0.178
-349.479	728.490	0.056	0.148
-348.464	-3.446	0.005	0.004
-347.450	-200.000	0.067	0.649
-346.435	-130.661	0.289	-0.038
-345.420	800.000	-0.106	-0.309
-344.406	-144.161	0.062	0.006
-343.391	-200.000	-0.041	0.371
-342.377	83.438	0.242	-0.259
-341.362	127.427	-0.123	-0.153
-340.348	201.998	-0.314	-0.475
-339.333	676.559	-0.103	0.262
-338.318	-36.554	0.176	-0.093
-337.304	232.913	-0.309	-0.499
-336.289	-56.867	0.143	-0.062
-335.275	58.309	-0.112	0.108
-334.260	15.866	-0.198	-0.153
-333.245	116.617	0.208	0.250
-332.231	-88.088	-0.193	-0.057
-331.216	-137.766	-0.206	0.023
-330.202	-22.525	0.088	-0.053
-329.187	22.097	0.353	0.283
-328.172	-138.645	-0.398	-0.043
-327.158	-200.000	0.019	0.098
-326.143	-200.000	-0.005	-0.119
-325.129	-140.929	-0.327	0.033
-324.114	-26.974	0.043	0.025
-323.099	196.259	0.012	0.017
-322.085	-95.673	-0.150	-0.040
-321.070	-135.171	0.276	-0.033
-320.056	36.310	-0.336	-0.290
-319.041	61.210	0.263	0.256
-318.026	56.167	0.267	0.255
-317.012	-61.894	-0.445	-0.183
-315.997	-47.898	0.195	-0.093
-314.983	227.933	0.303	0.485
-313.968	-183.433	-0.351	-0.006
-312.953	-171.483	0.160	0.005
-311.939	-85.251	0.038	0.012
-310.924	-81.719	-0.295	-0.095
-309.910	-90.660	-0.260	0.074
-308.895	800.000	-0.093	0.325
-307.880	-125.449	0.166	-0.025
-306.866	-77.737	-0.052	-0.018
-305.851	44.836	0.209	-0.189
-304.837	800.000	-0.144	0.396
-303.822	-200.000	-0.001	0.036
-302.807	-200.000	-0.042	0.342
-301.793	-200.000	-0.005	-0.159
-300.778	8.994	0.259	0.192
-299.764	-19.447	-0.161	0.098
-298.749	-200.000	-0.015	-0.203
-297.735	-57.934	0.103	0.044
-296.720	-82.520	0.099	-0.031
-295.705	-38.617	0.211	0.109
-294.691	-200.000	-0.015	0.434
-293.676	33.149	0.195	0.166
-292.662	338.151	0.155	-0.296
-291.647	5.237	-0.231	-0.167
-290.632	-71.912	0.359	-0.131
-289.618	49.486	-0.046	0.042
-288.603	115.418	0.084	-0.101
-287.589	-200.000	0.037	-0.267
-286.574	-109.996	-0.333	0.068
-285.559	-200.000	0.001	0.306
-284.545	-171.998	0.032	-0.001
-283.530	198.030	0.051	0.077
-282.516	-6.853	-0.282	0.188
-281.501	177.187	0.107	0.153
-280.486	29.851	-0.146	-0.122
-279.472	578.620	0.097	0.232
-278.457	332.481	-0.138	0.261
-277.443	193.062	0.062	-0.092
-276.428	-190.645	-0.243	0.003
-275.413	450.430	0.125	0.270
-274.399	622.888	-0.006	0.015
-273.384	-27.007	-0.064	-0.037
-272.370	65.221	0.122	-0.121
-271.355	166.493	-0.151	0.210
-270.340	-179.561	0.332	-0.007
-269.326	800.000	0.060	0.223
-268.311	75.518	-0.240	0.248
-267.297	536.832	-0.082	-0.191
-266.282	-39.082	0.176	-0.091
-265.267	-72.411	0.379	0.137
-264.253	-102.671	0.114	-0.027
-263.238	-200.000	-0.045	0.523
-262.224	38.616	0.145	0.127
-261.209	50.305	-0.073	-0.068
-260.195	244.305	0.016	0.026
-259.180	162.439	-0.105	0.144
-258.165	35.434	0.041	0.035
-257.151	9.811	-0.243	-0.180
-256.136	-84.193	0.162	-0.050
-255.122	-92.086	-0.174	-0.048
-254.107	277.800	0.119	0.207
-253.092	-82.494	-0.055	0.018
-252.078	39.512	-0.179	-0.157
-251.063	800.000	-0.101	-0.296
-250.049	79.597	-0.160	-0.169
-249.034	505.476	0.117	-0.264
-248.019	8.036	-0.133	-0.098
-247.005	241.491	-0.109	0.179
-245.990	77.851	0.136	0.142
-244.976	82.979	0.041	-0.044
-243.961	-142.155	0.256	-0.025
-242.946	800.000	-0.080	-0.342
-241.932	238.459	-0.105	0.170
-240.917	43.151	0.144	0.129
-239.903	-118.386	-0.124	0.022
-238.888	-120.374	-0.306	0.051
-237.873	-50.408	0.088	0.041
-236.859	99.421	0.214	-0.242
-235.844	609.836	0.102	-0.250
-234.830	-40.095	-0.071	-0.036
-233.815	-76.869	-0.285	-0.097
-232.800	48.573	0.170	0.156
-231.786	542.709	-0.018	-0.041
-230.771	-109.956	0.371	0.076
-229.757	-200.000	-0.017	-0.121
-228.742	800.000	0.107	0.337
-227.727	-155.431	0.329	0.021
-226.713	158.731	-0.179	-0.243
-225.698	-152.206	-0.040	0.003
-224.684	202.048	-0.160	0.242
-223.669	663.603	0.072	-0.183
-222.655	-3.562	0.205	-0.140
-221.640	693.227	0.058	-0.149
-220.625	71.901	0.245	-0.249
-219.611	-200.000	-0.063	0.341
-218.596	800.000	-0.134	0.395
-217.582	155.394	-0.097	0.130
-216.567	800.000	-0.039	0.137
-215.552	-78.459	0.054	-0.018
-214.538	-159.899	-0.156	-0.008
-213.523	229.983	0.273	0.435
-212.509	800.000	-0.099	0.301
-211.494	-64.918	-0.372	0.147
-210.479	572.423	-0.114	0.271
-209.465	675.056	0.064	-0.161
-208.450	190.495	-0.098	0.144
-207.436	259.823	-0.222	-0.374
-206.421	-126.212	-0.267	0.039
-205.406	-19.307	0.265	-0.160
-204.392	800.000	-0.021	0.059
-203.377	800.000	0.069	0.268
-202.363	72.213	0.058	-0.059
-201.348	-200.000	0.011	0.196
-200.333	77.516	0.153	-0.159
-199.319	389.887	-0.082	0.166
-198.304	-86.164	-0.170	0.051
-197.290	223.591	-0.147	0.232
-196.275	71.760	0.429	0.435
-195.260	-140.044	0.120	0.012
-194.246	314.385	-0.210	0.386
-193.231	79.586	0.083	-0.087
-192.217	-200.000	-0.032	-0.138
-191.202	-98.453	0.259	0.065
-190.187	-72.870	0.118	0.042
-189.173	22.034	-0.153	-0.122
-188.158	15.019	-0.146	0.112
-187.144	-86.700	-0.146	0.043
-186.129	800.000	-0.114	-0.450
-185.114	-100.578	0.202	0.049
-184.100	190.790	0.131	-0.193
-183.085	23.681	-0.369	-0.297
-182.071	10.072	0.104	-0.077
-181.056	-100.588	-0.228	0.055
-180.042	-122.565	0.138	0.022
-179.027	-102.357	-0.275	0.064
-178.012	-62.928	0.270	-0.109
-176.998	-106.180	-0.259	-0.057
-175.983	76.418	0.153	0.158
-174.969	92.676	0.116	-0.127
-173.954	545.215	-0.116	-0.272
-172.939	184.923	-0.145	-0.210
-171.925	21.143	0.068	-0.054
-170.910	59.618	-0.096	-0.093
-169.896	336.567	-0.124	-0.236
-168.881	115.546	0.174	-0.208
-167.866	-36.807	0.148	-0.077
-166.852	-176.590	0.064	-0.002
-165.837	644.867	-0.056	0.139
-164.823	271.085	0.070	0.120
-163.808	-153.920	0.233	0.016
-162.793	163.203	-0.159	-0.219
-161.779	800.000	-0.030	0.095
-160.764	-200.000	-0.042	0.327
-159.750	50.964	-0.166	0.154
-158.735	63.356	-0.043	-0.042
-157.720	372.438	0.090	0.179
-156.706	410.776	0.119	0.246
-155.691	-57.710	0.253	-0.108
-154.677	93.046	-0.040	-0.044
-153.662	-86.288	0.332	-0.100
-152.647	788.082	0.038	0.101
-151.633	-66.630	0.206	0.080
-150.618	-200.000	-0.015	0.099
-149.604	-200.000	0.019	0.151
-148.589	135.206	0.048	-0.061
-147.574	800.000	0.119	0.390
-146.560	115.835	-0.167	-0.200
-145.545	22.913	-0.099	-0.079
-144.531	288.636	0.054	-0.096
-143.516	-168.085	0.376	-0.014
-142.502	-36.080	-0.190	0.100
-141.487	-131.273	0.223	-0.029
-140.472	800.000	0.043	0.168
-139.458	-152.221	0.264	-0.019
-138.443	-87.667	-0.282	-0.083
-137.429	-200.000	0.002	0.175
-136.414	60.893	0.162	0.157
-135.399	-77.870	0.450	0.151
-134.385	-200.000	-0.003	-0.153
-133.370	-108.242	-0.099	-0.021
-132.356	800.000	-0.055	-0.193
-131.341	-62.704	0.484	0.195
-130.326	15.561	-0.112	0.086
-129.312	97.271	0.139	-0.156
-128.297	-200.000	0.102	-0.455
-127.283	28.041	-0.394	-0.324
-126.268	-1.894	0.065	0.044
-125.253	21.110	0.094	-0.074
-124.239	48.205	0.183	0.166
-123.224	800.000	-0.080	0.303
-122.210	-61.090	0.106	0.044
-121.195	163.591	0.079	0.109
-120.180	126.029	0.142	0.174
-119.166	23.285	0.150	0.120
-118.151	641.163	-0.049	-0.121
-117.137	-130.276	0.214	0.028
-116.122	31.907	-0.131	0.109
-115.107	-64.274	-0.219	0.087
-114.093	130.403	-0.177	-0.221
-113.078	-200.000	-0.053	0.228
-112.064	-148.728	0.595	0.047
-111.049	42.710	0.080	0.071
-110.034	-200.000	-0.015	-0.252
-109.020	800.000	0.062	-0.181
-108.005	169.709	-0.089	-0.124
-106.991	210.821	-0.181	-0.278
-105.976	-200.000	-0.024	-0.452
-104.962	219.294	-0.018	-0.027
-103.947	-44.649	0.235	-0.114
-102.932	-46.608	-0.267	-0.127
-101.918	-23.209	0.236	0.138
-100.903	-10.016	-0.119	-0.077
-99.889	-126.429	-0.099	-0.014
-98.874	-15.615	0.292	0.181
-97.859	-200.000	-0.018	-0.093
-96.845	412.365	-0.043	-0.089
-95.830	99.040	0.050	-0.057
-94.816	68.433	-0.093	0.093
-93.801	21.686	0.233	0.184
-92.786	800.000	-0.044	0.173
-91.772	-47.349	-0.155	0.074
-90.757	-31.086	0.246	0.135
-89.743	-35.464	0.241	-0.127
-88.728	-50.763	-0.329	0.151
-87.713	-200.000	-0.002	0.027
-86.699	800.000	0.104	-0.286
-85.684	-132.347	0.113	-0.014
-84.670	-125.452	0.188	-0.028
-83.655	31.662	0.015	-0.013
-82.640	-200.000	0.045	0.248
-81.626	696.835	0.030	-0.076
-80.611	-2.067	0.008	0.006
-79.597	295.281	-0.196	-0.349
-78.582	782.781	-0.040	-0.106
-77.567	72.677	0.114	-0.115
-76.553	294.218	-0.046	0.082
-75.538	-167.294	0.105	-0.004
-74.524	-39.955	0.152	0.077
-73.509	231.224	-0.157	0.250
-72.494	290.516	-0.095	-0.167
-71.480	-200.000	0.102	0.452
-70.465	-200.000	0.030	0.384
-69.451	30.509	0.046	0.038
-68.436	383.028	0.102	-0.203
-67.422	-85.014	0.277	0.084
-66.407	-131.693	0.075	-0.010
-65.392	246.704	-0.084	0.137
-64.378	84.011	0.191	-0.203
-63.363	-20.135	-0.241	-0.144
-62.349	-114.726	0.205	-0.038
-61.334	63.882	-1.214	-1.185
-60.319	5.718	0.920	0.660
-59.305	322.249	-0.600	-1.109
-58.290	175.335	0.880	1.239
-57.276	518.276	0.662	1.505
-56.261	-200.000	136.922	638.092
-55.246	338.097	1658.795	3134.803
-54.232	135.136	2801.860	3536.586
-53.217	78.617	2307.078	2395.392
-52.203	28.353	1908.205	1565.986
-51.188	22.828	1703.482	1355.631
-50.173	20.991	1666.560	1312.381
-49.159	41.990	1741.456	1534.452
-48.144	38.770	1748.606	1515.853
-47.130	22.265	1700.842	1348.996
-46.115	20.027	1684.897	1319.270
-45.100	19.843	1680.259	1314.187
-44.086	19.861	1677.177	1311.863
-43.071	19.826	1674.661	1309.580
-42.057	19.803	1672.586	1307.726
-41.042	19.842	1670.445	1306.295
-40.027	19.841	1668.901	1305.029
-39.013	19.843	1666.989	1303.497
-37.998	19.841	1665.262	1302.083
-36.984	19.862	1664.253	1301.397
-35.969	19.889	1662.750	1300.373
-34.954	19.979	1660.743	1299.432
-33.940	19.952	1659.451	1298.162
-32.925	19.842	1657.968	1296.128
-31.911	19.968	1655.607	1295.178
-30.896	19.896	1654.486	1293.706
-29.881	19.948	1652.604	1292.570
-28.867	19.948	1651.157	1291.386
-27.852	19.961	1650.269	1290.741
-26.838	19.989	1648.767	1289.721
-25.823	19.977	1647.837	1288.855
-24.809	20.073	1646.293	1288.311
-23.794	20.011	1644.715	1286.562
-22.779	20.037	1642.991	1285.356
-21.765	20.060	1641.169	1284.052
-20.750	20.071	1639.448	1282.737
-19.736	20.043	1638.735	1281.918
-18.721	19.998	1637.441	1280.526
-17.706	20.122	1635.279	1279.697
-16.692	20.082	1633.744	1278.152
-15.677	20.013	1632.733	1276.798
-14.663	20.099	1631.249	1276.223
-13.648	20.126	1629.691	1275.151
-12.633	20.007	1628.821	1273.545
-11.619	20.094	1626.891	1272.628
-10.604	20.094	1625.545	1271.521
-9.590	20.080	1623.940	1270.111
-8.575	20.051	1623.194	1269.266
-7.560	20.062	1622.070	1268.420
-6.546	20.150	1620.274	1267.605
-5.531	20.076	1619.950	1266.764
-4.517	20.026	1618.532	1265.239
-3.502	20.002	1617.641	1264.314
-2.487	20.065	1615.770	1263.259
-1.473	19.563	1603.213	1249.760
-0.458	16.399	1582.802	1211.155
0.556	11.545	1585.063	1178.031
1.571	9.271	1609.011	1179.058
2.586	9.064	1621.317	1186.440
3.600	8.640	1566.361	1143.096
4.615	4.983	1463.046	1043.168
5.629	1.271	1408.485	980.237
6.644	0.662	1401.890	971.646
7.659	0.688	1400.764	970.942
8.673	0.573	1400.297	969.797
9.688	0.527	1397.864	967.728
10.702	0.491	1394.235	964.901
11.717	2.385	1396.146	978.258
12.731	7.931	1404.396	1019.544
13.746	14.264	1414.570	1067.568
14.761	16.833	1418.932	1087.267
15.775	16.680	1416.525	1084.349
16.790	15.641	1413.935	1075.625
17.804	14.841	1411.524	1068.585
18.819	14.444	1410.097	1064.870
19.834	14.350	1408.949	1063.308
20.848	14.109	1407.793	1060.806
21.863	13.798	1406.303	1057.607
22.877	13.659	1405.335	1055.900
23.892	13.694	1403.935	1054.980
24.907	13.509	1403.603	1053.462
25.921	13.594	1402.520	1053.096
26.936	13.623	1401.980	1052.779
27.950	13.604	1400.551	1051.491
28.965	13.687	1399.338	1051.012
29.980	13.728	1398.498	1050.548
30.994	13.779	1397.628	1050.127
32.009	13.878	1396.809	1050.047
33.023	13.766	1395.576	1048.320
34.038	13.808	1393.892	1047.227
35.053	13.744	1392.908	1045.988
36.067	13.776	1392.543	1045.821
37.082	13.772	1391.467	1044.898
38.096	13.776	1390.459	1044.072
39.111	13.803	1389.842	1043.686
40.126	13.778	1388.723	1042.596
41.140	13.717	1387.649	1041.320
42.155	13.568	1387.713	1040.338
43.169	13.576	1387.429	1040.080
44.184	13.624	1386.628	1039.692
45.199	13.609	1386.631	1039.510
46.213	13.625	1386.047	1039.078
47.228	13.733	1384.571	1038.554
48.242	13.696	1383.613	1037.512
49.257	13.725	1381.682	1036.153
50.271	13.665	1380.520	1034.821
51.286	13.629	1379.476	1033.717
52.301	13.764	1377.443	1032.945
53.315	13.580	1376.927	1031.325
54.330	13.718	1375.172	1030.776
55.344	13.664	1374.485	1029.834
56.359	13.649	1373.579	1028.969
57.374	13.654	1372.413	1028.035
58.388	13.545	1371.719	1026.750
59.403	13.699	1370.621	1026.788
60.417	13.628	1370.379	1026.076
61.432	13.512	1369.595	1024.686
62.447	13.570	1368.832	1024.378
63.461	13.574	1367.189	1023.086
64.476	13.503	1366.597	1022.116
65.490	13.517	1365.391	1021.207
66.505	13.499	1363.467	1019.568
67.520	13.547	1362.148	1018.787
68.534	13.592	1361.087	1018.180
69.549	13.471	1360.405	1016.837
70.563	13.603	1358.905	1016.432
71.578	13.532	1357.802	1015.081
72.593	13.491	1356.841	1014.023
73.607	13.552	1355.846	1013.566
74.622	13.455	1355.269	1012.448
75.636	13.521	1354.168	1011.941
76.651	13.539	1353.461	1011.431
77.666	13.506	1352.973	1010.774
78.680	13.501	1352.694	1010.451
79.695	13.502	1351.454	1009.437
80.709	13.625	1350.530	1009.406
81.724	13.495	1350.289	1008.350
82.739	13.545	1349.015	1007.610
83.753	13.697	1347.666	1007.441
84.768	13.728	1346.669	1006.793
85.782	13.784	1345.621	1006.256
86.797	13.728	1344.038	1004.644
87.812	13.700	1342.772	1003.443
88.826	13.669	1341.392	1002.134
89.841	13.623	1340.624	1001.196
90.855	13.672	1339.669	1000.689
91.870	13.676	1338.672	999.880
92.884	13.827	1337.386	999.737
93.899	13.729	1337.143	998.879
94.914	13.864	1335.822	998.619
95.928	13.895	1335.498	998.470
96.943	13.822	1334.629	997.293
97.957	13.766	1333.748	996.216
98.972	13.727	1332.717	995.120
99.987	13.736	1331.560	994.220
101.001	13.709	1330.346	993.064
102.016	13.673	1329.562	992.179
103.030	13.869	1328.386	992.385
104.045	13.809	1327.328	991.149
105.060	13.745	1325.891	989.606
106.074	13.676	1324.984	988.432
107.089	13.585	1323.670	986.822
108.103	13.656	1322.043	985.945
109.118	13.616	1320.744	984.649
110.133	13.577	1319.707	983.559
111.147	13.660	1317.946	982.651
112.162	13.653	1316.982	981.804
113.176	13.573	1316.156	980.625
114.191	13.641	1315.100	980.156
115.206	13.752	1313.599	979.604
116.220	13.657	1312.392	978.059
117.235	13.706	1311.811	977.828
118.249	13.752	1310.814	977.266
119.264	13.730	1309.426	976.016
120.279	13.676	1308.115	974.636
121.293	13.700	1307.167	973.985
122.308	13.687	1305.954	972.920
123.322	13.699	1305.123	972.283
124.337	13.640	1304.264	971.215
125.352	13.634	1302.995	970.149
126.366	13.583	1301.991	969.017
127.381	13.606	1300.463	967.929
128.395	13.626	1299.436	967.191
129.410	13.698	1298.384	966.745
130.424	13.736	1297.917	966.535
131.439	13.716	1296.704	965.425
132.454	13.718	1295.506	964.463
133.468	13.635	1294.905	963.448
134.483	13.656	1293.879	962.719
135.497	13.773	1292.762	962.484
136.512	13.739	1291.369	961.165
137.527	13.689	1290.087	959.832
138.541	13.727	1288.673	958.917
139.556	13.743	1287.129	957.778
140.570	13.706	1286.658	957.125
141.585	13.766	1285.257	956.348
142.600	13.832	1284.021	955.721
143.614	13.920	1282.857	955.277
144.629	13.926	1282.117	954.673
145.643	13.872	1280.721	953.243
146.658	13.768	1280.066	952.075
147.673	13.804	1278.260	950.855
148.687	13.826	1277.264	950.151
149.702	13.773	1275.731	948.627
150.716	13.805	1274.733	947.981
151.731	13.760	1273.641	946.831
152.746	13.860	1272.298	946.317
153.760	13.813	1271.039	945.032
154.775	13.990	1269.770	945.012
155.789	13.980	1268.785	944.137
156.804	14.018	1268.141	943.791
157.819	13.887	1267.093	942.181
158.833	14.014	1265.662	941.753
159.848	14.091	1264.568	941.295
160.862	14.055	1263.226	940.008
161.877	14.035	1262.753	939.459
162.892	13.971	1261.578	938.138
163.906	13.953	1260.510	937.163
164.921	14.022	1259.472	936.693
165.935	13.982	1258.974	936.017
166.950	13.926	1257.954	934.861
167.964	14.059	1257.238	934.996
168.979	14.005	1257.029	934.454
169.994	14.023	1255.898	933.632
171.008	14.037	1255.068	933.008
172.023	14.114	1254.171	932.693
173.037	14.243	1252.926	932.406
174.052	14.187	1251.888	931.235
175.067	14.116	1251.320	930.335
176.081	14.034	1250.057	928.855
177.096	13.960	1249.916	928.256
178.110	14.165	1248.170	928.023
179.125	14.174	1246.790	926.964
180.140	14.194	1245.815	926.265
181.154	14.160	1244.592	925.086
182.169	14.034	1243.407	923.425
183.183	14.267	1241.882	923.500
184.198	14.275	1240.725	922.605
185.213	14.269	1239.591	921.647
186.227	14.341	1238.895	921.443
187.242	14.403	1237.411	920.605
188.256	14.315	1236.759	919.548
189.271	14.408	1235.817	919.284
190.286	14.284	1234.921	917.853
191.300	14.278	1233.617	916.767
192.315	14.127	1233.880	916.052
193.329	14.145	1232.513	915.055
194.344	14.238	1232.126	915.196
195.359	14.188	1231.643	914.479
196.373	14.376	1231.028	914.977
197.388	14.304	1230.583	914.171
198.402	14.420	1229.784	914.133
199.417	14.488	1229.076	913.897
200.432	14.471	1227.791	912.767
201.446	14.544	1226.902	912.423
202.461	14.566	1226.330	912.038
203.475	14.659	1225.240	911.658
204.490	14.565	1223.647	909.879
205.504	14.467	1223.315	909.017
206.519	14.423	1221.612	907.428
207.534	14.490	1220.461	906.858
208.548	14.464	1219.810	906.152
209.563	14.574	1218.955	906.034
210.577	14.514	1217.804	904.774
211.592	14.557	1217.271	904.530
212.607	14.649	1216.142	904.110
213.621	14.608	1215.401	903.260
214.636	14.628	1214.433	902.570
215.650	14.747	1213.252	902.253
216.665	14.739	1212.230	901.369
217.680	14.673	1211.907	900.695
218.694	14.771	1210.392	900.015
219.709	14.565	1210.412	898.844
220.723	14.680	1208.909	898.267
221.738	14.751	1208.372	898.168
222.753	14.643	1207.648	896.972
223.767	14.628	1207.376	896.606
224.782	14.893	1206.090	896.995
225.796	14.927	1204.983	896.276
226.811	14.932	1204.776	896.068
227.826	14.857	1203.824	894.877
228.840	14.846	1203.110	894.213
229.855	14.931	1202.455	894.100
230.869	14.840	1201.811	893.056
231.884	14.818	1201.357	892.523
232.899	14.890	1200.036	891.848
233.913	14.812	1199.706	891.105
234.928	14.982	1198.655	891.149
235.942	14.920	1197.892	890.176
236.957	14.909	1197.000	889.376
237.972	14.917	1196.394	888.887
238.986	14.876	1195.599	888.001
240.001	14.988	1194.955	888.038
241.015	14.870	1194.336	886.875
242.030	14.916	1193.517	886.431
243.045	14.958	1192.685	885.957
244.059	15.067	1191.574	885.633
245.074	15.010	1191.434	885.148
246.088	15.072	1190.342	884.586
247.103	15.131	1189.226	883.991
248.117	15.128	1188.576	883.413
249.132	15.233	1188.117	883.545
250.147	15.257	1187.030	882.784
251.161	15.199	1186.358	881.904
252.176	15.322	1185.082	881.523
253.190	15.354	1184.742	881.357
254.205	15.350	1184.489	881.074
255.220	15.403	1183.707	880.689
256.234	15.366	1183.142	879.999
257.249	15.398	1182.145	879.349
258.263	15.432	1181.355	878.861
259.278	15.420	1181.101	878.532
260.293	15.249	1180.953	877.445
261.307	15.330	1180.204	877.238
262.322	15.467	1178.930	876.926
263.336	15.465	1178.281	876.359
264.351	15.555	1177.768	876.368
265.366	15.624	1177.035	876.102
266.380	15.492	1176.457	874.906
267.395	15.579	1175.663	874.694
268.409	15.537	1174.962	873.876
269.424	15.518	1174.286	873.198
270.439	15.514	1174.088	872.950
271.453	15.655	1172.663	872.547
272.468	15.623	1171.782	871.650
273.482	15.659	1170.835	871.056
274.497	15.520	1171.208	870.531
275.512	15.630	1169.962	870.101
276.526	15.664	1169.263	869.677
277.541	15.583	1168.213	868.400
278.555	15.650	1167.957	868.479
279.570	15.816	1166.315	868.039
280.585	15.761	1166.149	867.558
281.599	15.784	1164.936	866.694
282.614	15.827	1163.845	866.030
283.628	15.766	1162.954	864.977
284.643	15.627	1162.468	863.823
285.657	15.836	1161.812	864.331
286.672	15.708	1160.543	862.657
287.687	15.712	1160.019	862.209
288.701	15.839	1158.834	861.903
289.716	15.772	1158.173	860.990
290.730	15.762	1157.449	860.325
291.745	15.842	1156.585	860.018
292.760	15.945	1155.890	859.952
293.774	15.923	1155.305	859.327
294.789	15.886	1154.641	858.569
295.803	15.985	1153.754	858.336
296.818	15.950	1153.197	857.667
297.833	15.938	1152.435	856.965
298.847	16.056	1151.559	856.838
299.862	16.099	1150.556	856.234
300.876	15.999	1150.176	855.369
301.891	16.031	1149.459	854.923
302.906	16.073	1148.485	854.336
303.920	16.108	1148.050	854.110
304.935	16.145	1147.251	853.630
305.949	16.162	1146.586	853.146
306.964	16.114	1146.207	852.544
307.979	16.220	1144.983	852.093
308.993	16.153	1144.607	851.401
310.008	16.222	1143.371	850.755
311.022	16.193	1143.014	850.264
312.037	16.039	1142.270	848.862
313.052	16.101	1141.389	848.447
314.066	16.159	1140.096	847.699
315.081	16.312	1139.142	847.686
316.095	16.311	1138.212	846.910
317.110	16.190	1137.863	845.968
318.125	16.133	1137.125	845.062
319.139	16.309	1135.956	844.998
320.154	16.136	1135.874	843.999
321.168	16.292	1135.398	844.347
322.183	16.270	1134.674	843.625
323.197	16.258	1133.983	842.977
324.212	16.233	1133.388	842.334
325.227	16.256	1132.799	841.940
326.241	16.339	1132.086	841.749
327.256	16.348	1131.351	841.173
328.270	16.423	1130.121	840.555
329.285	16.357	1129.446	839.652
330.300	16.230	1128.702	838.392
331.314	16.304	1127.674	837.923
332.329	16.440	1125.946	837.237
333.343	16.454	1125.327	836.773
334.358	16.493	1124.541	836.306
335.373	16.570	1124.037	836.241
336.387	16.557	1123.432	835.651
337.402	16.414	1122.794	834.397
338.416	16.561	1122.053	834.499
339.431	16.520	1121.164	833.559
340.446	16.604	1120.530	833.431
341.460	16.604	1119.598	832.663
342.475	16.631	1118.833	832.149
343.489	16.675	1118.283	831.887
344.504	16.668	1116.960	830.794
345.519	16.763	1116.162	830.594
346.533	16.753	1115.631	830.072
347.548	16.836	1114.727	829.733
348.562	16.823	1113.672	828.810
349.577	16.630	1113.133	827.396
350.592	16.724	1112.503	827.310
351.606	16.863	1111.363	827.071
352.621	16.756	1110.794	826.052
353.635	16.876	1109.802	825.827
354.650	16.727	1109.562	824.848
355.665	16.801	1108.843	824.601
356.679	16.799	1108.159	824.008
357.694	16.830	1107.603	823.674
358.708	16.945	1106.943	823.670
359.723	16.848	1106.433	822.745
360.738	16.795	1105.984	822.083
361.752	16.992	1104.726	822.026
362.767	16.833	1104.526	821.034
363.781	16.803	1104.235	820.603
364.796	16.975	1103.263	820.639
365.810	16.932	1102.834	820.039
366.825	16.985	1102.377	819.883
367.840	17.027	1101.425	819.307
368.854	17.127	1100.523	819.043
369.869	17.107	1099.814	818.347
370.883	17.168	1099.012	817.974
371.898	17.131	1098.401	817.269
372.913	17.174	1097.615	816.819
373.927	17.004	1097.607	815.922
374.942	17.050	1096.809	815.477
375.956	17.054	1096.646	815.301
376.971	17.102	1095.929	814.929
377.986	17.216	1095.097	814.785
379.000	17.153	1094.858	814.234
380.015	17.348	1093.891	814.374
381.029	17.240	1092.982	813.111
382.044	17.356	1092.311	813.094
383.059	17.365	1091.539	812.488
384.073	17.332	1090.899	811.784
385.088	17.357	1090.014	811.172
386.102	17.299	1089.145	810.177
387.117	17.305	1087.649	809.022
388.132	17.359	1087.398	809.019
389.146	17.346	1086.159	807.964
390.161	17.321	1085.884	807.570
391.175	17.344	1084.995	806.946
392.190	17.470	1084.136	806.835
393.205	17.503	1083.337	806.323
394.219	17.506	1082.698	805.789
395.234	17.494	1081.935	805.097
396.248	17.518	1080.518	804.084
397.263	17.535	1079.731	803.507
398.278	17.450	1079.491	802.857
399.292	17.553	1078.433	802.482
400.307	17.594	1077.473	801.890
401.321	17.531	1077.162	801.291
402.336	17.479	1076.644	800.589
403.350	17.507	1075.844	800.057
404.365	17.490	1074.800	799.128
405.380	17.446	1074.473	798.609
406.394	17.510	1073.623	798.206
407.409	17.557	1073.013	797.905
408.423	17.584	1071.863	797.103
409.438	17.736	1071.367	797.376
410.453	17.808	1070.433	796.947
411.467	17.746	1069.517	795.905
412.482	17.714	1069.049	795.336
413.496	17.783	1068.735	795.354
414.511	17.726	1068.262	794.665
415.526	17.879	1067.787	794.953
416.540	17.848	1067.510	794.536
417.555	17.913	1066.899	794.312
418.569	17.863	1066.024	793.356
419.584	17.883	1065.375	792.898
420.599	17.843	1065.266	792.559
421.613	109.417	1333.307	1491.893
422.628	101.137	1372.290	1491.948
