DTS Sentinel unit serial number:	SN413079Multiplexer serial number:	ORYXHardware model number:	OX4-SRSoftware version number:	ORYX F/W v4.00 Oryx Data Collector v3.7.2.0data status	okinstallation	princeton_trtdifferential loss correction	single-endedforward channel	channel 2reverse channel	N/Adate	2019/09/16time	11:43:35forward acquisition time	60.00reverse acquisition time	0.00gamma	496.2192k internal	0.2308k external	0.2308temperature offset calibration	0.9957default loss term (dB/km)	0.3790temperature slope calibration	1.0000multiplexer offset coefficient	1.0000multiplexer slope coefficient	1.0000fibre end	0.00T internal ref (°C)	38.08T ext. ref 1 (°C)	13.04T ext. ref 2 (°C)	35.26length (m)	temperature (°C)	Stokes	anti-Stokes-747.200	-8.274	0.278	0.190
-746.185	77.596	-0.052	-0.057
-745.171	754.049	-0.099	0.273
-744.156	-50.740	-0.259	-0.124
-743.142	-12.446	0.439	-0.291
-742.127	-178.586	-0.390	0.009
-741.112	39.982	0.087	-0.079
-740.098	120.114	-0.195	-0.245
-739.083	8.780	0.175	0.134
-738.069	800.000	-0.072	0.277
-737.054	-5.599	-0.261	-0.182
-736.039	214.635	0.084	0.136
-735.025	-49.143	0.400	0.194
-734.010	220.062	-0.077	0.125
-732.996	-53.416	0.046	0.021
-731.981	175.805	0.030	0.044
-730.966	112.810	-0.061	0.075
-729.952	-51.780	-0.481	-0.228
-728.937	162.968	0.110	0.157
-727.923	-16.189	0.099	-0.064
-726.908	76.591	-0.220	0.237
-725.894	-200.000	-0.033	0.444
-724.879	167.355	-0.216	0.311
-723.864	-18.665	-0.102	0.065
-722.850	-59.038	0.120	0.052
-721.835	-200.000	-0.040	-0.208
-720.821	-158.830	-0.054	0.003
-719.806	125.441	-0.141	-0.180
-718.791	6.339	-0.388	-0.292
-717.777	-30.759	-0.109	0.063
-716.762	-200.000	0.028	0.137
-715.748	302.571	0.105	0.197
-714.733	-108.984	0.238	0.052
-713.718	-200.000	-0.042	-0.189
-712.704	-200.000	0.004	-0.252
-711.689	-43.411	-0.197	-0.101
-710.675	-98.465	0.253	0.066
-709.660	-170.557	-0.170	-0.006
-708.645	-200.000	-0.021	0.169
-707.631	-97.550	0.168	-0.044
-706.616	-4.830	-0.090	0.063
-705.602	-26.594	-0.187	-0.111
-704.587	366.685	-0.133	-0.272
-703.572	-29.824	0.044	0.025
-702.558	-200.000	0.027	0.135
-701.543	-76.303	-0.072	-0.026
-700.529	30.207	-0.277	0.240
-699.514	-100.455	0.100	-0.025
-698.499	395.992	-0.011	0.024
-697.485	76.453	-0.482	-0.518
-696.470	-17.170	-0.205	0.131
-695.456	-58.589	0.309	-0.136
-694.441	-122.136	0.149	0.025
-693.426	-150.754	0.386	-0.030
-692.412	-94.937	-0.136	0.037
-691.397	-200.000	0.015	0.104
-690.383	-110.208	-0.184	0.039
-689.368	-200.000	-0.005	-0.064
-688.354	-34.823	0.126	0.070
-687.339	-200.000	0.063	-0.427
-686.324	268.479	-0.076	0.135
-685.310	-81.968	-0.378	-0.125
-684.295	656.118	-0.071	-0.186
-683.281	1.679	-0.059	0.043
-682.266	370.765	-0.049	-0.101
-681.251	240.086	-0.115	-0.195
-680.237	-122.350	-0.288	0.048
-679.222	-200.000	0.018	0.157
-678.208	-185.890	0.323	-0.005
-677.193	-71.786	0.291	0.110
-676.178	-200.000	0.031	0.214
-675.164	96.974	0.011	-0.013
-674.149	450.909	-0.126	0.283
-673.135	-200.000	0.054	0.361
-672.120	109.571	-0.125	0.152
-671.105	-200.000	0.010	-0.149
-670.091	149.860	0.298	-0.410
-669.076	-129.073	-0.166	-0.024
-668.062	123.444	0.094	-0.119
-667.047	124.430	0.143	0.183
-666.032	-200.000	-0.023	0.134
-665.018	-4.744	0.253	-0.177
-664.003	800.000	-0.093	-0.275
-662.989	800.000	0.066	-0.201
-661.974	800.000	0.093	-0.321
-660.959	-200.000	-0.052	-0.238
-659.945	-14.082	0.212	-0.138
-658.930	800.000	-0.029	-0.086
-657.916	13.842	0.247	0.195
-656.901	-85.341	0.265	0.084
-655.886	-200.000	0.024	-0.228
-654.872	800.000	0.042	-0.158
-653.857	-73.368	0.103	0.038
-652.843	-200.000	0.045	-0.327
-651.828	-62.270	-0.339	0.143
-650.814	-200.000	-0.036	0.449
-649.799	-44.719	0.187	-0.095
-648.784	-30.872	0.212	-0.121
-647.770	-200.000	-0.019	-0.198
-646.755	800.000	-0.044	-0.162
-645.741	67.485	-0.179	-0.185
-644.726	-81.626	-0.126	-0.042
-643.711	800.000	-0.074	0.218
-642.697	-200.000	0.004	0.134
-641.682	-144.840	0.187	-0.017
-640.668	-58.800	0.101	0.044
-639.653	-120.213	-0.172	-0.030
-638.638	-139.223	-0.215	-0.024
-637.624	246.756	-0.150	-0.257
-636.609	14.921	0.203	0.161
-635.595	-103.499	0.191	-0.045
-634.580	-107.744	-0.102	0.022
-633.565	51.991	0.193	-0.186
-632.551	284.029	0.166	-0.302
-631.536	-40.919	-0.357	-0.187
-630.522	45.893	-0.144	-0.135
-629.507	-65.154	0.373	-0.152
-628.492	800.000	0.056	-0.208
-627.478	-1.683	0.109	-0.078
-626.463	-47.197	-0.240	0.118
-625.449	-5.556	-0.071	0.049
-624.434	-200.000	0.030	0.209
-623.419	800.000	0.018	-0.075
-622.405	800.000	0.013	0.056
-621.390	-22.605	-0.188	-0.115
-620.376	489.825	-0.123	-0.284
-619.361	81.808	-0.130	-0.143
-618.346	-5.226	0.118	0.082
-617.332	77.810	0.267	-0.288
-616.317	-200.000	-0.014	0.105
-615.303	-57.836	0.118	0.052
-614.288	-138.316	0.411	-0.046
-613.273	800.000	0.049	-0.162
-612.259	-0.449	0.096	0.069
-611.244	2.599	-0.170	-0.125
-610.230	800.000	0.109	0.467
-609.215	-1.408	0.158	0.112
-608.201	-117.222	0.268	0.049
-607.186	-200.000	-0.018	-0.086
-606.171	-170.964	-0.157	-0.005
-605.157	27.695	0.097	-0.082
-604.142	-106.871	-0.185	-0.041
-603.128	43.101	-0.061	0.056
-602.113	16.281	0.223	0.178
-601.098	-176.555	-0.098	0.003
-600.084	-200.000	0.010	0.092
-599.069	-81.264	-0.125	0.042
-598.055	-169.821	-0.231	0.008
-597.040	-93.044	0.135	-0.038
-596.025	313.273	0.023	-0.044
-595.011	786.650	0.047	-0.131
-593.996	800.000	-0.074	-0.232
-592.982	-79.097	0.390	0.134
-591.967	-200.000	-0.041	0.185
-590.952	166.998	0.064	0.091
-589.938	50.451	0.096	-0.092
-588.923	-200.000	-0.079	-0.390
-587.909	-200.000	-0.006	-0.317
-586.894	213.411	-0.211	-0.337
-585.879	-200.000	0.090	0.425
-584.865	-200.000	-0.029	-0.144
-583.850	-103.696	-0.147	-0.035
-582.836	-14.880	0.290	0.188
-581.821	-107.113	-0.241	-0.054
-580.806	-129.841	0.151	-0.021
-579.792	-56.900	0.232	-0.103
-578.777	41.549	-0.108	-0.099
-577.763	-200.000	-0.023	0.114
-576.748	-18.683	-0.179	0.113
-575.733	408.087	0.156	-0.333
-574.719	114.222	0.040	-0.049
-573.704	-144.093	0.264	0.025
-572.690	-200.000	0.036	-0.278
-571.675	97.019	0.162	-0.187
-570.661	176.234	0.167	0.244
-569.646	126.055	0.075	0.095
-568.631	-53.566	-0.131	-0.060
-567.617	800.000	-0.021	0.068
-566.602	-200.000	-0.008	0.150
-565.588	65.693	-0.119	0.122
-564.573	-200.000	-0.009	-0.062
-563.558	-70.472	0.074	0.028
-562.544	653.795	-0.100	0.258
-561.529	-159.214	-0.289	-0.016
-560.515	-200.000	0.027	0.121
-559.500	-127.228	-0.153	0.023
-558.485	800.000	0.024	0.071
-557.471	360.624	0.060	-0.122
-556.456	199.427	0.097	-0.149
-555.442	-65.153	0.343	0.140
-554.427	-200.000	0.050	0.300
-553.412	13.770	0.093	-0.073
-552.398	-11.702	-0.149	0.099
-551.383	-200.000	0.005	-0.166
-550.369	-9.551	-0.081	-0.054
-549.354	43.307	-0.136	0.125
-548.339	-200.000	0.002	-0.084
-547.325	-112.651	-0.213	0.043
-546.310	-152.928	-0.428	-0.031
-545.296	800.000	-0.092	-0.338
-544.281	286.210	0.212	-0.386
-543.266	-116.506	-0.187	-0.035
-542.252	428.662	0.081	-0.176
-541.237	800.000	-0.040	0.114
-540.223	679.956	0.036	0.096
-539.208	-114.570	-0.464	0.090
-538.193	-118.551	0.368	0.066
-537.179	11.444	0.031	0.024
-536.164	259.601	-0.071	0.123
-535.150	181.645	-0.038	-0.057
-534.135	-80.043	0.189	-0.064
-533.121	-119.196	0.204	-0.036
-532.106	-107.526	0.108	0.024
-531.091	-86.749	-0.156	-0.048
-530.077	-137.714	-0.054	0.006
-529.062	88.804	-0.179	-0.200
-528.048	216.118	-0.099	-0.159
-527.033	-200.000	-0.014	-0.262
-526.018	126.598	0.153	0.196
-525.004	51.664	0.092	0.088
-523.989	-200.000	0.012	-0.201
-522.975	-56.106	-0.134	0.060
-521.960	215.550	0.102	0.164
-520.945	-169.513	-0.131	-0.005
-519.931	-200.000	-0.027	0.444
-518.916	-156.143	-0.407	-0.026
-517.902	146.495	-0.207	-0.281
-516.887	-200.000	0.055	-0.341
-515.872	192.707	-0.205	0.312
-514.858	-95.895	0.279	-0.075
-513.843	-29.959	-0.317	-0.182
-512.829	-175.862	-0.207	-0.006
-511.814	335.277	0.088	0.172
-510.799	24.355	0.108	-0.090
-509.785	-200.000	-0.001	-0.197
-508.770	116.405	-0.025	-0.031
-507.756	800.000	0.032	-0.136
-506.741	-180.040	-0.274	-0.006
-505.726	219.999	-0.101	-0.163
-504.712	8.327	-0.181	-0.137
-503.697	105.882	-0.188	0.224
-502.683	158.638	-0.109	0.152
-501.668	370.938	-0.181	0.370
-500.653	800.000	0.172	0.504
-499.639	-117.029	-0.334	-0.061
-498.624	0.552	-0.127	0.092
-497.610	13.002	-0.132	-0.103
-496.595	132.368	0.035	0.045
-495.581	-200.000	0.017	-0.125
-494.566	-40.244	0.148	-0.077
-493.551	142.532	0.266	0.356
-492.537	54.579	0.234	-0.227
-491.522	470.190	0.073	0.166
-490.508	51.375	0.422	0.403
-489.493	159.268	-0.212	0.297
-488.478	52.686	0.093	-0.089
-487.464	-200.000	0.006	-0.048
-486.449	-148.774	-0.128	-0.010
-485.435	-152.132	-0.446	-0.033
-484.420	76.858	0.181	0.194
-483.405	-192.257	-0.043	-0.000
-482.391	-200.000	0.007	-0.196
-481.376	312.222	0.107	-0.203
-480.362	201.743	0.316	-0.490
-479.347	-53.889	-0.149	-0.069
-478.332	800.000	-0.043	-0.129
-477.318	-21.675	-0.110	0.067
-476.303	-155.719	-0.084	0.005
-475.289	800.000	-0.086	0.345
-474.274	453.557	0.187	0.417
-473.259	554.921	-0.092	-0.223
-472.245	364.288	-0.101	0.204
-471.230	800.000	0.088	0.248
-470.216	361.628	-0.051	0.103
-469.201	26.755	-0.015	0.013
-468.186	78.895	-0.129	0.139
-467.172	-165.072	-0.130	0.006
-466.157	800.000	0.097	0.362
-465.143	-148.545	-0.243	-0.020
-464.128	320.470	-0.178	-0.339
-463.113	-200.000	-0.007	0.094
-462.099	418.075	0.069	-0.149
-461.084	-190.220	-0.217	0.002
-460.070	55.257	-0.132	-0.129
-459.055	-37.951	0.167	0.089
-458.040	-150.707	0.321	0.025
-457.026	-77.993	-0.161	0.056
-456.011	-99.973	0.166	0.042
-454.997	180.095	0.181	-0.266
-453.982	-140.005	-0.216	0.023
-452.968	-200.000	-0.027	-0.128
-451.953	12.325	0.330	0.255
-450.938	95.845	-0.224	-0.257
-449.924	-200.000	0.024	-0.244
-448.909	-200.000	0.024	0.117
-447.895	83.778	0.079	-0.086
-446.880	-106.508	-0.235	-0.053
-445.865	91.789	0.131	0.148
-444.851	228.970	0.195	0.319
-443.836	242.792	-0.127	-0.213
-442.822	31.377	0.190	-0.164
-441.807	-19.474	-0.117	-0.073
-440.792	-200.000	0.012	0.319
-439.778	-140.656	-0.401	-0.042
-438.763	-108.688	0.327	0.070
-437.749	5.289	0.306	-0.227
-436.734	-109.426	0.268	0.057
-435.719	-200.000	0.003	-0.112
-434.705	60.145	0.135	0.134
-433.690	-101.585	-0.047	-0.011
-432.676	-200.000	0.009	-0.259
-431.661	119.974	0.126	-0.157
-430.646	158.541	-0.034	0.047
-429.632	115.391	-0.200	-0.246
-428.617	101.331	-0.237	-0.278
-427.603	800.000	0.046	0.182
-426.588	-107.058	-0.172	0.038
-425.573	93.130	0.132	0.150
-424.559	-74.956	-0.192	-0.069
-423.544	-200.000	0.029	0.335
-422.530	470.748	0.095	-0.214
-421.515	-98.136	0.277	0.071
-420.500	800.000	0.028	0.102
-419.486	-57.911	0.072	-0.032
-418.471	800.000	0.104	0.314
-417.457	159.507	-0.026	-0.037
-416.442	-200.000	-0.056	0.245
-415.428	-200.000	-0.023	-0.103
-414.413	-3.746	-0.223	0.155
-413.398	-158.021	0.227	0.013
-412.384	-157.076	0.311	0.019
-411.369	-138.517	0.314	0.035
-410.355	-69.568	-0.178	0.068
-409.340	800.000	0.005	-0.020
-408.325	178.167	-0.144	0.210
-407.311	-62.722	-0.538	0.224
-406.296	-127.089	0.295	-0.043
-405.282	765.217	0.049	-0.134
-404.267	-40.520	-0.350	-0.182
-403.252	-59.289	-0.381	-0.164
-402.238	-68.015	0.263	0.103
-401.223	-200.000	0.141	0.000
-400.209	239.885	0.215	0.359
-399.194	50.848	-0.092	-0.087
-398.179	800.000	0.071	-0.201
-397.165	68.681	0.138	-0.142
-396.150	800.000	-0.071	0.254
-395.136	-200.000	-0.002	0.123
-394.121	-86.638	-0.326	-0.100
-393.106	12.360	0.266	0.206
-392.092	-28.161	-0.102	0.059
-391.077	-136.587	-0.105	-0.012
-390.063	-130.550	0.285	0.039
-389.048	-200.000	0.023	0.221
-388.033	-77.004	-0.199	0.069
-387.019	31.998	0.253	0.218
-386.004	44.293	-0.132	-0.122
-384.990	200.390	-0.196	0.303
-383.975	781.673	0.082	0.225
-382.960	9.299	0.212	0.161
-381.946	-117.504	0.251	0.045
-380.931	605.037	-0.224	0.559
-379.917	-128.924	0.365	0.051
-378.902	71.730	-0.158	-0.164
-377.888	46.879	-0.186	-0.174
-376.873	-109.438	-0.166	0.035
-375.858	-200.000	-0.022	0.136
-374.844	800.000	-0.080	-0.238
-373.829	-25.140	0.185	0.110
-372.815	-182.247	-0.322	0.006
-371.800	-137.816	-0.196	0.022
-370.785	-190.134	-0.179	-0.002
-369.771	20.096	0.232	0.188
-368.756	654.989	-0.107	0.276
-367.742	800.000	-0.060	0.241
-366.727	214.984	0.085	-0.135
-365.712	-97.835	-0.104	0.027
-364.698	-200.000	0.008	-0.051
-363.683	-200.000	0.040	-0.174
-362.669	173.907	-0.075	0.108
-361.654	-200.000	-0.025	0.301
-360.639	-200.000	-0.101	-0.534
-359.625	26.754	0.123	0.103
-358.610	800.000	-0.105	0.321
-357.596	-200.000	-0.002	0.312
-356.581	35.136	-0.116	-0.102
-355.566	190.356	0.187	-0.281
-354.552	43.216	-0.114	-0.104
-353.537	-138.684	0.302	0.033
-352.523	-175.294	0.192	0.005
-351.508	800.000	0.082	0.287
-350.493	-186.996	0.198	-0.003
-349.479	-65.724	-0.247	-0.099
-348.464	209.229	0.124	0.194
-347.450	-200.000	0.012	-0.092
-346.435	27.267	0.112	0.094
-345.420	118.345	0.095	0.118
-344.406	-93.006	-0.356	-0.099
-343.391	119.204	0.175	-0.216
-342.377	-77.082	0.121	0.042
-341.362	-126.985	0.095	0.014
-340.348	-100.321	0.219	0.054
-339.333	-29.370	0.313	-0.179
-338.318	-138.690	-0.372	-0.041
-337.304	-55.955	-0.040	0.018
-336.289	8.803	-0.107	0.080
-335.275	418.582	0.111	0.237
-334.260	-200.000	-0.067	0.339
-333.245	-200.000	0.005	0.093
-332.231	83.868	0.212	0.232
-331.216	-200.000	-0.023	-0.147
-330.202	-200.000	-0.027	0.197
-329.187	73.431	0.182	0.191
-328.172	288.558	0.162	0.294
-327.158	49.665	-0.116	-0.109
-326.143	-200.000	0.024	0.158
-325.129	-79.411	0.167	-0.056
-324.114	-144.633	0.467	-0.043
-323.099	111.569	-0.166	0.201
-322.085	64.541	0.231	0.233
-321.070	-79.264	-0.058	0.020
-320.056	-200.000	-0.004	-0.173
-319.041	800.000	0.011	0.038
-318.026	1.019	-0.271	0.194
-317.012	-128.959	-0.386	-0.054
-315.997	174.037	0.168	0.243
-314.983	-143.104	-0.420	0.041
-313.968	-200.000	0.023	0.308
-312.953	-200.000	0.001	-0.319
-311.939	29.291	0.332	-0.281
-310.924	676.792	-0.072	0.186
-309.910	-83.890	0.404	-0.129
-308.895	-22.726	0.112	-0.067
-307.880	615.477	0.099	-0.247
-306.866	58.055	-0.097	0.095
-305.851	-100.826	-0.270	0.066
-304.837	22.463	0.087	0.071
-303.822	-16.040	-0.084	0.053
-302.807	723.116	-0.073	0.193
-301.793	800.000	0.026	-0.107
-300.778	-200.000	-0.021	0.122
-299.764	91.354	-0.096	-0.108
-298.749	771.834	0.061	0.166
-297.735	-130.787	-0.260	0.035
-296.720	7.941	0.215	0.161
-295.705	90.376	0.092	0.103
-294.691	69.382	0.059	-0.060
-293.676	-67.466	-0.412	0.162
-292.662	89.612	-0.081	-0.091
-291.647	800.000	-0.103	-0.370
-290.632	2.222	-0.166	-0.120
-289.618	-23.417	0.133	0.080
-288.603	-200.000	-0.047	0.457
-287.589	-200.000	0.017	-0.222
-286.574	-82.410	0.163	-0.053
-285.559	164.000	-0.115	0.162
-284.545	-22.723	0.260	-0.157
-283.530	614.875	0.026	0.065
-282.516	-18.152	0.333	0.208
-281.501	69.488	-0.091	0.094
-280.486	774.581	-0.132	0.358
-279.472	-131.182	0.278	-0.037
-278.457	-163.592	0.153	-0.007
-277.443	109.146	-0.053	-0.064
-276.428	57.665	0.079	-0.078
-275.413	-90.822	0.191	0.055
-274.399	17.303	0.239	0.189
-273.384	-200.000	0.005	0.052
-272.370	-97.720	-0.119	-0.031
-271.355	-131.679	-0.268	0.035
-270.340	334.152	0.092	-0.178
-269.326	369.178	0.247	-0.498
-268.311	-163.268	-0.147	0.007
-267.297	-135.167	0.123	-0.015
-266.282	-200.000	-0.051	-0.508
-265.267	-38.538	-0.266	0.140
-264.253	-58.796	-0.115	-0.050
-263.238	-51.801	0.066	-0.031
-262.224	-200.000	0.190	0.000
-261.209	800.000	-0.101	-0.302
-260.195	-85.396	-0.333	-0.104
-259.180	-200.000	-0.195	-0.001
-258.165	-200.000	0.002	-0.295
-257.151	681.260	-0.068	-0.176
-256.136	278.798	-0.162	-0.288
-255.122	748.997	-0.091	-0.245
-254.107	436.397	-0.146	0.316
-253.092	48.562	-0.296	-0.276
-252.078	-106.193	-0.195	0.043
-251.063	145.291	-0.112	-0.150
-250.049	800.000	-0.062	-0.247
-249.034	85.909	-0.209	-0.229
-248.019	-15.210	0.076	-0.049
-247.005	33.954	0.193	0.168
-245.990	-55.025	-0.462	-0.207
-244.976	-200.000	0.080	0.349
-243.961	310.145	0.189	-0.353
-242.946	-89.172	-0.135	0.040
-241.932	-126.046	0.301	0.045
-240.917	21.499	-0.092	-0.074
-239.903	167.241	0.031	0.043
-238.888	800.000	-0.100	-0.363
-237.873	111.993	-0.069	-0.083
-236.859	-49.348	-0.114	-0.054
-235.844	-24.009	0.178	-0.106
-234.830	54.819	-0.154	0.148
-233.815	-116.013	0.203	0.038
-232.800	-156.489	0.157	0.010
-231.786	-142.424	-0.144	0.014
-230.771	800.000	-0.137	-0.379
-229.757	-200.000	0.001	-0.219
-228.742	-42.308	0.323	-0.164
-227.727	-138.155	0.111	-0.012
-226.713	100.653	0.010	-0.012
-225.698	159.091	-0.170	-0.235
-224.684	-200.000	-0.027	-0.293
-223.669	538.534	0.080	-0.189
-222.655	-120.712	0.434	0.073
-221.640	9.389	0.093	-0.070
-220.625	-110.609	0.357	-0.074
-219.611	98.454	-0.186	-0.214
-218.596	48.441	0.092	0.086
-217.582	-104.793	0.225	-0.051
-216.567	-200.000	0.023	0.267
-215.552	-200.000	0.003	0.159
-214.538	-79.402	0.229	0.077
-213.523	648.250	0.126	0.321
-212.509	79.064	-0.074	0.079
-211.494	353.173	0.056	0.110
-210.479	763.835	0.089	-0.242
-209.465	-39.353	-0.111	0.058
-208.450	54.874	-0.144	-0.138
-207.436	162.493	0.189	0.264
-206.421	159.613	-0.106	-0.147
-205.406	800.000	0.016	-0.047
-204.392	-98.989	0.271	0.068
-203.377	-6.043	-0.152	-0.104
-202.363	491.454	-0.060	0.137
-201.348	-57.883	-0.182	0.079
-200.333	-200.000	-0.018	-0.264
-199.319	-138.453	-0.127	-0.014
-198.304	-200.000	0.004	-0.042
-197.290	-200.000	0.006	-0.166
-196.275	-110.976	-0.260	-0.053
-195.260	-45.131	-0.036	-0.018
-194.246	26.388	0.253	0.210
-193.231	-200.000	-0.021	-0.140
-192.217	-200.000	-0.021	-0.105
-191.202	-200.000	-0.042	-0.182
-190.187	-146.276	0.200	0.017
-189.173	192.786	-0.163	0.245
-188.158	-28.158	-0.152	0.087
-187.144	10.828	-0.067	-0.051
-186.129	-157.636	0.189	0.011
-185.114	-81.801	0.062	-0.020
-184.100	-72.196	-0.182	0.067
-183.085	-193.221	0.318	-0.003
-182.071	296.121	-0.050	-0.090
-181.056	306.846	0.057	0.106
-180.042	86.681	0.099	-0.109
-179.027	-103.023	-0.203	-0.048
-178.012	-200.000	0.009	0.065
-176.998	-39.328	-0.042	-0.022
-175.983	800.000	-0.025	0.104
-174.969	800.000	-0.049	0.206
-173.954	800.000	0.059	0.198
-172.939	-193.739	0.198	0.002
-171.925	277.902	-0.064	0.113
-170.910	-200.000	0.000	0.120
-169.896	357.948	-0.103	0.204
-168.881	66.678	0.148	-0.149
-167.866	31.923	0.176	0.151
-166.852	797.194	-0.050	0.136
-165.837	-200.000	0.007	0.057
-164.823	-131.838	-0.228	-0.030
-163.808	-36.071	-0.098	0.053
-162.793	45.196	0.076	-0.070
-161.779	-200.000	-0.006	0.173
-160.764	106.700	-0.062	-0.073
-159.750	-159.846	-0.086	0.005
-158.735	-86.706	0.063	0.019
-157.720	-200.000	-0.050	-0.456
-156.706	181.765	-0.047	0.069
-155.691	-197.760	-0.309	0.002
-154.677	235.137	-0.071	0.117
-153.662	-61.976	-0.108	0.045
-152.647	56.571	0.364	-0.351
-151.633	-162.446	0.107	-0.005
-150.618	800.000	-0.042	-0.121
-149.604	-62.874	0.220	0.090
-148.589	800.000	0.046	0.176
-147.574	221.534	-0.130	-0.207
-146.560	-130.011	-0.156	-0.021
-145.545	-182.484	0.199	-0.004
-144.531	38.543	0.325	-0.287
-143.516	-103.980	0.025	0.006
-142.502	725.086	0.081	0.213
-141.487	-200.000	-0.008	-0.287
-140.472	58.668	0.207	-0.202
-139.458	-127.820	0.262	-0.037
-138.443	-200.000	0.002	-0.115
-137.429	106.119	-0.092	-0.108
-136.414	-200.000	-0.026	0.242
-135.399	800.000	0.109	0.444
-134.385	151.677	-0.088	-0.119
-133.370	-15.130	-0.151	0.096
-132.356	-18.809	0.523	-0.324
-131.341	-82.234	0.235	-0.076
-130.326	-19.851	-0.304	-0.186
-129.312	-142.103	0.198	-0.019
-128.297	-87.438	-0.293	-0.088
-127.283	256.392	0.128	0.217
-126.268	77.959	0.260	0.275
-125.253	143.499	-0.098	0.129
-124.239	-75.005	0.347	0.123
-123.224	543.963	-0.087	0.207
-122.210	-121.110	-0.199	-0.033
-121.195	365.112	0.196	0.392
-120.180	320.149	-0.104	0.196
-119.166	-200.000	-0.050	0.451
-118.151	-97.881	0.014	-0.004
-117.137	-124.841	0.572	0.088
-116.122	66.491	-0.074	0.075
-115.107	315.494	0.086	-0.162
-114.093	358.116	0.086	-0.171
-113.078	-200.000	-0.005	0.123
-112.064	87.905	0.246	0.270
-111.049	800.000	-0.044	-0.140
-110.034	-200.000	-0.006	0.052
-109.020	-200.000	0.051	0.000
-108.005	330.907	-0.016	-0.030
-106.991	498.680	-0.208	-0.476
-105.976	496.616	-0.073	-0.166
-104.962	-119.753	-0.133	-0.023
-103.947	-2.901	0.168	-0.117
-102.932	-102.935	0.201	0.047
-101.918	-200.000	0.053	0.343
-100.903	184.158	0.162	0.238
-99.889	237.827	-0.158	0.259
-98.874	-83.800	-0.091	-0.029
-97.859	-87.590	0.342	-0.102
-96.845	-200.000	0.017	0.267
-95.830	-32.438	-0.166	-0.091
-94.816	-81.679	0.286	-0.093
-93.801	175.135	-0.211	-0.302
-92.786	-200.000	-0.058	0.277
-91.772	33.896	0.127	0.109
-90.757	12.820	0.216	0.165
-89.743	800.000	0.093	0.256
-88.728	-69.219	0.163	0.062
-87.713	-200.000	0.032	-0.189
-86.699	139.665	-0.053	-0.069
-85.684	360.092	-0.114	-0.226
-84.670	178.712	-0.220	0.318
-83.655	170.632	-0.088	0.124
-82.640	31.305	0.407	0.346
-81.626	-88.035	-0.286	0.085
-80.611	-170.176	0.261	0.009
-79.597	68.355	-0.157	-0.159
-78.582	-21.647	-0.189	-0.114
-77.567	-200.000	-0.077	0.372
-76.553	154.702	0.085	0.116
-75.538	800.000	-0.067	-0.212
-74.524	134.682	-0.173	-0.223
-73.509	53.014	0.172	-0.163
-72.494	-15.790	0.274	-0.173
-71.480	548.852	-0.180	0.428
-70.465	55.146	-0.061	0.059
-69.451	800.000	0.061	0.187
-68.436	6.631	-0.350	0.258
-67.422	-77.065	-0.292	0.101
-66.407	-57.572	0.185	-0.080
-65.392	117.664	-0.050	-0.061
-64.378	14.061	0.286	0.221
-63.363	-164.522	-0.241	0.011
-62.349	-17.353	0.124	0.078
-61.334	528.828	-0.331	-0.773
-60.319	800.000	0.165	0.561
-59.305	-200.000	-0.106	-0.945
-58.290	117.797	0.707	0.862
-57.276	542.102	0.632	1.490
-56.261	-200.000	82.813	501.662
-55.246	465.980	1383.899	3065.614
-54.232	143.526	2624.005	3457.203
-53.217	104.148	2382.279	2771.766
-52.203	46.777	1989.500	1828.370
-51.188	41.110	1774.825	1586.025
-50.173	38.443	1729.448	1524.671
-49.159	52.763	1769.453	1672.935
-48.144	56.497	1788.196	1720.001
-47.130	41.138	1748.515	1562.489
-46.115	38.130	1734.063	1526.049
-45.100	37.914	1729.501	1520.291
-44.086	37.930	1726.661	1517.859
-43.071	37.964	1723.696	1515.455
-42.057	37.850	1721.228	1512.345
-41.042	37.939	1718.868	1510.899
-40.027	37.915	1717.527	1509.471
-39.013	37.932	1715.003	1507.329
-37.998	37.899	1713.563	1505.751
-36.984	37.951	1712.174	1504.866
-35.969	38.088	1710.575	1504.462
-34.954	38.023	1709.262	1502.743
-33.940	38.140	1706.595	1501.239
-32.925	38.040	1705.513	1499.458
-31.911	38.086	1703.556	1498.033
-30.896	38.109	1702.048	1496.827
-29.881	38.122	1699.833	1494.918
-28.867	38.121	1698.115	1493.342
-27.852	38.062	1697.206	1492.029
-26.838	38.069	1695.481	1490.505
-25.823	38.041	1694.459	1489.334
-24.809	38.151	1692.429	1488.329
-23.794	38.114	1691.414	1487.098
-22.779	38.128	1689.234	1485.228
-21.765	38.122	1687.779	1483.841
-20.750	38.085	1686.487	1482.365
-19.736	38.189	1684.609	1481.447
-18.721	38.046	1683.828	1479.620
-17.706	38.098	1681.699	1478.079
-16.692	38.110	1680.513	1477.072
-15.677	38.124	1678.714	1475.540
-14.663	38.225	1677.541	1475.208
-13.648	38.159	1675.912	1473.219
-12.633	38.075	1674.909	1471.648
-11.619	38.152	1672.705	1470.233
-10.604	38.134	1671.132	1468.658
-9.590	38.086	1670.581	1467.753
-8.575	38.140	1668.341	1466.132
-7.560	38.077	1667.293	1464.680
-6.546	37.948	1666.997	1463.395
-5.531	38.059	1665.127	1462.524
-4.517	38.010	1664.071	1461.176
-3.502	38.004	1663.190	1460.294
-2.487	38.128	1661.435	1459.625
-1.473	38.095	1649.833	1449.129
-0.458	35.847	1629.727	1414.906
0.556	30.087	1629.487	1380.227
1.571	27.559	1654.534	1382.168
2.586	26.662	1668.600	1386.933
3.600	24.599	1616.379	1328.090
4.615	19.105	1508.548	1201.152
5.629	14.222	1443.788	1116.798
6.644	13.080	1435.277	1102.496
7.659	13.113	1433.218	1101.040
8.673	13.016	1432.080	1099.419
9.688	12.941	1430.693	1097.759
10.702	12.856	1427.815	1094.890
11.717	15.158	1432.825	1113.960
12.731	19.494	1439.741	1148.147
13.746	19.870	1438.980	1149.936
14.761	17.773	1433.480	1131.542
15.775	16.475	1430.419	1120.431
16.790	15.379	1427.584	1110.859
17.804	14.583	1424.994	1103.481
18.819	14.134	1423.113	1098.962
19.834	13.726	1422.109	1095.393
20.848	13.461	1420.223	1092.093
21.863	13.231	1419.246	1089.734
22.877	13.091	1418.091	1087.829
23.892	13.070	1417.064	1086.806
24.907	13.051	1416.364	1086.048
25.921	12.994	1415.583	1084.978
26.936	13.048	1414.366	1084.299
27.950	13.091	1413.693	1083.971
28.965	13.271	1411.692	1083.521
29.980	13.150	1411.490	1082.477
30.994	13.268	1409.489	1081.622
32.009	13.315	1408.336	1080.944
33.023	13.342	1406.952	1079.968
34.038	13.269	1405.674	1078.414
35.053	13.273	1404.809	1077.682
36.067	13.306	1403.337	1076.667
37.082	13.190	1402.543	1075.213
38.096	13.209	1401.593	1074.511
39.111	13.210	1400.890	1073.884
40.126	13.184	1399.906	1072.866
41.140	13.060	1398.702	1071.041
42.155	13.022	1398.621	1070.638
43.169	12.997	1397.721	1069.691
44.184	13.069	1397.419	1069.832
45.199	12.945	1397.415	1068.933
46.213	12.968	1397.350	1068.938
47.228	13.121	1395.499	1068.417
48.242	13.136	1394.638	1067.760
49.257	13.125	1393.100	1066.418
50.271	13.049	1391.929	1064.939
51.286	13.094	1390.464	1064.011
52.301	13.163	1388.903	1063.164
53.315	13.084	1387.963	1061.844
54.330	12.982	1387.328	1060.609
55.344	13.018	1385.994	1059.726
56.359	13.038	1384.720	1058.785
57.374	13.006	1384.040	1057.968
58.388	12.997	1383.064	1057.073
59.403	12.897	1382.399	1055.828
60.417	12.871	1381.821	1055.131
61.432	12.941	1380.893	1054.771
62.447	12.815	1379.906	1053.123
63.461	12.859	1378.471	1052.216
64.476	12.799	1377.412	1050.932
65.490	12.899	1375.926	1050.343
66.505	12.836	1374.531	1048.782
67.520	12.936	1373.209	1048.315
68.534	12.981	1371.840	1047.465
69.549	12.852	1371.664	1046.417
70.563	12.830	1370.186	1045.060
71.578	12.818	1368.826	1043.854
72.593	12.883	1367.742	1043.344
73.607	12.786	1367.188	1042.214
74.622	12.827	1366.378	1041.768
75.636	12.753	1365.588	1040.602
76.651	12.798	1365.008	1040.352
77.666	12.827	1364.371	1039.958
78.680	12.849	1363.563	1039.388
79.695	12.883	1362.939	1039.036
80.709	12.854	1362.186	1038.189
81.724	12.860	1361.443	1037.567
82.739	13.035	1360.301	1037.706
83.753	13.084	1359.450	1037.274
84.768	13.128	1357.978	1036.331
85.782	13.038	1357.520	1035.328
86.797	13.219	1355.669	1034.960
87.812	13.101	1354.613	1033.321
88.826	13.144	1353.328	1032.519
89.841	13.132	1352.198	1031.490
90.855	13.064	1351.460	1030.413
91.870	13.118	1350.798	1030.154
92.884	13.195	1349.590	1029.623
93.899	13.167	1348.933	1028.857
94.914	13.210	1348.187	1028.462
95.928	13.256	1346.977	1027.731
96.943	13.106	1346.749	1026.534
97.957	13.233	1345.241	1026.083
98.972	13.178	1344.307	1024.938
99.987	13.239	1343.213	1024.390
101.001	13.058	1342.440	1022.591
102.016	13.118	1341.215	1021.941
103.030	13.165	1340.119	1021.303
104.045	13.184	1339.109	1020.561
105.060	13.105	1337.857	1019.033
106.074	13.028	1336.805	1017.665
107.089	12.915	1335.390	1015.800
108.103	12.961	1334.110	1015.022
109.118	13.009	1332.641	1014.108
110.133	12.927	1330.856	1012.159
111.147	12.878	1329.556	1010.778
112.162	13.026	1328.361	1010.687
113.176	13.033	1327.388	1009.900
114.191	12.970	1326.456	1008.716
115.206	13.054	1325.190	1008.176
116.220	12.978	1323.575	1006.393
117.235	12.998	1322.682	1005.751
118.249	12.998	1321.385	1004.676
119.264	12.978	1320.695	1003.941
120.279	12.904	1319.297	1002.335
121.293	12.948	1318.204	1001.685
122.308	12.889	1317.138	1000.431
123.322	12.803	1316.303	999.183
124.337	12.908	1314.917	998.679
125.352	12.915	1313.584	997.622
126.366	12.913	1312.779	996.908
127.381	12.857	1311.651	995.629
128.395	12.864	1310.588	994.774
129.410	12.946	1309.500	994.353
130.424	12.935	1308.428	993.390
131.439	12.970	1307.765	993.005
132.454	13.131	1306.307	992.778
133.468	13.096	1305.571	991.925
134.483	13.083	1304.739	991.122
135.497	12.970	1304.007	989.801
136.512	13.074	1302.343	989.076
137.527	13.047	1301.160	987.926
138.541	13.086	1299.615	986.900
139.556	13.023	1298.453	985.556
140.570	13.189	1297.246	985.538
141.585	13.104	1296.480	984.363
142.600	13.179	1295.083	983.662
143.614	13.205	1293.741	982.710
144.629	13.206	1292.965	982.040
145.643	13.153	1291.954	980.872
146.658	13.209	1290.433	979.963
147.673	13.154	1288.838	978.337
148.687	13.094	1287.898	977.186
149.702	13.021	1286.473	975.585
150.716	12.960	1284.953	973.984
151.731	13.074	1283.914	973.785
152.746	13.041	1282.925	972.752
153.760	13.113	1281.331	971.884
154.775	13.110	1280.556	971.193
155.789	13.175	1279.333	970.563
156.804	13.124	1278.412	969.474
157.819	13.201	1277.560	969.196
158.833	13.333	1276.227	968.874
159.848	13.242	1275.574	967.757
160.862	13.294	1274.691	967.308
161.877	13.274	1272.824	965.690
162.892	13.169	1272.124	964.458
163.906	13.195	1271.554	964.090
164.921	13.219	1270.256	963.162
165.935	13.278	1269.093	962.540
166.950	13.125	1268.975	961.475
167.964	13.187	1267.874	960.915
168.979	13.222	1267.213	960.535
169.994	13.187	1266.817	959.942
171.008	13.261	1265.313	959.148
172.023	13.400	1264.590	959.324
173.037	13.479	1263.684	959.005
174.052	13.450	1262.952	958.201
175.067	13.381	1261.240	956.417
176.081	13.235	1260.933	955.257
177.096	13.222	1259.677	954.144
178.110	13.290	1258.529	953.583
179.125	13.352	1257.203	952.849
180.140	13.290	1256.214	951.659
181.154	13.328	1255.391	951.168
182.169	13.428	1253.855	950.498
183.183	13.533	1252.385	949.898
184.198	13.493	1251.758	949.110
185.213	13.526	1250.233	948.060
186.227	13.619	1249.332	947.827
187.242	13.472	1248.458	946.238
188.256	13.645	1246.825	945.906
189.271	13.606	1246.292	945.195
190.286	13.545	1245.118	943.872
191.300	13.285	1244.505	941.841
192.315	13.260	1243.698	941.007
193.329	13.356	1242.541	940.595
194.344	13.398	1242.137	940.444
195.359	13.475	1241.615	940.402
196.373	13.480	1241.090	939.949
197.388	13.573	1240.670	940.077
198.402	13.679	1240.138	940.194
199.417	13.727	1239.286	939.735
200.432	13.714	1238.616	939.070
201.446	13.701	1237.913	938.380
202.461	13.776	1236.621	937.740
203.475	13.872	1235.275	937.180
204.490	13.859	1233.960	936.023
205.504	13.866	1232.338	934.753
206.519	13.780	1231.770	933.753
207.534	13.668	1230.930	932.406
208.548	13.702	1229.808	931.666
209.563	13.768	1229.083	931.402
210.577	13.784	1228.161	930.710
211.592	13.782	1227.165	929.861
212.607	13.830	1226.576	929.602
213.621	13.948	1224.848	928.870
214.636	13.920	1224.094	928.064
215.650	14.001	1223.533	928.008
216.665	13.985	1222.422	926.992
217.680	14.032	1221.673	926.606
218.694	13.960	1221.058	925.653
219.709	13.890	1220.467	924.738
220.723	14.040	1218.731	924.173
221.738	14.038	1218.118	923.615
222.753	13.949	1217.814	922.806
223.767	14.058	1217.320	922.954
224.782	14.032	1216.363	922.003
225.796	14.220	1215.138	922.037
226.811	14.091	1215.180	921.273
227.826	14.132	1213.921	920.463
228.840	14.179	1212.922	919.883
229.855	14.174	1212.350	919.342
230.869	14.215	1211.629	918.938
231.884	14.041	1210.880	917.328
232.899	14.048	1209.977	916.600
233.913	14.080	1209.319	916.201
234.928	14.037	1208.580	915.324
235.942	14.108	1207.396	914.737
236.957	14.049	1206.972	914.007
237.972	14.027	1206.366	913.346
238.986	14.059	1205.565	912.835
240.001	13.980	1204.989	911.886
241.015	14.121	1203.916	911.769
242.030	14.141	1203.023	911.120
243.045	14.194	1202.330	910.802
244.059	14.259	1201.287	910.287
245.074	14.177	1200.520	909.177
246.088	14.270	1199.892	909.130
247.103	14.234	1198.840	908.055
248.117	14.302	1198.391	908.009
249.132	14.422	1197.664	908.030
250.147	14.397	1197.003	907.314
251.161	14.621	1195.705	907.468
252.176	14.578	1195.558	907.042
253.190	14.538	1194.760	906.139
254.205	14.593	1194.214	905.941
255.220	14.602	1193.476	905.349
256.234	14.744	1192.632	905.401
257.249	14.611	1192.223	904.287
258.263	14.663	1191.125	903.658
259.278	14.611	1190.998	903.197
260.293	14.673	1190.787	903.297
261.307	14.747	1189.753	902.830
262.322	14.683	1189.171	901.961
263.336	14.689	1188.183	901.166
264.351	14.718	1187.663	900.847
265.366	14.762	1187.011	900.513
266.380	14.788	1185.934	899.757
267.395	14.804	1185.476	899.415
268.409	14.748	1184.742	898.477
269.424	14.713	1184.200	897.796
270.439	14.789	1183.412	897.531
271.453	14.819	1182.538	896.949
272.468	14.760	1181.487	895.757
273.482	14.709	1180.864	894.929
274.497	14.817	1180.281	894.988
275.512	14.895	1179.426	894.680
276.526	14.828	1178.980	893.899
277.541	14.895	1177.938	893.390
278.555	14.877	1177.400	892.809
279.570	14.885	1176.536	892.115
280.585	15.001	1175.766	892.072
281.599	14.942	1175.051	891.136
282.614	14.897	1174.135	890.121
283.628	14.957	1172.462	889.093
284.643	14.966	1171.501	888.336
285.657	14.980	1170.851	887.838
286.672	14.835	1170.289	886.562
287.687	15.014	1169.012	886.468
288.701	15.048	1168.193	885.947
289.716	14.925	1167.622	884.782
290.730	15.030	1166.709	884.569
291.745	15.036	1165.943	883.944
292.760	15.058	1165.353	883.535
293.774	15.043	1164.670	882.860
294.789	15.175	1164.066	883.016
295.803	15.228	1163.549	882.827
296.818	15.110	1162.656	881.450
297.833	15.148	1161.719	880.859
298.847	15.158	1161.126	880.386
299.862	15.115	1160.295	879.451
300.876	15.189	1159.540	879.188
301.891	15.164	1158.933	878.519
302.906	15.258	1158.305	878.461
303.920	15.242	1157.756	877.884
304.935	15.281	1157.347	877.696
305.949	15.282	1156.297	876.828
306.964	15.326	1155.359	876.270
307.979	15.344	1154.751	875.829
308.993	15.324	1154.182	875.213
310.008	15.418	1152.777	874.561
311.022	15.446	1152.395	874.338
312.037	15.438	1151.302	873.389
313.052	15.317	1150.525	872.095
314.066	15.362	1149.820	871.718
315.081	15.313	1148.375	870.292
316.095	15.288	1148.052	869.839
317.110	15.302	1147.105	869.114
318.125	15.278	1146.887	868.749
319.139	15.349	1145.915	868.305
320.154	15.426	1144.803	867.781
321.168	15.426	1144.774	867.685
322.183	15.382	1143.975	866.775
323.197	15.339	1143.622	866.210
324.212	15.508	1142.616	866.244
325.227	15.542	1142.032	865.899
326.241	15.449	1141.740	865.121
327.256	15.399	1140.696	863.998
328.270	15.448	1139.877	863.550
329.285	15.419	1138.847	862.544
330.300	15.487	1137.842	862.057
331.314	15.440	1136.985	861.090
332.329	15.513	1136.167	860.770
333.343	15.504	1135.054	859.804
334.358	15.607	1134.262	859.655
335.373	15.661	1133.342	859.156
336.387	15.599	1132.471	858.105
337.402	15.700	1131.660	857.929
338.416	15.619	1131.242	857.124
339.431	15.743	1130.518	857.128
340.446	15.756	1129.952	856.690
341.460	15.778	1129.195	856.151
342.475	15.844	1128.476	855.868
343.489	15.927	1127.595	855.544
344.504	15.978	1126.521	854.915
345.519	15.856	1125.614	853.532
346.533	15.958	1125.297	853.732
347.548	15.907	1124.479	852.776
348.562	16.016	1123.799	852.737
349.577	15.852	1123.107	851.310
350.592	15.870	1122.071	850.540
351.606	15.843	1121.375	849.800
352.621	15.803	1120.438	848.814
353.635	15.835	1119.303	848.040
354.650	15.952	1118.955	848.291
355.665	15.873	1118.211	847.253
356.679	15.920	1117.685	847.017
357.694	15.926	1117.454	846.799
358.708	16.041	1116.096	846.269
359.723	15.939	1115.922	845.550
360.738	16.007	1115.100	845.193
361.752	16.117	1114.473	845.194
362.767	16.114	1113.733	844.546
363.781	16.051	1113.537	844.007
364.796	16.054	1113.006	843.542
365.810	16.056	1112.262	842.914
366.825	16.233	1111.861	843.419
367.840	16.324	1110.608	842.848
368.854	16.303	1110.646	842.702
369.869	16.235	1109.573	841.474
370.883	16.390	1108.280	841.191
371.898	16.198	1108.181	840.083
372.913	16.264	1107.242	839.623
373.927	16.330	1106.714	839.478
374.942	16.413	1106.348	839.539
375.956	16.283	1105.526	838.196
376.971	16.297	1104.602	837.492
377.986	16.392	1104.337	837.688
379.000	16.422	1104.020	837.522
380.015	16.476	1103.497	837.319
381.029	16.496	1102.536	836.611
382.044	16.504	1101.873	836.074
383.059	16.511	1101.145	835.486
384.073	16.469	1100.450	834.677
385.088	16.664	1099.127	834.562
386.102	16.544	1098.309	833.273
387.117	16.622	1097.055	832.634
388.132	16.376	1096.778	831.139
389.146	16.334	1095.925	830.213
390.161	16.533	1094.934	830.365
391.175	16.453	1094.015	829.202
392.190	16.517	1093.485	829.038
393.205	16.626	1092.831	829.007
394.219	16.636	1091.913	828.286
395.234	16.518	1091.237	827.119
396.248	16.596	1089.887	826.403
397.263	16.514	1089.081	825.321
398.278	16.454	1088.475	824.496
399.292	16.476	1087.704	823.947
400.307	16.537	1087.228	823.811
401.321	16.459	1086.340	822.687
402.336	16.564	1085.780	822.697
403.350	16.672	1084.620	822.272
404.365	16.700	1083.601	821.564
405.380	16.628	1083.466	821.039
406.394	16.631	1082.683	820.388
407.409	16.677	1082.400	820.322
408.423	16.815	1081.196	820.004
409.438	16.865	1080.686	819.787
410.453	16.858	1079.881	819.072
411.467	16.833	1079.335	818.465
412.482	16.968	1078.425	818.351
413.496	16.921	1077.687	817.492
414.511	16.925	1077.267	817.124
415.526	17.014	1076.702	817.048
416.540	17.018	1076.270	816.669
417.555	17.067	1075.497	816.246
418.569	16.955	1075.053	815.299
419.584	16.992	1074.428	814.929
420.599	17.006	1074.200	814.751
421.613	91.551	1309.945	1409.185
422.628	84.791	1344.277	1409.306
