DTS Sentinel unit serial number:	SN413079Multiplexer serial number:	ORYXHardware model number:	OX4-SRSoftware version number:	ORYX F/W v4.00 Oryx Data Collector v3.7.2.0data status	okinstallation	princeton_trtdifferential loss correction	single-endedforward channel	channel 4reverse channel	N/Adate	2019/09/11time	21:39:10forward acquisition time	60.00reverse acquisition time	0.00gamma	496.2192k internal	0.2306k external	0.2306temperature offset calibration	1.0062default loss term (dB/km)	0.3790temperature slope calibration	1.0000multiplexer offset coefficient	1.0000multiplexer slope coefficient	1.0000fibre end	0.00T internal ref (°C)	35.87T ext. ref 1 (°C)	1.63T ext. ref 2 (°C)	30.41length (m)	temperature (°C)	Stokes	anti-Stokes-747.200	800.000	-0.058	0.225
-746.185	58.124	-0.196	0.196
-745.171	-115.239	-0.086	-0.016
-744.156	-73.929	-0.051	0.019
-743.142	-200.000	0.014	-0.138
-742.127	800.000	-0.091	0.378
-741.112	307.438	-0.148	-0.280
-740.098	136.034	0.309	0.410
-739.083	-101.871	0.065	-0.016
-738.069	-95.470	-0.185	0.051
-737.054	-65.794	0.050	0.020
-736.039	104.334	0.221	0.264
-735.025	-122.853	0.124	-0.020
-734.010	34.283	-0.042	0.038
-732.996	288.399	0.033	0.061
-731.981	-47.768	0.153	0.076
-730.966	-200.000	-0.022	0.507
-729.952	-91.634	0.295	0.085
-728.937	6.019	-0.215	-0.162
-727.923	800.000	0.054	-0.211
-726.908	-32.265	-0.125	-0.071
-725.894	583.798	0.083	-0.206
-724.879	-162.346	-0.317	-0.016
-723.864	-200.000	0.004	0.027
-722.850	679.322	-0.154	-0.408
-721.835	-114.212	0.458	-0.090
-720.821	-200.000	0.000	-0.197
-719.806	-169.891	-0.220	-0.008
-718.791	800.000	0.039	-0.133
-717.777	-27.308	-0.293	0.174
-716.762	-132.396	-0.245	0.032
-715.748	306.157	0.052	0.099
-714.733	-97.205	-0.054	0.014
-713.718	164.939	-0.046	-0.066
-712.704	361.443	-0.078	-0.159
-711.689	-43.080	-0.368	-0.189
-710.675	800.000	0.055	0.199
-709.660	-18.490	-0.230	0.146
-708.645	62.250	-0.070	0.071
-707.631	800.000	0.104	0.381
-706.616	800.000	-0.100	-0.294
-705.602	148.237	0.092	-0.126
-704.587	46.117	-0.198	-0.186
-703.572	-100.582	-0.144	-0.036
-702.558	366.661	0.237	-0.487
-701.543	-114.680	-0.563	0.109
-700.529	17.480	-0.204	0.165
-699.514	-200.000	0.020	0.180
-698.499	-149.663	-0.226	-0.018
-697.485	800.000	-0.067	-0.289
-696.470	-200.000	0.069	-0.326
-695.456	42.601	0.295	-0.273
-694.441	193.044	-0.221	-0.339
-693.426	15.574	0.210	-0.168
-692.412	73.194	-0.160	-0.170
-691.397	-200.000	-0.005	0.207
-690.383	218.937	-0.162	0.263
-689.368	-200.000	0.011	-0.095
-688.354	-88.374	-0.210	0.064
-687.339	-18.494	0.089	-0.057
-686.324	-38.148	-0.335	0.180
-685.310	-40.195	-0.137	0.073
-684.295	-200.000	-0.002	-0.084
-683.281	-42.722	0.042	0.022
-682.266	-83.500	0.357	0.116
-681.251	-13.286	-0.361	-0.238
-680.237	-1.029	-0.059	-0.043
-679.222	10.068	0.188	0.145
-678.208	-200.000	-0.034	-0.211
-677.193	-111.601	-0.146	0.030
-676.178	64.083	-0.320	-0.327
-675.164	-200.000	0.062	0.335
-674.149	-67.800	-0.174	0.069
-673.135	26.556	0.084	-0.071
-672.120	-200.000	0.005	-0.094
-671.105	-200.000	0.008	0.207
-670.091	-2.873	-0.187	-0.133
-669.076	61.311	0.059	0.060
-668.062	800.000	-0.057	-0.164
-667.047	90.790	-0.273	-0.310
-666.032	-108.889	-0.441	-0.096
-665.018	151.870	0.244	-0.338
-664.003	800.000	0.032	0.103
-662.989	-10.504	0.188	-0.126
-661.974	800.000	0.026	0.076
-660.959	83.005	0.226	-0.249
-659.945	800.000	0.037	-0.143
-658.930	-200.000	0.001	0.272
-657.916	310.252	0.248	-0.471
-656.901	44.500	0.078	-0.072
-655.886	336.013	-0.156	-0.307
-654.872	-41.376	-0.096	-0.050
-653.857	608.463	0.077	0.196
-652.843	-3.117	-0.053	0.038
-651.828	-22.512	0.209	0.128
-650.814	-10.770	-0.106	-0.071
-649.799	77.660	-0.063	-0.068
-648.784	-85.793	0.103	0.032
-647.770	-100.132	-0.180	-0.046
-646.755	264.849	-0.239	0.421
-645.741	465.711	0.120	0.272
-644.726	800.000	-0.038	-0.123
-643.711	63.492	0.204	0.208
-642.697	86.964	-0.218	0.244
-641.682	-84.042	-0.251	-0.081
-640.668	126.340	0.283	0.363
-639.653	-200.000	-0.079	0.396
-638.638	800.000	0.185	-0.588
-637.624	376.400	-0.086	0.177
-636.609	246.634	0.194	-0.331
-635.595	-176.267	-0.257	0.007
-634.580	-57.987	-0.245	0.109
-633.565	69.193	-0.190	0.198
-632.551	-141.354	0.301	0.031
-631.536	456.945	0.162	-0.364
-630.522	590.970	-0.006	0.016
-629.507	222.178	0.065	-0.106
-628.492	-96.831	0.151	0.040
-627.478	-160.652	0.247	0.013
-626.463	-200.000	0.000	-0.064
-625.449	-200.000	-0.029	0.225
-624.434	365.811	0.063	-0.129
-623.419	115.094	-0.200	-0.248
-622.405	800.000	-0.048	-0.172
-621.390	-169.259	0.187	-0.007
-620.376	-200.000	0.010	-0.057
-619.361	585.293	-0.061	-0.152
-618.346	-200.000	0.051	0.335
-617.332	10.894	0.209	0.162
-616.317	-151.710	0.286	-0.021
-615.303	-101.709	-0.120	0.029
-614.288	-139.298	-0.162	0.018
-613.273	492.563	0.096	-0.222
-612.259	104.487	-0.052	0.062
-611.244	43.951	0.130	-0.120
-610.230	-21.876	0.285	-0.176
-609.215	-200.000	0.070	0.365
-608.201	39.515	-0.117	0.106
-607.186	-200.000	-0.051	0.306
-606.171	74.255	0.064	0.068
-605.157	88.435	-0.037	0.041
-604.142	-25.312	-0.218	-0.131
-603.128	-200.000	0.025	0.162
-602.113	541.571	-0.174	-0.420
-601.098	-105.220	-0.178	-0.041
-600.084	800.000	0.059	0.257
-599.069	230.250	0.098	-0.162
-598.055	489.922	0.082	0.190
-597.040	-166.760	0.117	0.005
-596.025	-92.456	0.317	0.090
-595.011	-200.000	-0.018	0.079
-593.996	41.086	-0.054	0.049
-592.982	-77.953	0.362	0.126
-591.967	-7.436	-0.073	0.050
-590.952	219.403	-0.014	0.023
-589.938	-62.552	0.212	0.089
-588.923	-131.321	-0.113	-0.015
-587.909	-105.949	0.270	0.062
-586.894	800.000	0.064	0.220
-585.879	-200.000	-0.019	-0.224
-584.865	-35.736	0.146	-0.080
-583.850	268.000	-0.081	-0.144
-582.836	-102.918	-0.164	-0.039
-581.821	67.231	0.178	0.184
-580.806	-81.332	0.127	0.042
-579.792	135.355	-0.197	0.259
-578.777	-54.731	0.101	0.046
-577.763	-200.000	-0.014	-0.438
-576.748	58.011	-0.075	-0.074
-575.733	-116.397	-0.144	0.027
-574.719	350.473	0.041	0.082
-573.704	24.575	0.199	0.166
-572.690	-200.000	0.036	-0.162
-571.675	197.391	0.120	-0.185
-570.661	800.000	0.060	-0.227
-569.646	246.110	0.234	0.398
-568.631	30.612	-0.073	-0.063
-567.617	14.506	-0.282	0.222
-566.602	-78.442	0.145	-0.050
-565.588	-59.493	0.207	-0.090
-564.573	-154.679	0.150	-0.010
-563.558	-128.718	0.128	-0.018
-562.544	800.000	-0.038	-0.136
-561.529	-200.000	-0.050	-0.227
-560.515	6.232	-0.126	0.095
-559.500	487.199	-0.119	-0.273
-558.485	-103.392	-0.138	-0.033
-557.471	53.283	-0.042	-0.041
-556.456	-107.498	0.080	0.018
-555.442	142.958	-0.137	-0.183
-554.427	-89.196	0.206	0.062
-553.412	-99.058	0.425	-0.109
-552.398	-22.827	-0.187	-0.114
-551.383	-100.275	0.254	-0.064
-550.369	-118.426	-0.362	-0.065
-549.354	243.675	0.048	-0.081
-548.339	133.037	0.146	0.190
-547.325	-200.000	-0.019	0.314
-546.310	17.586	0.312	0.251
-545.296	-68.913	0.282	0.110
-544.281	193.664	-0.203	-0.311
-543.266	-127.097	0.228	-0.034
-542.252	49.708	0.238	-0.226
-541.237	-200.000	0.016	0.129
-540.223	-200.000	-0.022	-0.263
-539.208	106.908	0.178	0.213
-538.193	146.062	-0.139	0.188
-537.179	584.788	0.051	0.126
-536.164	25.644	0.133	-0.112
-535.150	72.193	0.155	-0.163
-534.135	800.000	0.077	-0.257
-533.121	-200.000	-0.096	0.440
-532.106	552.783	-0.098	-0.238
-531.091	-200.000	0.021	-0.548
-530.077	104.609	-0.176	-0.209
-529.062	198.405	-0.091	0.141
-528.048	20.063	-0.128	0.104
-527.033	800.000	-0.065	0.222
-526.018	-67.276	0.355	-0.141
-525.004	5.514	0.160	-0.119
-523.989	86.195	-0.228	0.253
-522.975	-112.471	0.498	-0.100
-521.960	-127.070	0.030	-0.004
-520.945	-76.996	0.119	0.042
-519.931	238.712	-0.095	0.159
-518.916	-28.123	-0.151	0.088
-517.902	729.540	-0.005	0.015
-516.887	56.444	-0.214	-0.209
-515.872	-9.835	-0.210	0.141
-514.858	50.985	0.160	-0.153
-513.843	-76.618	0.199	0.070
-512.829	63.015	-0.402	0.405
-511.814	800.000	-0.077	0.284
-510.799	99.435	0.115	-0.134
-509.785	140.886	-0.050	-0.066
-508.770	373.481	-0.040	0.082
-507.756	584.560	-0.115	-0.285
-506.741	800.000	0.086	-0.315
-505.726	0.163	-0.210	-0.151
-504.712	-103.205	-0.073	0.017
-503.697	47.958	-0.173	-0.163
-502.683	-142.722	0.193	0.019
-501.668	26.561	0.219	0.185
-500.653	296.897	-0.028	0.052
-499.639	-200.000	-0.054	0.299
-498.624	188.761	0.276	0.416
-497.610	-43.252	0.194	0.099
-496.595	800.000	0.070	0.206
-495.581	130.546	-0.074	-0.096
-494.566	-85.627	-0.210	0.066
-493.551	-16.366	0.106	0.067
-492.537	14.699	-0.128	0.101
-491.522	0.120	-0.156	0.112
-490.508	-71.914	-0.121	-0.045
-489.493	-68.755	-0.248	0.096
-488.478	-121.814	-0.429	-0.071
-487.464	-87.697	-0.060	0.018
-486.449	-59.761	0.143	0.062
-485.435	-40.906	-0.081	-0.042
-484.420	61.060	-0.126	-0.126
-483.405	163.157	0.057	-0.081
-482.391	-200.000	0.011	-0.175
-481.376	-22.215	-0.294	0.180
-480.362	-132.399	0.070	0.009
-479.347	-200.000	-0.011	0.163
-478.332	-200.000	-0.002	-0.196
-477.318	424.851	0.013	-0.028
-476.303	46.392	-0.074	-0.069
-475.289	175.532	-0.123	-0.179
-474.274	-200.000	-0.004	0.237
-473.259	-74.304	-0.274	-0.099
-472.245	-42.416	0.260	-0.134
-471.230	141.575	0.047	-0.063
-470.216	147.361	-0.111	-0.151
-469.201	-65.404	0.212	-0.086
-468.186	-110.932	0.238	-0.049
-467.172	-35.767	-0.264	-0.144
-466.157	88.499	-0.278	-0.311
-465.143	132.370	0.238	0.309
-464.128	567.034	0.064	0.157
-463.113	278.869	-0.023	-0.042
-462.099	450.448	0.128	0.284
-461.084	-84.176	0.202	-0.065
-460.070	12.203	0.173	-0.134
-459.055	232.735	0.144	-0.239
-458.040	-181.808	-0.215	-0.004
-457.026	55.504	-0.173	0.169
-456.011	-14.139	0.313	0.203
-454.997	-200.000	0.007	0.089
-453.982	101.650	0.116	-0.136
-452.968	-100.168	-0.341	0.085
-451.953	-140.854	0.155	-0.016
-450.938	345.908	-0.025	0.048
-449.924	-12.892	0.089	0.058
-448.909	18.006	0.077	-0.061
-447.895	-143.640	-0.324	0.031
-446.880	178.905	0.134	0.198
-445.865	-200.000	0.041	0.374
-444.851	252.916	0.075	0.129
-443.836	-200.000	-0.033	0.225
-442.822	267.618	-0.144	-0.253
-441.807	170.656	0.035	-0.051
-440.792	9.373	-0.155	0.118
-439.778	-70.671	0.182	-0.069
-438.763	-200.000	-0.030	0.203
-437.749	-13.102	-0.315	0.206
-436.734	-200.000	0.034	0.181
-435.719	-42.138	0.149	-0.076
-434.705	67.274	0.237	0.243
-433.690	-145.563	0.066	-0.006
-432.676	-33.351	0.048	0.027
-431.661	-6.032	0.042	-0.029
-430.646	-170.003	-0.235	0.008
-429.632	-59.446	-0.111	-0.048
-428.617	-138.373	0.319	0.035
-427.603	-169.107	-0.103	0.004
-426.588	800.000	0.084	0.279
-425.573	-151.921	0.418	-0.031
-424.559	98.452	-0.042	-0.049
-423.544	-126.771	-0.187	0.028
-422.530	-142.391	0.208	-0.021
-421.515	-13.719	-0.058	0.038
-420.500	158.961	-0.154	-0.215
-419.486	398.451	0.195	-0.409
-418.471	-200.000	-0.003	-0.310
-417.457	-149.368	-0.252	0.020
-416.442	-103.674	-0.089	-0.021
-415.428	-11.747	0.146	-0.096
-414.413	23.710	0.078	-0.064
-413.398	800.000	-0.102	-0.369
-412.384	173.080	-0.082	-0.119
-411.369	150.231	0.010	0.013
-410.355	-175.010	-0.339	-0.010
-409.340	-200.000	-0.007	-0.037
-408.325	-136.652	0.266	-0.031
-407.311	-41.492	0.032	0.017
-406.296	800.000	0.055	0.202
-405.282	166.486	0.044	0.062
-404.267	16.933	-0.259	-0.206
-403.252	-31.041	-0.404	-0.229
-402.238	-200.000	0.004	-0.079
-401.223	121.957	0.247	-0.309
-400.209	730.324	-0.056	-0.150
-399.194	-95.819	0.300	-0.080
-398.179	800.000	0.065	0.256
-397.165	-200.000	-0.030	0.268
-396.150	390.667	0.014	-0.029
-395.136	381.698	0.081	0.167
-394.121	-200.000	0.006	0.164
-393.106	-200.000	0.014	0.117
-392.092	-200.000	0.011	0.141
-391.077	228.343	-0.117	-0.191
-390.063	-200.000	-0.062	-0.432
-389.048	-69.465	-0.416	-0.160
-388.033	-99.136	-0.164	-0.042
-387.019	-131.009	0.092	0.012
-386.004	-32.862	-0.082	0.046
-384.990	78.931	-0.178	0.192
-383.975	-109.797	0.182	-0.038
-382.960	-119.314	-0.207	-0.036
-381.946	-200.000	0.019	-0.296
-380.931	-161.867	-0.181	0.009
-379.917	103.373	0.158	0.186
-378.902	-44.322	0.067	0.034
-377.888	15.458	-0.211	-0.166
-376.873	52.639	-0.245	-0.234
-375.858	14.687	0.253	0.199
-374.844	-147.707	-0.314	0.026
-373.829	48.787	0.071	-0.067
-372.815	-126.749	-0.465	0.069
-371.800	-200.000	-0.047	-0.210
-370.785	-53.246	0.139	0.064
-369.771	99.263	-0.058	0.068
-368.756	-13.835	0.140	0.091
-367.742	-40.631	0.107	-0.055
-366.727	-106.445	-0.186	-0.042
-365.712	-78.882	0.079	0.027
-364.698	495.485	0.115	0.264
-363.683	-200.000	0.048	0.388
-362.669	-200.000	-0.057	0.279
-361.654	800.000	-0.013	0.038
-360.639	-24.837	0.272	0.162
-359.625	-43.511	-0.371	-0.188
-358.610	487.110	-0.131	0.300
-357.596	-66.452	0.527	-0.210
-356.581	187.079	0.158	-0.236
-355.566	-200.000	0.023	-0.104
-354.552	-88.175	0.103	-0.031
-353.537	-97.665	0.226	-0.059
-352.523	736.974	-0.087	-0.234
-351.508	-102.130	-0.100	0.024
-350.493	-32.371	-0.187	-0.105
-349.479	56.294	-0.036	0.035
-348.464	-71.276	-0.088	0.033
-347.450	-77.918	0.149	0.052
-346.435	-37.397	0.075	-0.040
-345.420	300.296	0.156	0.288
-344.406	537.257	-0.069	0.163
-343.391	-200.000	0.036	0.340
-342.377	303.573	0.070	-0.129
-341.362	800.000	-0.059	-0.224
-340.348	241.093	-0.057	-0.095
-339.333	230.662	0.115	-0.188
-338.318	-200.000	0.152	0.000
-337.304	39.103	0.233	-0.209
-336.289	-159.086	0.063	-0.004
-335.275	-150.057	-0.303	-0.024
-334.260	113.758	-0.254	-0.310
-333.245	-43.438	0.218	0.110
-332.231	16.154	-0.179	-0.141
-331.216	-196.187	0.195	-0.001
-330.202	-32.248	-0.212	-0.118
-329.187	-93.946	-0.019	-0.005
-328.172	-100.630	-0.092	0.023
-327.158	41.283	0.291	-0.263
-326.143	-200.000	-0.002	-0.222
-325.129	800.000	-0.023	-0.090
-324.114	-200.000	0.085	-0.389
-323.099	34.779	0.223	-0.195
-322.085	-200.000	-0.004	-0.073
-321.070	800.000	0.040	0.124
-320.056	800.000	-0.060	-0.187
-319.041	-69.684	0.056	0.021
-318.026	685.553	0.074	-0.194
-317.012	137.962	0.056	0.073
-315.997	225.117	-0.062	-0.100
-314.983	162.274	0.069	0.096
-313.968	272.687	0.080	0.142
-312.953	133.628	0.120	0.155
-311.939	-200.000	-0.037	-0.300
-310.924	-145.811	-0.345	-0.031
-309.910	-7.053	0.214	-0.145
-308.895	-196.484	0.391	0.003
-307.880	-10.159	-0.027	0.018
-306.866	83.525	0.062	-0.067
-305.851	800.000	-0.019	-0.078
-304.837	-200.000	-0.034	-0.169
-303.822	369.135	0.123	0.248
-302.807	202.449	0.120	-0.185
-301.793	617.079	-0.007	-0.018
-300.778	28.000	-0.279	0.236
-299.764	800.000	-0.066	0.212
-298.749	-12.627	-0.202	-0.132
-297.735	20.718	-0.318	0.257
-296.720	397.961	-0.037	-0.076
-295.705	-177.825	0.123	-0.003
-294.691	59.007	-0.144	-0.141
-293.676	342.368	0.093	-0.181
-292.662	-8.540	-0.392	0.263
-291.647	724.175	-0.112	0.298
-290.632	-36.876	0.179	-0.096
-289.618	-72.369	-0.307	-0.113
-288.603	-43.293	0.345	0.174
-287.589	-35.016	-0.098	-0.054
-286.574	362.074	-0.045	-0.090
-285.559	-200.000	-0.030	0.173
-284.545	-197.206	-0.230	0.001
-283.530	-200.000	-0.012	-0.206
-282.516	-18.701	-0.369	-0.230
-281.501	-11.483	-0.262	-0.172
-280.486	-87.520	0.173	0.052
-279.472	201.555	-0.079	0.121
-278.457	-30.422	-0.203	0.115
-277.443	-200.000	-0.010	-0.076
-276.428	-200.000	0.024	0.171
-275.413	800.000	0.024	-0.077
-274.399	-106.321	0.198	-0.044
-273.384	-21.430	0.105	0.064
-272.370	103.963	0.137	-0.161
-271.355	158.559	0.248	-0.343
-270.340	125.676	0.186	-0.235
-269.326	-151.223	0.083	-0.006
-268.311	-31.743	-0.191	-0.107
-267.297	-200.000	0.040	0.246
-266.282	133.071	-0.203	-0.261
-265.267	800.000	-0.042	0.164
-264.253	-200.000	-0.014	-0.159
-263.238	48.987	-0.136	-0.127
-262.224	35.927	0.090	0.079
-261.209	-163.186	0.201	0.010
-260.195	-5.134	-0.110	-0.075
-259.180	-48.720	0.211	-0.101
-258.165	338.552	0.113	-0.220
-257.151	-200.000	-0.022	-0.125
-256.136	-112.791	0.210	0.042
-255.122	-200.000	-0.003	0.455
-254.107	800.000	-0.142	0.481
-253.092	-75.600	0.086	0.031
-252.078	0.667	-0.207	0.147
-251.063	-45.064	-0.362	-0.180
-250.049	-40.480	0.047	-0.024
-249.034	-200.000	-0.032	-0.164
-248.019	800.000	0.078	0.300
-247.005	-169.424	0.324	-0.012
-245.990	472.424	-0.129	-0.291
-244.976	800.000	-0.066	-0.186
-243.961	-149.256	0.178	0.014
-242.946	-87.227	-0.379	0.115
-241.932	-200.000	0.065	-0.336
-240.917	-51.697	-0.019	0.009
-239.903	296.492	0.076	0.139
-238.888	-200.000	0.002	0.022
-237.873	-200.000	0.024	0.207
-236.859	288.590	0.068	0.123
-235.844	37.155	0.086	0.076
-234.830	-74.010	-0.214	0.078
-233.815	-16.475	0.570	0.360
-232.800	0.855	-0.469	-0.335
-231.786	-58.082	-0.167	-0.073
-230.771	-98.884	-0.240	0.061
-229.757	800.000	-0.011	-0.033
-228.742	16.162	-0.157	-0.124
-227.727	-200.000	-0.194	-0.001
-226.713	-200.000	0.036	-0.165
-225.698	62.044	0.167	0.166
-224.684	-133.260	0.120	0.015
-223.669	791.233	-0.104	0.285
-222.655	25.446	0.055	0.046
-221.640	-200.000	-0.041	-0.412
-220.625	43.430	0.234	-0.213
-219.611	800.000	-0.090	0.269
-218.596	800.000	0.216	0.636
-217.582	155.541	-0.109	0.150
-216.567	187.534	-0.142	-0.212
-215.552	11.425	0.316	-0.241
-214.538	-135.349	0.449	-0.054
-213.523	63.992	0.252	-0.252
-212.509	-200.000	-0.035	0.162
-211.494	-200.000	-0.015	-0.167
-210.479	-200.000	0.125	-0.001
-209.465	800.000	-0.050	0.190
-208.450	120.905	0.047	0.059
-207.436	90.847	0.116	-0.130
-206.421	-54.230	0.032	-0.015
-205.406	-200.000	-0.002	-0.090
-204.392	80.005	0.187	-0.200
-203.377	-81.129	-0.231	0.076
-202.363	-94.399	-0.117	-0.032
-201.348	-128.172	-0.229	0.033
-200.333	-150.508	0.165	0.013
-199.319	-200.000	0.011	0.102
-198.304	82.625	-0.103	0.111
-197.290	-200.000	-0.052	-0.437
-196.275	-161.148	-0.151	0.008
-195.260	-60.763	-0.281	0.119
-194.246	293.283	0.171	0.311
-193.231	800.000	0.012	0.045
-192.217	-160.289	0.113	-0.006
-191.202	117.563	-0.214	-0.262
-190.187	65.344	0.363	0.366
-189.173	21.514	0.237	0.192
-188.158	-200.000	-0.015	-0.433
-187.144	-172.374	-0.351	-0.011
-186.129	-200.000	-0.033	-0.344
-185.114	800.000	-0.070	-0.245
-184.100	367.073	-0.256	0.514
-183.085	-72.044	-0.057	-0.021
-182.071	-200.000	0.007	-0.311
-181.056	31.120	0.132	0.113
-180.042	800.000	-0.099	0.356
-179.027	18.473	0.176	-0.140
-178.012	14.430	-0.230	0.179
-176.998	72.519	-0.215	0.223
-175.983	256.247	0.121	0.207
-174.969	-111.981	-0.254	0.051
-173.954	10.002	-0.179	0.135
-172.939	363.862	-0.093	0.186
-171.925	-38.949	0.215	0.113
-170.910	-15.539	0.106	-0.067
-169.896	238.669	0.204	-0.337
-168.881	53.517	-0.075	-0.072
-167.866	-200.000	0.013	0.224
-166.852	624.595	0.038	-0.097
-165.837	-200.000	0.044	0.289
-164.823	98.576	0.124	0.143
-163.808	-88.772	-0.032	-0.009
-162.793	-113.461	-0.345	0.067
-161.779	-147.388	-0.422	-0.036
-160.764	-200.000	-0.018	0.264
-159.750	-139.043	-0.398	-0.043
-158.735	800.000	-0.064	-0.212
-157.720	-79.052	-0.222	-0.075
-156.706	104.561	0.122	0.142
-155.691	202.081	-0.179	0.274
-154.677	-200.000	0.002	-0.021
-153.662	-54.156	0.160	0.072
-152.647	-182.436	0.258	0.005
-151.633	-82.614	-0.269	0.087
-150.618	98.740	0.242	-0.277
-149.604	-165.738	0.128	-0.005
-148.589	-25.673	0.169	0.099
-147.574	-148.458	-0.302	0.025
-146.560	28.377	0.350	-0.294
-145.545	-104.345	0.270	0.062
-144.531	-159.128	0.261	0.015
-143.516	250.337	0.219	0.369
-142.502	271.321	0.169	0.295
-141.487	-200.000	-0.034	-0.193
-140.472	800.000	-0.065	0.268
-139.458	194.777	0.299	0.451
-138.443	-200.000	0.029	-0.152
-137.429	-49.792	-0.165	-0.078
-136.414	150.886	0.182	0.246
-135.399	308.391	0.069	0.127
-134.385	39.766	-0.264	-0.235
-133.370	-53.947	-0.046	0.021
-132.356	-162.231	0.149	0.007
-131.341	280.767	0.096	-0.171
-130.326	295.728	0.077	0.139
-129.312	447.170	-0.103	-0.225
-128.297	404.631	0.064	-0.133
-127.283	55.606	0.038	-0.037
-126.268	276.090	-0.046	0.081
-125.253	-173.278	-0.147	-0.004
-124.239	-46.552	0.125	0.061
-123.224	111.797	-0.104	-0.125
-122.210	-27.311	0.165	-0.095
-121.195	-69.346	-0.049	0.019
-120.180	-200.000	-0.014	0.147
-119.166	-115.533	0.127	-0.024
-118.151	15.745	0.128	0.100
-117.137	-157.082	0.257	0.016
-116.122	-200.000	-0.004	-0.165
-115.107	154.347	-0.105	-0.144
-114.093	-200.000	-0.045	0.206
-113.078	9.565	0.237	0.178
-112.064	800.000	0.128	0.400
-111.049	-200.000	-0.046	-0.215
-110.034	156.299	-0.065	0.089
-109.020	-5.616	0.066	0.045
-108.005	177.347	-0.147	-0.213
-106.991	79.618	0.098	-0.105
-105.976	445.401	-0.078	-0.170
-104.962	-200.000	-0.030	0.206
-103.947	-56.359	0.254	-0.112
-102.932	800.000	0.160	0.518
-101.918	800.000	-0.021	-0.089
-100.903	-158.817	-0.131	-0.007
-99.889	279.203	-0.122	0.216
-98.874	42.253	0.133	-0.120
-97.859	103.963	-0.118	-0.137
-96.845	390.283	0.190	0.392
-95.830	800.000	-0.040	0.119
-94.816	-57.493	0.175	-0.076
-93.801	174.728	-0.092	-0.132
-92.786	-81.413	-0.201	-0.066
-91.772	-119.382	0.462	-0.080
-90.757	-104.252	0.196	0.045
-89.743	-106.895	-0.248	-0.054
-88.728	462.015	0.110	0.243
-87.713	-100.892	0.243	0.059
-86.699	83.359	0.217	-0.234
-85.684	-200.000	0.018	0.109
-84.670	150.391	0.189	-0.254
-83.655	19.681	0.132	0.105
-82.640	-165.771	0.159	-0.007
-81.626	75.463	0.074	0.078
-80.611	-21.507	-0.171	-0.103
-79.597	57.703	-0.350	0.339
-78.582	358.931	0.159	-0.316
-77.567	322.165	0.198	-0.374
-76.553	407.316	0.084	-0.176
-75.538	-136.462	0.387	0.045
-74.524	-200.000	0.003	-0.101
-73.509	139.383	0.297	-0.387
-72.494	-144.757	-0.096	0.009
-71.480	-28.898	0.333	-0.190
-70.465	-110.025	0.156	0.032
-69.451	560.280	0.116	0.278
-68.436	16.234	0.149	0.117
-67.422	-36.678	0.249	0.133
-66.407	-100.499	-0.215	-0.053
-65.392	-133.149	0.109	0.014
-64.378	-27.852	0.187	0.107
-63.363	237.517	0.096	0.158
-62.349	-65.323	0.186	0.074
-61.334	-28.199	-0.796	-0.456
-60.319	-17.264	0.549	0.343
-59.305	-200.000	-0.139	-0.796
-58.290	78.948	0.643	0.682
-57.276	630.249	0.695	1.742
-56.261	-200.000	93.435	565.547
-55.246	554.588	1365.365	3253.123
-54.232	151.769	2582.160	3485.012
-53.217	108.020	2317.600	2735.469
-52.203	42.778	2068.409	1865.761
-51.188	37.737	1981.068	1741.972
-50.173	36.079	1962.253	1710.658
-49.159	50.710	2013.485	1887.224
-48.144	53.855	2032.973	1933.697
-47.130	38.408	1990.327	1755.860
-46.115	36.000	1978.331	1723.691
-45.100	35.854	1975.638	1719.972
-44.086	35.750	1973.561	1717.172
-43.071	35.763	1970.695	1714.727
-42.057	35.675	1968.939	1712.347
-41.042	35.751	1966.976	1711.245
-40.027	35.827	1964.626	1709.807
-39.013	35.806	1962.527	1707.728
-37.998	35.755	1961.362	1706.191
-36.984	35.830	1959.494	1705.164
-35.969	35.798	1957.601	1703.169
-34.954	35.929	1955.487	1702.418
-33.940	35.940	1954.002	1701.152
-32.925	35.923	1952.544	1699.664
-31.911	35.910	1950.814	1697.976
-30.896	35.804	1949.697	1696.009
-29.881	35.945	1948.061	1695.755
-28.867	35.914	1946.430	1693.998
-27.852	35.949	1944.554	1692.603
-26.838	35.924	1942.628	1690.642
-25.823	35.907	1941.389	1689.350
-24.809	35.926	1939.045	1687.409
-23.794	35.853	1937.487	1685.344
-22.779	35.892	1935.727	1684.088
-21.765	35.831	1934.314	1682.259
-20.750	35.811	1932.841	1680.736
-19.736	35.896	1930.418	1679.303
-18.721	35.853	1929.680	1678.224
-17.706	35.790	1928.654	1676.709
-16.692	35.830	1926.820	1675.397
-15.677	36.000	1924.232	1674.563
-14.663	35.911	1923.519	1673.104
-13.648	35.927	1922.407	1672.202
-12.633	35.897	1920.893	1670.566
-11.619	35.839	1920.164	1669.356
-10.604	35.857	1918.384	1667.897
-9.590	35.927	1916.639	1666.926
-8.575	35.870	1915.671	1665.526
-7.560	35.893	1914.112	1664.299
-6.546	35.919	1912.836	1663.349
-5.531	35.951	1911.605	1662.490
-4.517	35.937	1909.675	1660.621
-3.502	35.940	1908.686	1659.724
-2.487	35.869	1908.172	1658.596
-1.473	35.907	1907.031	1657.866
-0.458	35.898	1902.913	1654.146
0.556	35.553	1882.524	1625.854
1.571	31.284	1863.848	1573.710
2.586	27.442	1885.539	1559.060
3.600	26.424	1922.122	1580.278
4.615	25.949	1918.303	1572.856
5.629	19.835	1816.464	1438.548
6.644	8.375	1691.709	1250.381
7.659	2.212	1650.759	1172.812
8.673	1.755	1646.701	1166.331
9.688	1.660	1645.745	1164.824
10.702	1.641	1643.932	1163.289
11.717	1.464	1640.707	1159.555
12.731	1.894	1640.207	1162.379
13.746	8.980	1656.758	1228.423
14.761	19.772	1681.327	1329.984
15.775	24.929	1691.152	1377.419
16.790	25.755	1691.883	1384.244
17.804	25.877	1691.419	1384.677
18.819	26.004	1689.783	1384.197
19.834	26.149	1689.270	1384.762
20.848	26.285	1688.877	1385.364
21.863	26.374	1688.013	1385.215
22.877	26.364	1687.382	1384.491
23.892	26.468	1686.117	1384.127
24.907	26.342	1685.530	1382.560
25.921	26.340	1684.066	1381.226
26.936	26.315	1683.582	1380.513
27.950	26.419	1682.136	1380.002
28.965	26.328	1682.039	1379.105
29.980	26.443	1680.894	1378.916
30.994	26.431	1679.460	1377.533
32.009	26.387	1678.103	1375.961
33.023	26.390	1677.537	1375.398
34.038	26.414	1676.398	1374.519
35.053	26.372	1675.470	1373.324
36.067	26.448	1674.172	1372.711
37.082	26.370	1673.848	1371.733
38.096	26.427	1672.260	1370.746
39.111	26.360	1671.767	1369.709
40.126	26.422	1670.986	1369.420
41.140	26.435	1669.977	1368.566
42.155	26.442	1669.165	1367.836
43.169	26.300	1668.506	1366.098
44.184	26.341	1667.319	1365.319
45.199	26.342	1666.310	1364.380
46.213	26.330	1664.601	1362.765
47.228	26.335	1663.620	1361.883
48.242	26.378	1662.432	1361.109
49.257	26.369	1661.103	1359.839
50.271	26.296	1660.730	1358.862
51.286	26.420	1658.403	1357.768
52.301	26.361	1657.700	1356.630
53.315	26.338	1656.476	1355.336
54.330	26.320	1655.311	1354.131
55.344	26.368	1653.116	1352.574
56.359	26.349	1652.438	1351.756
57.374	26.441	1650.980	1351.128
58.388	26.308	1650.286	1349.448
59.403	26.338	1649.046	1348.540
60.417	26.271	1648.067	1347.117
61.432	26.313	1646.944	1346.399
62.447	26.321	1645.902	1345.485
63.461	26.307	1645.160	1344.653
64.476	26.360	1644.431	1344.337
65.490	26.337	1643.318	1343.134
66.505	26.346	1642.154	1342.132
67.520	26.372	1640.923	1341.203
68.534	26.377	1640.218	1340.545
69.549	26.416	1638.552	1339.351
70.563	26.387	1637.814	1338.410
71.578	26.371	1636.628	1337.208
72.593	26.344	1636.070	1336.436
73.607	26.504	1634.873	1336.517
74.622	26.358	1633.790	1334.440
75.636	26.311	1633.325	1333.595
76.651	26.411	1632.223	1333.312
77.666	26.401	1631.584	1332.599
78.680	26.442	1630.422	1331.836
79.695	26.395	1629.812	1330.872
80.709	26.374	1628.803	1329.780
81.724	26.346	1627.981	1328.784
82.739	26.378	1626.895	1328.014
83.753	26.363	1626.051	1327.097
84.768	26.353	1624.736	1325.833
85.782	26.371	1624.143	1325.361
86.797	26.348	1623.213	1324.316
87.812	26.371	1622.398	1323.704
88.826	26.401	1621.287	1322.903
89.841	26.473	1620.486	1322.658
90.855	26.394	1619.363	1321.045
91.870	26.339	1618.510	1319.833
92.884	26.485	1617.184	1319.701
93.899	26.379	1616.596	1318.326
94.914	26.380	1614.999	1316.913
95.928	26.477	1614.087	1316.764
96.943	26.501	1612.638	1315.638
97.957	26.352	1612.107	1314.007
98.972	26.418	1610.643	1313.177
99.987	26.342	1609.385	1311.486
101.001	26.463	1607.574	1310.767
102.016	26.358	1606.329	1308.874
103.030	26.346	1604.626	1307.289
104.045	26.350	1603.779	1306.511
105.060	26.434	1602.284	1305.779
106.074	26.408	1601.409	1304.765
107.089	26.443	1600.015	1303.766
108.103	26.328	1599.102	1302.081
109.118	26.461	1597.686	1301.767
110.133	26.412	1596.581	1300.404
111.147	26.443	1595.539	1299.656
112.162	26.526	1594.149	1299.012
113.176	26.472	1592.816	1297.421
114.191	26.483	1591.390	1296.225
115.206	26.481	1590.531	1295.394
116.220	26.364	1589.414	1293.531
117.235	26.421	1588.249	1292.874
118.249	26.511	1586.826	1292.247
119.264	26.358	1586.580	1290.840
120.279	26.463	1584.728	1289.967
121.293	26.471	1584.120	1289.416
122.308	26.523	1582.731	1288.541
123.322	26.589	1581.522	1287.915
124.337	26.540	1580.692	1286.771
125.352	26.583	1579.437	1285.945
126.366	26.515	1578.718	1284.763
127.381	26.497	1578.307	1284.187
128.395	26.517	1577.552	1283.600
129.410	26.535	1576.105	1282.435
130.424	26.565	1574.922	1281.576
131.439	26.503	1573.796	1280.107
132.454	26.558	1572.837	1279.597
133.468	26.510	1571.442	1278.015
134.483	26.611	1569.825	1277.294
135.497	26.651	1568.723	1276.568
136.512	26.522	1567.682	1274.704
137.527	26.544	1566.576	1273.843
138.541	26.603	1565.633	1273.380
139.556	26.542	1564.613	1272.006
140.570	26.570	1563.297	1271.024
141.585	26.592	1561.911	1269.940
142.600	26.529	1561.120	1268.738
143.614	26.554	1559.362	1267.371
144.629	26.587	1558.666	1266.926
145.643	26.566	1557.566	1265.775
146.658	26.465	1556.654	1264.219
147.673	26.501	1554.631	1262.715
148.687	26.483	1554.033	1261.990
149.702	26.514	1553.209	1261.423
150.716	26.558	1551.040	1259.858
151.731	26.481	1550.437	1258.722
152.746	26.554	1549.710	1258.527
153.760	26.481	1548.457	1256.888
154.775	26.583	1547.375	1256.612
155.789	26.638	1546.443	1256.123
156.804	26.555	1545.175	1254.408
157.819	26.603	1543.876	1253.574
158.833	26.504	1543.316	1252.325
159.848	26.552	1542.339	1251.750
160.862	26.698	1541.341	1251.837
161.877	26.692	1540.394	1250.919
162.892	26.630	1539.515	1249.663
163.906	26.630	1538.259	1248.538
164.921	26.672	1537.040	1247.726
165.935	26.649	1536.372	1246.917
166.950	26.753	1535.097	1246.484
167.964	26.715	1534.244	1245.423
168.979	26.653	1533.829	1244.544
169.994	26.685	1532.654	1243.704
171.008	26.708	1531.972	1243.196
172.023	26.633	1531.255	1241.988
173.037	26.622	1530.311	1241.038
174.052	26.677	1528.768	1240.054
175.067	26.707	1527.885	1239.438
176.081	26.764	1526.739	1238.785
177.096	26.656	1526.005	1237.339
178.110	26.652	1524.883	1236.298
179.125	26.627	1524.197	1235.460
180.140	26.705	1523.152	1235.033
181.154	26.774	1521.838	1234.327
182.169	26.733	1521.579	1233.733
183.183	26.702	1520.456	1232.500
184.198	26.730	1519.666	1231.939
185.213	26.730	1518.591	1230.963
186.227	26.743	1517.729	1230.241
187.242	26.734	1517.171	1229.621
188.256	26.832	1516.127	1229.329
189.271	26.811	1515.510	1228.576
190.286	26.805	1514.834	1227.881
191.300	26.812	1513.619	1226.833
192.315	26.823	1512.631	1225.996
193.329	26.751	1511.770	1224.708
194.344	26.682	1510.825	1223.368
195.359	26.754	1510.389	1223.391
196.373	26.758	1509.719	1222.769
197.388	26.802	1508.298	1221.806
198.402	26.672	1507.663	1220.305
199.417	26.631	1506.791	1219.217
200.432	26.809	1505.392	1219.172
201.446	26.726	1505.282	1218.418
202.461	26.759	1504.211	1217.663
203.475	26.774	1503.445	1217.038
204.490	26.847	1502.381	1216.562
205.504	26.740	1501.876	1215.327
206.519	26.790	1500.797	1214.680
207.534	26.794	1499.871	1213.849
208.548	26.885	1499.086	1213.715
209.563	26.911	1498.067	1212.954
210.577	26.913	1497.530	1212.430
211.592	26.889	1497.011	1211.743
212.607	26.762	1496.531	1210.397
213.621	26.919	1495.289	1210.330
214.636	26.863	1494.556	1209.255
215.650	26.850	1493.552	1208.252
216.665	27.005	1492.575	1208.389
217.680	26.882	1492.356	1207.282
218.694	26.860	1491.381	1206.244
219.709	26.906	1490.498	1205.724
220.723	26.876	1489.645	1204.732
221.738	26.943	1488.762	1204.357
222.753	26.958	1487.689	1203.477
223.767	26.881	1486.846	1202.180
224.782	26.910	1485.903	1201.503
225.796	26.922	1485.503	1201.152
226.811	26.930	1484.803	1200.538
227.826	26.946	1484.026	1199.904
228.840	26.918	1483.438	1199.142
229.855	26.966	1482.232	1198.378
230.869	26.954	1481.893	1197.916
231.884	26.916	1480.818	1196.689
232.899	27.009	1479.250	1195.927
233.913	26.961	1478.854	1195.188
234.928	26.952	1477.628	1194.030
235.942	27.007	1476.436	1193.324
236.957	27.048	1475.695	1192.888
237.972	27.117	1474.331	1192.132
238.986	27.127	1473.324	1191.282
240.001	26.997	1472.726	1189.841
241.015	27.015	1472.116	1189.356
242.030	27.054	1471.172	1188.746
243.045	27.238	1469.951	1188.861
244.059	27.260	1468.718	1187.900
245.074	27.193	1467.840	1186.644
246.088	27.265	1467.481	1186.722
247.103	27.227	1466.768	1185.792
248.117	27.210	1466.368	1185.256
249.132	27.192	1465.239	1184.115
250.147	27.263	1464.666	1184.015
251.161	27.179	1464.117	1182.918
252.176	27.217	1463.589	1182.633
253.190	27.278	1462.567	1182.096
254.205	27.257	1461.841	1181.274
255.220	27.269	1460.734	1180.351
256.234	27.298	1459.651	1179.558
257.249	27.217	1459.134	1178.510
258.263	27.190	1458.543	1177.757
259.278	27.400	1457.411	1178.096
260.293	27.310	1456.734	1176.860
261.307	27.265	1456.211	1176.045
262.322	27.362	1455.394	1175.906
263.336	27.371	1454.597	1175.220
264.351	27.330	1453.454	1173.927
265.366	27.333	1452.647	1173.189
266.380	27.388	1452.058	1172.962
267.395	27.398	1450.921	1172.007
268.409	27.232	1450.283	1170.320
269.424	27.326	1449.467	1170.163
270.439	27.351	1448.112	1169.128
271.453	27.286	1447.393	1168.026
272.468	27.377	1446.772	1168.003
273.482	27.377	1446.426	1167.620
274.497	27.378	1445.399	1166.695
275.512	27.241	1444.725	1165.166
276.526	27.411	1444.141	1165.685
277.541	27.483	1442.813	1164.969
278.555	27.448	1442.372	1164.288
279.570	27.465	1441.764	1163.799
280.585	27.425	1440.851	1162.705
281.599	27.439	1440.034	1162.031
282.614	27.367	1439.167	1160.771
283.628	27.430	1438.162	1160.260
284.643	27.384	1437.329	1159.194
285.657	27.460	1436.245	1158.697
286.672	27.487	1435.325	1158.027
287.687	27.469	1434.273	1156.958
288.701	27.413	1433.677	1156.019
289.716	27.429	1433.327	1155.739
290.730	27.548	1432.727	1155.909
291.745	27.466	1431.412	1154.222
292.760	27.533	1430.669	1153.945
293.774	27.597	1429.547	1153.345
294.789	27.524	1428.907	1152.267
295.803	27.558	1428.159	1151.775
296.818	27.596	1427.198	1151.138
297.833	27.634	1425.916	1150.240
298.847	27.598	1425.597	1149.657
299.862	27.637	1424.873	1149.217
300.876	27.706	1424.006	1148.852
301.891	27.555	1423.582	1147.455
302.906	27.537	1422.727	1146.554
303.920	27.820	1421.437	1147.186
304.935	27.710	1421.208	1146.211
305.949	27.713	1420.451	1145.519
306.964	27.620	1419.644	1144.181
307.979	27.671	1418.795	1143.716
308.993	27.691	1417.899	1143.018
310.008	27.767	1417.067	1142.722
311.022	27.748	1416.033	1141.667
312.037	27.698	1415.162	1140.549
313.052	27.684	1414.627	1139.931
314.066	27.804	1413.512	1139.684
315.081	27.844	1412.114	1138.702
316.095	27.746	1411.832	1137.763
317.110	27.717	1410.998	1136.810
318.125	27.743	1410.316	1136.324
319.139	27.794	1408.808	1135.324
320.154	27.846	1408.422	1135.238
321.168	27.801	1407.426	1134.051
322.183	27.814	1406.559	1133.337
323.197	27.860	1405.562	1132.719
324.212	27.854	1404.878	1132.028
325.227	27.861	1404.163	1131.396
326.241	27.868	1403.209	1130.571
327.256	28.018	1402.430	1130.774
328.270	27.849	1402.549	1129.719
329.285	27.955	1401.297	1129.270
330.300	27.960	1400.094	1128.227
331.314	27.952	1399.469	1127.577
332.329	28.024	1398.729	1127.326
333.343	27.909	1398.172	1126.068
334.358	27.920	1397.492	1125.486
335.373	28.012	1396.666	1125.289
336.387	27.896	1396.332	1124.204
337.402	28.047	1395.280	1124.189
338.416	28.132	1394.721	1124.159
339.431	28.058	1393.988	1123.018
340.446	28.130	1393.177	1122.707
341.460	28.042	1392.469	1121.498
342.475	28.112	1391.659	1121.176
343.489	28.134	1390.711	1120.444
344.504	28.067	1389.909	1119.291
345.519	28.008	1389.267	1118.311
346.533	28.034	1388.195	1117.511
347.548	28.133	1386.984	1117.041
348.562	28.089	1386.064	1115.933
349.577	28.118	1385.644	1115.669
350.592	28.158	1384.899	1115.218
351.606	28.141	1383.864	1114.181
352.621	28.032	1383.003	1112.729
353.635	27.968	1382.617	1111.926
354.650	28.148	1381.658	1112.154
355.665	28.196	1380.909	1111.743
356.679	28.324	1379.604	1111.371
357.694	28.242	1378.333	1109.751
358.708	28.210	1377.350	1108.665
359.723	28.173	1376.897	1107.981
360.738	28.210	1375.782	1107.209
361.752	28.231	1374.501	1106.208
362.767	28.330	1373.212	1105.670
363.781	28.150	1372.600	1103.992
364.796	28.264	1371.922	1104.042
365.810	28.306	1370.874	1103.350
366.825	28.300	1370.630	1103.018
367.840	28.226	1369.786	1101.801
368.854	28.302	1369.444	1101.885
369.869	28.502	1368.462	1102.199
370.883	28.321	1368.090	1100.715
371.898	28.383	1367.227	1100.291
372.913	28.452	1366.259	1099.830
373.927	28.362	1365.530	1098.605
374.942	28.452	1364.720	1098.400
375.956	28.418	1364.141	1097.628
376.971	28.392	1363.688	1097.015
377.986	28.455	1362.753	1096.540
379.000	28.520	1362.013	1096.238
380.015	28.513	1360.994	1095.276
381.029	28.407	1360.647	1094.270
382.044	28.458	1360.067	1094.010
383.059	28.582	1359.087	1093.864
384.073	28.542	1358.613	1093.150
385.088	28.495	1358.189	1092.428
386.102	28.432	1357.624	1091.504
387.117	28.546	1357.172	1091.721
388.132	28.588	1356.237	1091.123
389.146	28.492	1355.246	1089.660
390.161	28.582	1355.060	1089.948
391.175	28.574	1353.899	1088.869
392.190	28.639	1353.517	1088.850
393.205	28.572	1352.896	1087.856
394.219	28.654	1351.706	1087.289
395.234	28.692	1350.722	1086.629
396.248	28.696	1349.549	1085.611
397.263	28.674	1348.338	1084.412
398.278	28.653	1347.699	1083.677
399.292	28.791	1346.516	1083.442
400.307	28.693	1346.031	1082.380
401.321	28.763	1345.181	1082.017
402.336	28.774	1344.178	1081.177
403.350	28.635	1343.191	1079.471
404.365	28.751	1341.963	1079.071
405.380	28.758	1341.141	1078.355
406.394	28.787	1340.716	1078.088
407.409	28.812	1339.960	1077.529
408.423	28.773	1339.132	1076.539
409.438	28.839	1338.787	1076.556
410.453	28.902	1337.728	1075.973
411.467	28.818	1337.363	1075.098
412.482	28.984	1336.503	1075.277
413.496	28.842	1336.076	1074.008
414.511	28.906	1335.303	1073.668
415.526	28.984	1334.525	1073.402
416.540	28.963	1333.684	1072.509
417.555	28.972	1333.053	1071.962
418.569	28.892	1332.420	1070.888
419.584	29.008	1332.190	1071.283
420.599	28.928	1331.905	1070.496
421.613	91.969	1346.446	1436.940
422.628	91.601	1348.538	1437.073
