DTS Sentinel unit serial number:	SN413079Multiplexer serial number:	ORYXHardware model number:	OX4-SRSoftware version number:	ORYX F/W v4.00 Oryx Data Collector v3.7.2.0data status	okinstallation	princeton_trtdifferential loss correction	single-endedforward channel	channel 4reverse channel	N/Adate	2019/09/12time	06:07:11forward acquisition time	60.00reverse acquisition time	0.00gamma	496.2192k internal	0.2308k external	0.2308temperature offset calibration	1.0062default loss term (dB/km)	0.3790temperature slope calibration	1.0000multiplexer offset coefficient	1.0000multiplexer slope coefficient	1.0000fibre end	0.00T internal ref (°C)	32.12T ext. ref 1 (°C)	1.57T ext. ref 2 (°C)	27.35length (m)	temperature (°C)	Stokes	anti-Stokes-747.200	56.187	0.096	0.094
-746.185	800.000	-0.064	0.280
-745.171	655.350	0.062	0.161
-744.156	768.672	-0.128	0.353
-743.142	46.550	-0.236	-0.222
-742.127	800.000	0.088	0.266
-741.112	31.305	-0.275	-0.240
-740.098	-200.000	-0.011	-0.089
-739.083	85.313	0.070	0.079
-738.069	-9.149	-0.391	0.266
-737.054	-88.948	0.261	-0.079
-736.039	-200.000	0.007	-0.082
-735.025	-200.000	-0.044	0.216
-734.010	-164.052	-0.121	-0.006
-732.996	800.000	-0.056	0.178
-731.981	800.000	0.065	0.219
-730.966	-200.000	-0.081	0.475
-729.952	53.557	0.161	-0.157
-728.937	-200.000	-0.053	0.328
-727.923	-200.000	-0.050	0.345
-726.908	800.000	0.055	-0.161
-725.894	194.958	-0.117	-0.181
-724.879	-31.365	-0.322	-0.184
-723.864	13.166	-0.131	-0.103
-722.850	-24.252	0.161	0.098
-721.835	77.391	0.276	-0.298
-720.821	702.318	-0.150	-0.400
-719.806	800.000	-0.126	-0.463
-718.791	-200.000	0.004	0.047
-717.777	-200.000	0.023	0.251
-716.762	-82.971	0.036	0.012
-715.748	-76.960	0.127	-0.045
-714.733	330.809	-0.117	0.230
-713.718	-84.685	-0.057	-0.018
-712.704	-80.792	-0.167	-0.056
-711.689	-160.398	-0.178	0.010
-710.675	295.329	0.090	-0.167
-709.660	-132.685	0.174	0.023
-708.645	-49.298	-0.196	-0.095
-707.631	274.905	-0.065	-0.118
-706.616	120.422	-0.211	0.265
-705.602	-92.301	0.424	0.121
-704.587	-97.282	-0.113	-0.030
-703.572	35.132	0.097	0.086
-702.558	2.888	-0.407	-0.300
-701.543	286.606	-0.169	-0.310
-700.529	64.106	0.055	0.057
-699.514	67.414	0.131	0.136
-698.499	228.962	-0.072	0.119
-697.485	-63.565	0.060	-0.025
-696.470	-114.491	0.241	-0.047
-695.456	127.087	0.128	-0.164
-694.441	26.731	-0.176	-0.149
-693.426	-150.240	-0.251	-0.020
-692.412	448.243	0.070	0.157
-691.397	-18.728	-0.237	0.150
-690.383	40.969	-0.125	-0.114
-689.368	-167.364	-0.049	-0.002
-688.354	-127.944	-0.582	-0.085
-687.339	-107.830	0.364	0.080
-686.324	175.063	0.267	0.393
-685.310	-52.234	0.376	-0.177
-684.295	251.698	0.129	-0.223
-683.281	537.909	-0.118	-0.284
-682.266	-59.572	-0.075	-0.033
-681.251	-88.750	0.070	0.021
-680.237	699.197	-0.132	0.352
-679.222	-56.242	0.446	-0.201
-678.208	84.186	0.159	0.176
-677.193	284.036	-0.039	0.072
-676.178	-20.580	-0.251	-0.156
-675.164	-110.497	-0.062	0.013
-674.149	-87.756	0.471	-0.144
-673.135	51.700	-0.156	0.151
-672.120	800.000	0.055	0.233
-671.105	159.806	0.074	-0.104
-670.091	-12.875	-0.217	-0.143
-669.076	414.871	0.017	-0.036
-668.062	147.437	-0.148	-0.203
-667.047	98.982	0.108	0.127
-666.032	63.792	0.178	-0.181
-665.018	25.243	0.315	-0.266
-664.003	800.000	-0.025	-0.081
-662.989	800.000	-0.040	-0.129
-661.974	-53.490	-0.206	-0.095
-660.959	-200.000	-0.059	0.282
-659.945	141.419	0.130	0.174
-658.930	227.088	-0.160	0.263
-657.916	31.771	0.023	-0.020
-656.901	17.168	-0.284	-0.228
-655.886	-13.367	-0.075	-0.049
-654.872	125.182	0.125	-0.160
-653.857	35.482	0.269	0.239
-652.843	189.674	-0.145	-0.220
-651.828	800.000	0.088	0.261
-650.814	-162.852	0.302	0.015
-649.799	-54.360	-0.204	0.094
-648.784	39.181	0.211	0.191
-647.770	329.947	0.110	0.214
-646.755	-200.000	0.014	0.118
-645.741	-84.457	-0.571	-0.183
-644.726	175.395	0.151	-0.221
-643.711	746.167	-0.040	0.109
-642.697	-98.514	0.499	0.129
-641.682	470.153	-0.045	-0.102
-640.668	-180.187	-0.449	0.010
-639.653	-200.000	-0.039	0.285
-638.638	-118.352	-0.113	-0.020
-637.624	4.175	0.350	-0.260
-636.609	529.610	-0.109	-0.261
-635.595	-43.063	0.411	-0.211
-634.580	-25.491	-0.248	-0.148
-633.565	-162.825	-0.437	-0.022
-632.551	800.000	0.096	0.372
-631.536	-135.926	0.368	-0.044
-630.522	-200.000	-0.039	0.296
-629.507	800.000	0.095	-0.391
-628.492	3.847	-0.175	-0.129
-627.478	110.850	0.199	-0.243
-626.463	271.128	0.135	-0.241
-625.449	-38.123	0.084	-0.045
-624.434	358.732	-0.049	0.099
-623.419	-66.537	-0.153	-0.061
-622.405	800.000	-0.115	-0.407
-621.390	257.010	-0.152	0.264
-620.376	-200.000	0.028	-0.297
-619.361	154.785	-0.154	0.215
-618.346	372.441	-0.138	0.283
-617.332	113.018	0.307	-0.377
-616.317	-85.285	0.315	0.100
-615.303	48.413	0.071	0.067
-614.288	21.030	-0.315	-0.259
-613.273	-98.826	0.319	0.082
-612.259	26.383	-0.443	-0.375
-611.244	-200.000	-0.006	-0.276
-610.230	98.076	0.058	-0.067
-609.215	800.000	0.088	0.267
-608.201	-200.000	0.021	0.140
-607.186	-200.000	-0.017	-0.081
-606.171	-125.937	-0.105	-0.016
-605.157	800.000	-0.028	0.112
-604.142	-200.000	-0.247	0.001
-603.128	-140.240	0.160	0.017
-602.113	-200.000	0.005	-0.079
-601.098	-200.000	0.023	-0.118
-600.084	-63.459	0.234	-0.097
-599.069	248.544	-0.047	-0.081
-598.055	-192.773	0.233	0.002
-597.040	47.038	-0.154	0.145
-596.025	-134.583	0.276	0.034
-595.011	800.000	-0.097	0.352
-593.996	800.000	-0.098	-0.348
-592.982	143.511	-0.184	-0.248
-591.967	-2.493	-0.211	0.149
-590.952	800.000	0.027	-0.086
-589.938	44.944	0.361	-0.336
-588.923	138.960	0.309	-0.411
-587.909	30.234	-0.193	-0.166
-586.894	-27.627	-0.161	-0.095
-585.879	-98.647	-0.403	0.104
-584.865	58.782	-0.267	0.265
-583.850	-200.000	0.029	0.355
-582.836	194.016	0.062	0.095
-581.821	-146.157	0.269	0.024
-580.806	-200.000	-0.022	-0.128
-579.792	138.710	-0.179	0.238
-578.777	76.892	0.203	0.217
-577.763	407.177	0.121	0.259
-576.748	-200.000	0.057	-0.256
-575.733	-200.000	0.015	0.147
-574.719	-91.978	0.067	0.019
-573.704	24.277	0.066	0.055
-572.690	-121.042	-0.122	-0.021
-571.675	22.757	-0.219	0.181
-570.661	164.139	-0.011	0.015
-569.646	346.830	0.060	-0.119
-568.631	206.212	-0.132	-0.207
-567.617	800.000	0.094	-0.314
-566.602	693.593	0.078	-0.206
-565.588	486.031	0.025	-0.058
-564.573	105.539	0.104	0.124
-563.558	-61.473	0.297	0.126
-562.544	27.132	0.134	0.114
-561.529	-67.732	-0.094	0.037
-560.515	-200.000	0.017	0.231
-559.500	-153.495	-0.192	0.013
-558.485	15.998	-0.420	0.334
-557.471	-70.927	0.193	-0.073
-556.456	-193.818	0.043	0.000
-555.442	-200.000	-0.030	0.133
-554.427	48.816	-0.145	-0.137
-553.412	-200.000	-0.050	0.280
-552.398	-200.000	0.001	0.369
-551.383	-118.998	0.105	-0.019
-550.369	208.427	0.046	-0.073
-549.354	34.829	0.076	-0.067
-548.339	-200.000	-0.018	-0.244
-547.325	-200.000	0.008	0.112
-546.310	-1.770	-0.241	-0.171
-545.296	-17.526	-0.357	0.226
-544.281	-43.610	0.104	0.053
-543.266	-39.655	-0.093	-0.049
-542.252	-106.105	-0.203	-0.046
-541.237	-102.006	-0.361	-0.088
-540.223	-131.277	-0.169	-0.023
-539.208	-200.000	-0.038	-0.262
-538.193	-173.438	0.217	-0.007
-537.179	800.000	0.154	0.563
-536.164	800.000	0.056	0.191
-535.150	-43.153	0.138	0.071
-534.135	-49.664	-0.108	0.052
-533.121	-200.000	-0.020	0.089
-532.106	76.505	0.140	-0.150
-531.091	800.000	0.063	0.206
-530.077	-200.000	-0.029	-0.304
-529.062	-200.000	0.040	0.484
-528.048	-200.000	-0.027	0.193
-527.033	770.815	-0.151	0.415
-526.018	-200.000	-0.005	-0.170
-525.004	85.709	-0.161	0.179
-523.989	-200.000	0.016	-0.121
-522.975	-200.000	0.013	0.100
-521.960	-54.079	0.265	0.122
-520.945	800.000	0.031	-0.119
-519.931	290.705	-0.150	-0.275
-518.916	-39.721	-0.278	-0.146
-517.902	-200.000	-0.034	-0.228
-516.887	-112.932	-0.206	0.041
-515.872	0.128	0.064	0.046
-514.858	-78.944	-0.136	-0.047
-513.843	-200.000	-0.049	0.280
-512.829	-37.084	-0.161	0.087
-511.814	-114.601	-0.401	0.077
-510.799	-80.204	-0.068	0.023
-509.785	-55.494	0.148	0.067
-508.770	665.031	-0.098	0.255
-507.756	-200.000	-0.014	0.230
-506.741	-200.000	0.009	0.049
-505.726	4.601	-0.255	-0.188
-504.712	-200.000	-0.012	0.314
-503.697	-200.000	0.021	-0.291
-502.683	800.000	0.009	-0.037
-501.668	-200.000	-0.029	0.280
-500.653	136.957	-0.014	-0.019
-499.639	-200.000	0.019	-0.091
-498.624	800.000	-0.035	0.105
-497.610	-200.000	0.086	0.515
-496.595	148.910	-0.040	-0.055
-495.581	-200.000	0.011	0.188
-494.566	307.095	0.059	0.110
-493.551	368.230	0.163	-0.332
-492.537	-171.629	0.261	-0.009
-491.522	800.000	0.047	0.192
-490.508	247.490	0.147	-0.249
-489.493	0.627	-0.156	0.113
-488.478	-126.770	-0.118	-0.018
-487.464	80.294	0.082	-0.089
-486.449	212.661	-0.144	-0.229
-485.435	183.284	-0.080	-0.119
-484.420	786.263	0.084	0.233
-483.405	-138.544	-0.256	-0.028
-482.391	217.146	0.125	-0.200
-481.376	104.970	0.160	-0.189
-480.362	-121.869	-0.190	-0.032
-479.347	51.592	-0.259	-0.248
-478.332	406.067	0.078	-0.166
-477.318	-200.000	-0.039	0.195
-476.303	-62.716	0.163	0.068
-475.289	441.123	0.028	-0.063
-474.274	-125.331	0.015	0.002
-473.259	-200.000	-0.055	0.355
-472.245	6.326	0.429	-0.320
-471.230	11.253	-0.258	0.199
-470.216	-153.323	-0.333	-0.023
-469.201	93.396	-0.187	-0.213
-468.186	232.624	0.057	0.094
-467.172	-125.693	0.174	-0.026
-466.157	-150.813	0.131	-0.010
-465.143	-35.779	-0.066	-0.036
-464.128	121.948	-0.208	-0.261
-463.113	-64.232	0.157	-0.064
-462.099	-44.359	0.312	0.157
-461.084	34.053	-0.277	-0.243
-460.070	80.113	0.125	-0.136
-459.055	-87.686	0.241	-0.073
-458.040	358.880	0.013	-0.027
-457.026	91.440	-0.142	-0.161
-456.011	-53.545	-0.212	-0.098
-454.997	-24.147	0.164	-0.098
-453.982	-200.000	-0.016	-0.164
-452.968	127.117	0.109	0.139
-451.953	521.322	0.120	-0.284
-450.938	800.000	0.060	0.225
-449.924	-172.473	-0.133	0.004
-448.909	97.261	0.284	0.328
-447.895	119.715	0.025	0.031
-446.880	-35.344	0.148	-0.081
-445.865	-142.503	0.210	-0.021
-444.851	-179.737	-0.257	-0.006
-443.836	-200.000	0.009	0.106
-442.822	800.000	-0.109	-0.306
-441.807	34.217	-0.106	-0.093
-440.792	-97.481	-0.184	0.048
-439.778	-104.932	-0.256	-0.059
-438.763	-102.847	-0.138	-0.033
-437.749	-102.828	-0.131	-0.031
-436.734	-200.000	0.028	0.227
-435.719	-8.980	0.338	0.227
-434.705	242.410	0.075	0.126
-433.690	-100.626	-0.495	-0.123
-432.676	-90.134	-0.260	-0.076
-431.661	-200.000	0.007	-0.283
-430.646	-104.668	-0.189	0.044
-429.632	-200.000	0.000	0.278
-428.617	202.792	0.122	0.189
-427.603	168.732	-0.094	-0.135
-426.588	-14.787	0.301	-0.194
-425.573	-200.000	0.023	-0.251
-424.559	69.520	0.070	-0.072
-423.544	79.306	-0.065	0.070
-422.530	129.239	0.125	0.161
-421.515	800.000	0.029	-0.100
-420.500	-135.608	-0.203	-0.024
-419.486	-2.184	0.118	0.083
-418.471	8.246	-0.141	0.106
-417.457	-160.674	-0.065	0.003
-416.442	163.710	0.043	-0.060
-415.428	-132.786	0.227	-0.029
-414.413	800.000	0.096	-0.358
-413.398	443.986	0.051	-0.113
-412.384	119.352	0.308	-0.382
-411.369	0.700	0.111	0.080
-410.355	-200.000	0.043	0.263
-409.340	222.676	0.213	-0.344
-408.325	35.044	-0.022	-0.019
-407.311	505.401	0.078	-0.182
-406.296	-200.000	-0.068	0.395
-405.282	-200.000	0.059	-0.370
-404.267	40.684	0.253	0.229
-403.252	125.380	-0.061	-0.077
-402.238	-200.000	-0.063	-0.368
-401.223	-67.990	0.233	-0.091
-400.209	6.144	0.011	0.008
-399.194	-154.112	0.058	-0.004
-398.179	-142.285	-0.150	-0.015
-397.165	154.734	-0.161	0.222
-396.150	22.283	0.292	0.239
-395.136	800.000	-0.034	0.101
-394.121	-200.000	0.008	0.182
-393.106	39.584	0.053	0.048
-392.092	-4.039	0.133	-0.093
-391.077	377.461	-0.046	0.094
-390.063	42.029	0.233	0.212
-389.048	800.000	0.061	-0.195
-388.033	103.378	0.211	0.249
-387.019	38.198	-0.100	-0.089
-386.004	-98.947	0.368	0.094
-384.990	94.735	-0.205	-0.234
-383.975	-200.000	0.029	0.441
-382.960	18.834	-0.149	-0.120
-381.946	-148.150	0.180	0.015
-380.931	-200.000	0.016	0.114
-379.917	123.651	-0.099	-0.125
-378.902	573.027	0.056	-0.137
-377.888	230.999	-0.096	0.158
-376.873	748.631	-0.092	-0.249
-375.858	36.434	0.500	0.442
-374.844	280.569	0.226	0.405
-373.829	-145.196	0.117	0.011
-372.815	-41.992	0.159	0.082
-371.800	-113.943	-0.033	0.006
-370.785	-83.957	-0.087	0.028
-369.771	800.000	-0.053	0.160
-368.756	328.345	-0.064	0.123
-367.742	-151.249	0.395	0.030
-366.727	172.954	0.033	0.048
-365.712	-200.000	-0.068	-0.349
-364.698	-200.000	0.015	-0.075
-363.683	48.639	-0.192	-0.180
-362.669	800.000	0.075	-0.240
-361.654	-200.000	0.040	-0.442
-360.639	351.751	0.083	0.164
-359.625	-200.000	0.027	-0.359
-358.610	-178.808	-0.244	0.006
-357.596	563.391	0.103	-0.249
-356.581	38.325	-0.105	-0.094
-355.566	231.434	-0.109	-0.179
-354.552	800.000	0.074	0.247
-353.537	800.000	0.046	0.131
-352.523	257.032	0.038	0.065
-351.508	-117.524	-0.196	-0.036
-350.493	71.415	0.139	-0.144
-349.479	230.302	-0.117	-0.192
-348.464	-162.167	-0.176	0.009
-347.450	-46.091	0.231	-0.114
-346.435	-115.308	0.423	-0.080
-345.420	-119.966	-0.215	0.037
-344.406	-66.901	0.495	0.196
-343.391	800.000	0.094	0.319
-342.377	22.979	0.227	-0.186
-341.362	-169.187	-0.118	0.004
-340.348	1.104	-0.106	-0.076
-339.333	-33.593	0.166	-0.092
-338.318	429.917	0.121	-0.263
-337.304	-41.473	-0.147	0.076
-336.289	-19.384	0.101	-0.062
-335.275	-94.595	0.072	0.020
-334.260	800.000	-0.029	-0.119
-333.245	19.808	0.036	0.029
-332.231	275.883	-0.415	0.737
-331.216	-95.399	0.197	-0.053
-330.202	-77.228	0.168	0.059
-329.187	-129.146	0.117	0.016
-328.172	450.969	-0.048	-0.106
-327.158	-63.301	-0.053	0.022
-326.143	-106.616	0.178	0.040
-325.129	-73.102	0.132	-0.048
-324.114	-200.000	0.001	-0.297
-323.099	-35.283	-0.201	0.109
-322.085	26.915	0.126	0.106
-321.070	369.389	0.057	0.116
-320.056	48.173	-0.228	-0.213
-319.041	-53.243	-0.172	0.079
-318.026	550.869	-0.041	0.098
-317.012	-136.201	-0.282	0.033
-315.997	81.029	0.117	0.127
-314.983	-53.822	0.095	0.044
-313.968	-49.492	-0.424	0.202
-312.953	63.447	-0.111	-0.111
-311.939	-192.081	0.147	-0.001
-310.924	417.932	-0.061	-0.130
-309.910	-200.000	-0.116	-0.525
-308.895	-39.557	-0.126	-0.066
-307.880	-31.904	-0.061	-0.034
-306.866	368.218	0.107	-0.215
-305.851	256.978	-0.091	-0.156
-304.837	153.848	-0.156	0.213
-303.822	800.000	-0.060	-0.177
-302.807	6.010	0.230	0.170
-301.793	78.469	0.045	-0.048
-300.778	40.683	-0.161	-0.145
-299.764	-72.147	0.239	-0.088
-298.749	98.541	-0.189	-0.218
-297.735	121.071	0.062	0.077
-296.720	-80.265	0.418	0.140
-295.705	2.517	-0.124	0.090
-294.691	177.747	-0.165	0.240
-293.676	-133.931	0.330	0.041
-292.662	264.336	-0.062	0.108
-291.647	-161.906	-0.535	-0.027
-290.632	37.971	0.144	-0.128
-289.618	54.147	-0.347	0.333
-288.603	-200.000	0.008	-0.067
-287.589	304.685	-0.173	-0.322
-286.574	82.622	0.170	0.184
-285.559	234.797	0.172	0.283
-284.545	800.000	0.040	0.122
-283.530	-83.265	0.111	0.036
-282.516	-200.000	-0.026	0.181
-281.501	-134.905	0.145	0.018
-280.486	-100.406	0.318	-0.079
-279.472	146.709	0.180	0.241
-278.457	-5.678	-0.067	-0.046
-277.443	-200.000	-0.039	-0.370
-276.428	179.799	0.079	0.115
-275.413	-56.518	-0.199	-0.088
-274.399	-200.000	0.000	-0.023
-273.384	230.994	-0.020	-0.033
-272.370	-33.630	0.126	0.069
-271.355	397.183	0.034	-0.071
-270.340	346.497	-0.078	0.154
-269.326	-58.257	0.128	-0.055
-268.311	800.000	-0.059	0.180
-267.297	800.000	0.057	0.219
-266.282	123.343	0.124	-0.155
-265.267	-69.151	-0.024	0.009
-264.253	-200.000	0.031	-0.294
-263.238	102.277	-0.080	-0.093
-262.224	-9.669	0.093	-0.062
-261.209	243.506	-0.030	-0.050
-260.195	16.346	-0.176	-0.138
-259.180	69.717	0.114	0.118
-258.165	-200.000	0.021	-0.172
-257.151	-37.127	0.156	-0.083
-256.136	394.591	0.146	0.303
-255.122	800.000	0.039	-0.161
-254.107	88.980	-0.137	0.153
-253.092	345.820	-0.185	0.364
-252.078	-200.000	0.003	0.246
-251.063	-154.914	0.459	0.030
-250.049	-200.000	-0.009	0.058
-249.034	-162.368	0.483	0.024
-248.019	84.000	0.137	0.149
-247.005	-28.443	-0.153	-0.088
-245.990	125.451	0.185	0.233
-244.976	-29.273	0.360	-0.206
-243.961	-90.468	-0.500	0.144
-242.946	-43.987	0.150	0.075
-241.932	-200.000	0.006	0.285
-240.917	10.573	-0.180	0.137
-239.903	-96.814	-0.463	0.121
-238.888	-137.813	-0.197	-0.022
-237.873	45.434	-0.204	0.187
-236.859	11.898	-0.270	-0.207
-235.844	63.705	0.155	-0.155
-234.830	16.681	-0.115	0.091
-233.815	-147.173	0.111	-0.009
-232.800	-200.000	-0.047	0.308
-231.786	-200.000	-0.040	-0.464
-230.771	144.198	-0.264	0.351
-229.757	-72.503	0.257	0.095
-228.742	-46.769	0.161	-0.078
-227.727	127.070	-0.217	0.274
-226.713	235.233	-0.068	0.113
-225.698	-84.814	-0.118	0.037
-224.684	90.287	-0.242	-0.269
-223.669	183.010	-0.044	-0.064
-222.655	-27.227	0.298	-0.173
-221.640	31.662	-0.210	-0.180
-220.625	-200.000	-0.004	-0.265
-219.611	0.199	0.330	0.235
-218.596	39.797	-0.324	-0.289
-217.582	-200.000	-0.025	-0.140
-216.567	33.817	-0.213	0.185
-215.552	61.233	0.113	0.111
-214.538	800.000	-0.140	0.460
-213.523	-80.830	-0.032	-0.010
-212.509	-44.331	-0.265	0.132
-211.494	-65.348	0.162	0.065
-210.479	186.776	0.117	0.173
-209.465	409.239	0.083	0.174
-208.450	281.635	0.129	-0.230
-207.436	-90.865	-0.177	0.051
-206.421	173.511	-0.200	-0.287
-205.406	656.677	-0.086	-0.219
-204.392	-81.158	0.355	-0.117
-203.377	16.849	0.198	-0.156
-202.363	-200.000	0.021	0.214
-201.348	-32.472	0.067	-0.037
-200.333	26.871	-0.213	-0.178
-199.319	32.770	0.186	-0.160
-198.304	800.000	-0.120	0.334
-197.290	30.883	-0.103	-0.088
-196.275	800.000	0.050	0.187
-195.260	-89.348	-0.319	-0.094
-194.246	-200.000	-0.034	-0.167
-193.231	-200.000	0.034	-0.388
-192.217	223.339	-0.138	-0.221
-191.202	-104.018	0.243	0.056
-190.187	-138.258	-0.220	-0.024
-189.173	-200.000	-0.083	-0.472
-188.158	-43.830	0.424	0.212
-187.144	169.290	-0.055	-0.078
-186.129	154.154	0.089	-0.121
-185.114	-200.000	0.033	0.150
-184.100	-200.000	0.047	0.396
-183.085	41.865	-0.083	0.075
-182.071	-200.000	-0.001	0.375
-181.056	77.385	0.184	0.195
-180.042	-63.049	-0.106	-0.044
-179.027	341.035	0.097	-0.188
-178.012	126.384	0.128	-0.162
-176.998	-200.000	0.029	0.203
-175.983	-55.871	0.190	0.084
-174.969	-66.775	-0.089	0.035
-173.954	-40.041	0.207	-0.107
-172.939	243.943	-0.120	-0.200
-171.925	14.314	0.211	-0.164
-170.910	-125.989	-0.301	-0.045
-169.896	54.080	0.116	-0.111
-168.881	-67.970	-0.108	-0.042
-167.866	159.752	0.228	-0.315
-166.852	-19.463	0.219	-0.135
-165.837	422.594	0.050	0.106
-164.823	-200.000	-0.017	0.203
-163.808	-78.080	-0.142	0.049
-162.793	-68.011	-0.046	-0.018
-161.779	800.000	-0.045	0.179
-160.764	-46.538	-0.279	-0.136
-159.750	-48.237	0.298	0.143
-158.735	112.914	0.054	-0.065
-157.720	-200.000	-0.004	-0.139
-156.706	-59.726	-0.278	0.118
-155.691	-200.000	0.013	0.419
-154.677	506.911	-0.048	-0.111
-153.662	-200.000	-0.004	0.077
-152.647	-90.442	-0.310	-0.089
-151.633	-91.812	-0.271	0.076
-150.618	-167.101	-0.196	0.008
-149.604	-48.292	0.200	-0.096
-148.589	-23.055	-0.130	0.078
-147.574	-103.696	-0.338	0.079
-146.560	451.493	-0.070	-0.154
-145.545	-200.000	0.067	-0.380
-144.531	-116.038	-0.259	-0.048
-143.516	47.265	0.363	-0.336
-142.502	800.000	0.018	-0.072
-141.487	-96.894	-0.337	-0.088
-140.472	-33.257	-0.253	-0.139
-139.458	-200.000	-0.030	-0.165
-138.443	63.340	0.203	0.202
-137.429	800.000	-0.101	0.414
-136.414	-200.000	0.002	0.141
-135.399	-200.000	-0.026	-0.139
-134.385	-119.839	0.255	-0.044
-133.370	-58.968	-0.111	-0.047
-132.356	-33.538	0.336	-0.184
-131.341	87.848	0.130	0.143
-130.326	-138.572	0.436	0.048
-129.312	-200.000	0.021	0.303
-128.297	-104.451	-0.511	0.117
-127.283	35.871	-0.260	0.227
-126.268	-200.000	-0.068	0.504
-125.253	-171.940	-0.131	-0.004
-124.239	-200.000	0.022	0.102
-123.224	673.183	0.054	-0.140
-122.210	23.449	-0.237	-0.193
-121.195	97.913	-0.070	0.079
-120.180	-200.000	0.029	0.488
-119.166	98.590	-0.161	-0.184
-118.151	-16.423	0.112	0.070
-117.137	281.419	-0.085	0.152
-116.122	-200.000	0.003	0.182
-115.107	800.000	-0.076	-0.276
-114.093	-113.382	-0.090	0.017
-113.078	-200.000	0.034	0.161
-112.064	-71.471	-0.199	0.074
-111.049	19.313	0.201	-0.160
-110.034	-71.854	-0.508	-0.188
-109.020	-108.541	-0.082	-0.017
-108.005	-200.000	0.010	0.273
-106.991	-25.916	0.186	0.109
-105.976	-60.988	-0.124	0.052
-104.962	304.316	0.267	-0.491
-103.947	460.425	0.174	-0.385
-102.932	-186.138	-0.404	-0.006
-101.918	10.936	0.223	0.169
-100.903	800.000	0.028	0.102
-99.889	-200.000	0.022	0.248
-98.874	147.188	0.090	-0.121
-97.859	254.096	-0.255	0.432
-96.845	31.700	0.176	-0.150
-95.830	-29.146	0.437	-0.248
-94.816	39.819	-0.081	-0.072
-93.801	-168.253	-0.176	0.007
-92.786	89.183	0.192	0.212
-91.772	120.799	-0.032	0.039
-90.757	580.882	0.064	-0.154
-89.743	-21.194	-0.173	0.105
-88.728	233.980	-0.240	-0.391
-87.713	-32.998	0.087	-0.048
-86.699	35.376	-0.228	-0.198
-85.684	-95.750	-0.243	-0.064
-84.670	-48.399	0.198	-0.095
-83.655	-200.000	0.007	0.038
-82.640	800.000	-0.024	0.073
-81.626	284.896	-0.055	0.097
-80.611	359.698	0.138	-0.273
-79.597	-20.388	-0.167	0.102
-78.582	55.148	0.165	0.158
-77.567	749.885	-0.094	0.250
-76.553	800.000	0.025	0.076
-75.538	-200.000	-0.027	-0.153
-74.524	-43.165	-0.220	0.110
-73.509	138.296	0.188	-0.245
-72.494	35.554	-0.068	-0.059
-71.480	439.039	0.091	0.197
-70.465	542.472	0.070	0.166
-69.451	-200.000	0.011	0.232
-68.436	-8.350	0.167	0.111
-67.422	191.797	0.073	0.109
-66.407	21.778	-0.193	-0.156
-65.392	-200.000	0.019	-0.186
-64.378	528.651	-0.139	-0.324
-63.363	-9.235	0.068	0.045
-62.349	-23.450	0.411	0.245
-61.334	64.311	-1.047	-1.044
-60.319	-31.795	0.402	0.223
-59.305	-200.000	-0.131	-0.995
-58.290	441.229	0.428	0.927
-57.276	800.000	0.517	1.479
-56.261	-200.000	95.845	594.687
-55.246	557.543	1371.499	3272.365
-54.232	157.873	2557.445	3506.692
-53.217	102.863	2302.444	2667.573
-52.203	38.730	2063.947	1822.855
-51.188	33.905	1978.753	1704.402
-50.173	32.365	1960.345	1674.775
-49.159	47.057	2010.046	1850.026
-48.144	48.391	2027.660	1878.199
-47.130	34.472	1989.749	1718.708
-46.115	32.143	1979.626	1688.984
-45.100	32.093	1976.837	1686.087
-44.086	32.018	1974.074	1682.997
-43.071	31.968	1971.717	1680.471
-42.057	31.984	1969.216	1678.417
-41.042	31.951	1967.327	1676.443
-40.027	32.049	1965.061	1675.317
-39.013	32.060	1963.258	1673.811
-37.998	32.043	1961.766	1672.327
-36.984	32.046	1960.083	1670.848
-35.969	32.130	1957.226	1669.098
-34.954	32.077	1955.932	1667.454
-33.940	32.089	1954.848	1666.572
-32.925	32.164	1953.236	1665.794
-31.911	32.184	1951.424	1664.361
-30.896	32.103	1949.877	1662.260
-29.881	32.120	1948.834	1661.453
-28.867	32.257	1946.437	1660.557
-27.852	32.198	1945.062	1658.795
-26.838	32.164	1942.603	1656.334
-25.823	32.187	1940.723	1654.863
-24.809	32.193	1939.625	1653.915
-23.794	32.103	1937.886	1651.577
-22.779	32.079	1936.290	1649.938
-21.765	32.062	1934.529	1648.224
-20.750	32.055	1932.570	1646.431
-19.736	32.103	1931.421	1645.810
-18.721	32.170	1929.576	1644.754
-17.706	32.127	1927.788	1642.793
-16.692	32.125	1926.370	1641.497
-15.677	32.141	1925.015	1640.421
-14.663	32.218	1922.883	1639.209
-13.648	32.181	1921.906	1637.984
-12.633	32.154	1920.993	1636.906
-11.619	32.145	1919.847	1635.787
-10.604	32.090	1918.439	1634.045
-9.590	32.107	1917.151	1633.031
-8.575	32.147	1915.361	1631.788
-7.560	32.126	1914.284	1630.627
-6.546	32.191	1912.531	1629.631
-5.531	32.162	1911.508	1628.441
-4.517	32.166	1910.553	1627.599
-3.502	32.101	1909.407	1626.000
-2.487	32.075	1908.190	1624.673
-1.473	32.140	1907.163	1624.293
-0.458	32.227	1903.108	1621.527
0.556	31.875	1883.251	1594.098
1.571	27.919	1864.591	1544.783
2.586	24.135	1887.583	1531.236
3.600	23.191	1923.308	1551.801
4.615	22.667	1918.489	1543.197
5.629	16.856	1814.366	1411.077
6.644	6.755	1693.452	1238.061
7.659	2.080	1656.485	1175.005
8.673	1.694	1652.613	1169.193
9.688	1.624	1651.829	1167.998
10.702	1.551	1650.327	1166.277
11.717	1.421	1647.045	1162.859
12.731	1.816	1645.901	1164.968
13.746	8.548	1662.680	1228.602
14.761	19.295	1686.811	1329.666
15.775	25.066	1697.268	1382.447
16.790	26.234	1698.704	1392.504
17.804	26.387	1698.459	1393.362
18.819	26.451	1697.248	1392.740
19.834	26.513	1696.528	1392.503
20.848	26.734	1696.335	1393.914
21.863	26.696	1696.206	1393.394
22.877	26.790	1694.342	1392.462
23.892	26.829	1693.475	1391.928
24.907	26.806	1692.712	1391.000
25.921	26.798	1691.966	1390.202
26.936	26.804	1690.533	1388.947
27.950	26.815	1689.735	1388.255
28.965	26.806	1689.001	1387.457
29.980	26.806	1688.279	1386.747
30.994	26.767	1686.985	1385.260
32.009	26.778	1686.023	1384.429
33.023	26.735	1684.837	1383.007
34.038	26.814	1683.844	1382.672
35.053	26.789	1682.565	1381.313
36.067	26.774	1681.371	1380.094
37.082	26.785	1680.976	1379.728
38.096	26.868	1680.058	1379.485
39.111	26.874	1679.268	1378.762
40.126	26.767	1678.589	1377.268
41.140	26.812	1677.974	1376.986
42.155	26.789	1676.488	1375.470
43.169	26.853	1675.566	1375.073
44.184	26.851	1674.557	1374.111
45.199	26.855	1673.615	1373.242
46.213	26.799	1672.450	1371.743
47.228	26.756	1671.309	1370.361
48.242	26.811	1669.938	1369.535
49.257	26.794	1668.824	1368.369
50.271	26.757	1667.776	1367.112
51.286	26.777	1666.467	1366.065
52.301	26.764	1665.242	1364.843
53.315	26.820	1663.914	1364.055
54.330	26.769	1662.702	1362.556
55.344	26.783	1661.089	1361.223
56.359	26.823	1659.778	1360.329
57.374	26.780	1658.921	1359.179
58.388	26.811	1658.141	1358.657
59.403	26.843	1656.458	1357.394
60.417	26.847	1655.544	1356.558
61.432	26.813	1654.316	1355.176
62.447	26.836	1653.304	1354.400
63.461	26.774	1652.868	1353.457
64.476	26.850	1651.584	1352.850
65.490	26.837	1650.941	1352.110
66.505	26.809	1649.421	1350.534
67.520	26.820	1648.766	1349.961
68.534	26.871	1647.662	1349.316
69.549	26.849	1646.500	1348.081
70.563	26.926	1644.903	1347.229
71.578	26.896	1643.953	1346.107
72.593	26.930	1642.696	1345.212
73.607	26.974	1641.915	1344.783
74.622	26.844	1641.747	1343.564
75.636	26.822	1641.110	1342.757
76.651	26.929	1639.756	1342.321
77.666	26.844	1638.890	1340.866
78.680	26.812	1637.991	1339.779
79.695	26.855	1636.992	1339.159
80.709	26.838	1636.278	1338.329
81.724	26.908	1635.263	1337.894
82.739	26.879	1634.458	1336.907
83.753	26.870	1633.114	1335.623
84.768	26.874	1632.563	1335.081
85.782	26.783	1632.068	1333.888
86.797	26.826	1630.911	1333.145
87.812	26.883	1630.110	1332.787
88.826	26.905	1628.971	1331.906
89.841	26.836	1627.797	1330.318
90.855	26.838	1627.187	1329.713
91.870	26.862	1625.937	1328.751
92.884	26.871	1624.680	1327.670
93.899	26.738	1624.662	1326.572
94.914	26.885	1623.009	1326.174
95.928	26.952	1621.645	1325.435
96.943	26.867	1620.250	1323.557
97.957	26.867	1619.231	1322.606
98.972	26.980	1617.455	1321.861
99.987	26.879	1616.945	1320.596
101.001	26.960	1615.531	1319.908
102.016	26.869	1614.081	1317.951
103.030	26.832	1612.520	1316.289
104.045	26.883	1611.190	1315.454
105.060	26.880	1610.490	1314.743
106.074	26.875	1608.983	1313.362
107.089	26.793	1608.286	1312.086
108.103	26.886	1607.145	1311.707
109.118	26.876	1606.166	1310.722
110.133	26.933	1604.676	1309.804
111.147	26.915	1603.488	1308.587
112.162	26.963	1602.402	1307.929
113.176	26.963	1601.022	1306.690
114.191	26.928	1599.907	1305.410
115.206	26.975	1598.964	1304.866
116.220	26.961	1597.831	1303.722
117.235	26.997	1596.698	1302.944
118.249	26.886	1595.545	1301.086
119.264	26.960	1594.339	1300.525
120.279	26.868	1593.298	1298.896
121.293	26.921	1591.976	1298.086
122.308	27.022	1591.050	1297.938
123.322	27.039	1589.654	1296.807
124.337	26.943	1588.760	1295.277
125.352	26.993	1587.488	1294.484
126.366	26.955	1587.016	1293.713
127.381	27.001	1585.859	1292.978
128.395	27.077	1585.024	1292.727
129.410	27.070	1583.392	1291.233
130.424	26.994	1582.607	1289.940
131.439	27.014	1581.332	1288.924
132.454	27.008	1580.330	1287.951
133.468	26.957	1578.856	1286.274
134.483	26.951	1577.973	1285.401
135.497	27.031	1576.118	1284.341
136.512	27.022	1575.283	1283.484
137.527	27.081	1573.762	1282.548
138.541	26.948	1573.163	1281.009
139.556	27.017	1572.032	1280.462
140.570	27.015	1570.726	1279.271
141.585	26.983	1569.586	1278.002
142.600	27.069	1568.353	1277.491
143.614	27.024	1567.729	1276.550
144.629	27.039	1566.303	1275.380
145.643	27.034	1565.473	1274.560
146.658	26.963	1564.311	1273.003
147.673	26.971	1562.844	1271.752
148.687	26.929	1561.852	1270.535
149.702	26.935	1560.816	1269.625
150.716	26.956	1559.526	1268.607
151.731	26.965	1558.317	1267.578
152.746	26.992	1557.515	1266.997
153.760	27.040	1555.993	1265.984
154.775	26.989	1555.244	1264.907
155.789	26.977	1554.298	1263.944
156.804	27.073	1553.410	1263.779
157.819	27.079	1551.809	1262.404
158.833	27.099	1551.408	1262.105
159.848	27.066	1550.590	1261.101
160.862	27.054	1549.699	1260.181
161.877	27.138	1548.492	1259.671
162.892	27.064	1547.647	1258.356
163.906	27.102	1546.999	1257.982
164.921	27.130	1545.689	1257.003
165.935	27.091	1545.066	1256.115
166.950	27.155	1544.382	1255.890
167.964	27.169	1542.717	1254.522
168.979	27.101	1541.794	1253.187
169.994	27.165	1541.161	1253.002
171.008	27.167	1540.474	1252.347
172.023	27.152	1539.880	1251.648
173.037	27.203	1538.306	1250.615
174.052	27.174	1537.167	1249.375
175.067	27.059	1536.652	1248.058
176.081	27.324	1535.125	1248.524
177.096	27.118	1535.120	1246.994
178.110	27.103	1533.702	1245.630
179.125	27.185	1532.241	1244.895
180.140	27.243	1531.260	1244.388
181.154	27.198	1530.971	1243.735
182.169	27.218	1529.668	1242.703
183.183	27.206	1528.738	1241.756
184.198	27.147	1528.031	1240.664
185.213	27.148	1527.089	1239.798
186.227	27.152	1526.466	1239.211
187.242	27.256	1525.156	1238.744
188.256	27.257	1524.413	1238.038
189.271	27.289	1523.636	1237.518
190.286	27.318	1522.233	1236.464
191.300	27.391	1521.226	1236.037
192.315	27.261	1520.981	1234.844
193.329	27.224	1520.331	1233.952
194.344	27.211	1519.380	1232.988
195.359	27.225	1518.654	1232.382
196.373	27.399	1517.419	1232.449
197.388	27.314	1516.282	1230.839
198.402	27.283	1515.489	1229.879
199.417	27.261	1514.728	1229.001
200.432	27.245	1514.083	1228.262
201.446	27.252	1513.366	1227.618
202.461	27.201	1512.567	1226.522
203.475	27.343	1511.533	1226.527
204.490	27.285	1510.530	1225.218
205.504	27.276	1509.781	1224.441
206.519	27.283	1508.983	1223.734
207.534	27.287	1508.303	1223.100
208.548	27.346	1507.181	1222.477
209.563	27.314	1506.094	1221.273
210.577	27.377	1505.339	1220.977
211.592	27.411	1504.736	1220.607
212.607	27.248	1504.344	1219.086
213.621	27.337	1503.433	1218.835
214.636	27.450	1502.609	1218.815
215.650	27.398	1501.568	1217.520
216.665	27.447	1501.114	1217.370
217.680	27.346	1500.290	1215.917
218.694	27.350	1499.767	1215.414
219.709	27.411	1498.607	1214.771
220.723	27.390	1497.599	1213.710
221.738	27.375	1496.894	1212.927
222.753	27.487	1496.070	1212.902
223.767	27.285	1495.486	1210.973
224.782	27.330	1494.060	1210.015
225.796	27.361	1493.437	1209.609
226.811	27.478	1492.588	1209.587
227.826	27.416	1492.204	1208.763
228.840	27.371	1491.504	1207.788
229.855	27.544	1490.093	1207.685
230.869	27.530	1489.499	1207.002
231.884	27.442	1488.517	1205.519
232.899	27.447	1487.752	1204.827
233.913	27.425	1486.660	1203.690
234.928	27.401	1485.588	1202.555
235.942	27.482	1484.765	1202.317
236.957	27.561	1483.986	1202.103
237.972	27.527	1482.934	1200.916
238.986	27.481	1481.801	1199.591
240.001	27.500	1481.310	1199.216
241.015	27.565	1479.813	1198.322
242.030	27.635	1478.886	1197.929
243.045	27.638	1478.464	1197.499
244.059	27.674	1477.154	1196.568
245.074	27.643	1476.067	1195.379
246.088	27.618	1475.864	1194.943
247.103	27.590	1475.244	1194.150
248.117	27.757	1473.906	1194.058
249.132	27.742	1472.998	1193.118
250.147	27.761	1472.534	1192.763
251.161	27.777	1472.170	1192.467
252.176	27.735	1471.159	1191.267
253.190	27.771	1470.552	1190.904
254.205	27.723	1470.057	1190.084
255.220	27.814	1468.880	1189.619
256.234	27.750	1468.223	1188.567
257.249	27.717	1467.472	1187.639
258.263	27.768	1466.748	1187.278
259.278	27.730	1465.714	1186.090
260.293	27.723	1465.075	1185.419
261.307	27.855	1463.980	1185.288
262.322	27.871	1463.194	1184.651
263.336	27.842	1462.374	1183.692
264.351	27.846	1461.761	1183.118
265.366	27.741	1460.930	1181.661
266.380	27.840	1459.758	1181.251
267.395	27.797	1458.934	1180.200
268.409	27.814	1458.361	1179.744
269.424	27.785	1457.284	1178.577
270.439	27.776	1456.538	1177.815
271.453	27.789	1455.900	1177.274
272.468	27.818	1455.000	1176.632
273.482	27.842	1454.528	1176.301
274.497	27.847	1453.376	1175.296
275.512	27.854	1453.014	1174.943
276.526	27.825	1451.914	1173.765
277.541	27.853	1451.100	1173.183
278.555	27.876	1450.351	1172.620
279.570	27.850	1449.918	1171.999
280.585	27.923	1448.325	1171.076
281.599	27.907	1447.908	1170.532
282.614	27.993	1446.966	1170.221
283.628	27.909	1445.803	1168.637
284.643	27.906	1445.264	1168.083
285.657	28.036	1444.238	1167.977
286.672	27.965	1443.199	1166.581
287.687	27.992	1442.178	1165.824
288.701	27.954	1441.510	1164.939
289.716	28.020	1440.955	1164.807
290.730	28.035	1440.540	1164.464
291.745	28.065	1439.047	1163.348
292.760	28.037	1438.724	1162.804
293.774	27.970	1437.691	1161.443
294.789	28.051	1436.774	1161.112
295.803	28.032	1436.432	1160.612
296.818	28.037	1435.430	1159.733
297.833	28.047	1434.547	1158.977
298.847	28.000	1434.030	1158.158
299.862	28.094	1432.866	1157.713
300.876	28.136	1431.607	1156.859
301.891	28.167	1430.950	1156.424
302.906	28.100	1430.437	1155.480
303.920	28.138	1430.035	1155.291
304.935	28.167	1429.184	1154.690
305.949	28.195	1428.598	1154.292
306.964	28.195	1427.426	1153.243
307.979	28.143	1426.561	1152.111
308.993	28.267	1425.758	1152.143
310.008	28.259	1424.629	1151.078
311.022	28.167	1423.922	1149.824
312.037	28.299	1422.761	1149.617
313.052	28.211	1422.341	1148.624
314.066	28.305	1421.358	1148.319
315.081	28.264	1420.410	1147.190
316.095	28.246	1419.504	1146.248
317.110	28.232	1418.564	1145.300
318.125	28.280	1417.674	1144.779
319.139	28.311	1417.231	1144.509
320.154	28.318	1416.283	1143.692
321.168	28.297	1415.424	1142.761
322.183	28.325	1414.265	1141.901
323.197	28.197	1413.795	1140.623
324.212	28.347	1412.645	1140.525
325.227	28.378	1411.757	1139.902
326.241	28.426	1410.844	1139.362
327.256	28.363	1410.180	1138.331
328.270	28.437	1409.983	1138.538
329.285	28.402	1408.914	1137.350
330.300	28.332	1408.627	1136.584
331.314	28.388	1407.401	1135.841
332.329	28.335	1406.493	1134.685
333.343	28.501	1405.695	1134.965
334.358	28.500	1405.076	1134.362
335.373	28.410	1404.594	1133.313
336.387	28.445	1403.713	1132.718
337.402	28.557	1402.951	1132.698
338.416	28.575	1402.685	1132.492
339.431	28.524	1401.895	1131.439
340.446	28.467	1401.345	1130.541
341.460	28.565	1400.479	1130.346
342.475	28.617	1399.254	1129.581
343.489	28.666	1398.179	1128.915
344.504	28.638	1397.472	1128.072
345.519	28.568	1396.628	1126.857
346.533	28.621	1395.835	1126.445
347.548	28.635	1395.061	1125.803
348.562	28.655	1394.211	1125.146
349.577	28.651	1393.577	1124.507
350.592	28.634	1393.187	1123.987
351.606	28.757	1391.452	1123.244
352.621	28.603	1390.667	1121.569
353.635	28.544	1390.140	1120.686
354.650	28.679	1389.226	1120.672
355.665	28.712	1388.676	1120.327
356.679	28.685	1387.467	1119.093
357.694	28.768	1386.478	1118.700
358.708	28.625	1385.313	1116.791
359.723	28.836	1383.849	1116.794
360.738	28.716	1383.175	1115.420
361.752	28.747	1382.072	1114.625
362.767	28.745	1380.876	1113.546
363.781	28.738	1380.557	1113.147
364.796	28.700	1380.097	1112.450
365.810	28.757	1378.984	1111.799
366.825	28.894	1378.105	1111.821
367.840	28.812	1377.188	1110.486
368.854	28.810	1376.786	1110.053
369.869	28.910	1376.218	1110.100
370.883	28.786	1375.890	1108.988
371.898	28.893	1374.651	1108.535
372.913	28.937	1374.066	1108.234
373.927	28.894	1373.748	1107.618
374.942	28.923	1372.518	1106.705
375.956	28.945	1371.681	1106.064
376.971	28.916	1371.336	1105.510
377.986	29.039	1370.260	1105.283
379.000	28.961	1369.740	1104.301
380.015	28.970	1369.048	1103.701
381.029	28.985	1368.308	1103.095
382.044	28.932	1367.685	1102.174
383.059	28.997	1366.757	1101.719
384.073	29.009	1366.280	1101.307
385.088	29.060	1365.877	1101.193
386.102	29.009	1365.124	1100.183
387.117	29.062	1364.514	1099.913
388.132	29.097	1363.839	1099.478
389.146	29.107	1362.953	1098.728
390.161	29.010	1362.378	1097.588
391.175	29.075	1361.718	1097.349
392.190	28.996	1361.373	1096.501
393.205	29.137	1360.412	1096.472
394.219	29.014	1359.563	1094.954
395.234	29.166	1358.387	1094.817
396.248	29.068	1357.678	1093.567
397.263	29.176	1356.451	1093.123
398.278	29.206	1355.047	1092.073
399.292	29.321	1354.268	1092.026
400.307	29.194	1353.801	1090.802
401.321	29.261	1353.012	1090.468
402.336	29.308	1351.448	1089.387
403.350	29.095	1351.066	1087.724
404.365	29.228	1349.876	1087.458
405.380	29.303	1348.991	1087.088
406.394	29.248	1348.393	1086.189
407.409	29.271	1347.595	1085.582
408.423	29.318	1346.745	1085.081
409.438	29.355	1345.980	1084.582
410.453	29.310	1345.644	1083.952
411.467	29.357	1344.699	1083.371
412.482	29.393	1344.423	1083.262
413.496	29.304	1344.055	1082.349
414.511	29.366	1343.329	1082.035
415.526	29.357	1342.215	1080.990
416.540	29.384	1341.616	1080.566
417.555	29.471	1340.733	1080.273
418.569	29.414	1340.390	1079.566
419.584	29.359	1340.156	1078.959
420.599	29.372	1339.375	1078.313
421.613	94.571	1354.748	1458.703
422.628	94.166	1356.963	1458.790
