DTS Sentinel unit serial number:	SN413079Multiplexer serial number:	ORYXHardware model number:	OX4-SRSoftware version number:	ORYX F/W v4.00 Oryx Data Collector v3.7.2.0data status	okinstallation	princeton_trtdifferential loss correction	single-endedforward channel	channel 4reverse channel	N/Adate	2019/09/11time	06:43:10forward acquisition time	60.00reverse acquisition time	0.00gamma	496.2192k internal	0.2314k external	0.2314temperature offset calibration	0.9947default loss term (dB/km)	0.3790temperature slope calibration	1.0000multiplexer offset coefficient	1.0000multiplexer slope coefficient	1.0000fibre end	0.00T internal ref (°C)	29.77T ext. ref 1 (°C)	-0.16T ext. ref 2 (°C)	24.77length (m)	temperature (°C)	Stokes	anti-Stokes-747.200	-96.110	0.302	-0.081
-746.185	-155.708	-0.292	-0.019
-745.171	-91.249	-0.372	0.108
-744.156	-92.832	-0.128	0.036
-743.142	-100.445	-0.286	-0.072
-742.127	51.752	0.151	0.146
-741.112	35.031	0.194	-0.172
-740.098	-200.000	0.003	0.240
-739.083	-130.542	0.111	-0.015
-738.069	51.115	0.286	0.275
-737.054	72.823	0.101	0.107
-736.039	104.445	-0.087	-0.103
-735.025	-67.369	-0.206	-0.082
-734.010	106.530	0.061	-0.073
-732.996	-200.000	-0.061	-0.299
-731.981	-106.625	-0.223	0.050
-730.966	510.173	-0.024	-0.056
-729.952	-100.666	-0.250	0.063
-728.937	-77.235	-0.218	0.077
-727.923	-200.000	-0.016	0.120
-726.908	-36.545	0.268	-0.146
-725.894	-41.889	-0.245	0.127
-724.879	800.000	0.048	-0.166
-723.864	321.771	0.054	-0.104
-722.850	228.770	0.212	-0.350
-721.835	12.224	-0.063	-0.049
-720.821	800.000	-0.065	-0.202
-719.806	132.392	-0.138	-0.180
-718.791	-177.948	0.313	-0.008
-717.777	609.772	-0.111	-0.280
-716.762	-153.904	0.428	0.030
-715.748	-62.634	0.312	-0.131
-714.733	-20.807	0.391	-0.243
-713.718	-44.130	-0.088	-0.045
-712.704	79.946	-0.149	0.162
-711.689	-194.788	0.130	-0.001
-710.675	-200.000	0.081	0.369
-709.660	-22.418	-0.096	-0.059
-708.645	-91.283	-0.145	0.042
-707.631	34.049	0.189	0.166
-706.616	200.759	-0.114	0.177
-705.602	178.857	0.137	0.203
-704.587	-54.007	-0.225	-0.104
-703.572	-112.563	0.282	-0.057
-702.558	349.829	0.158	-0.316
-701.543	800.000	0.085	0.300
-700.529	-184.576	0.237	-0.004
-699.514	-33.060	0.125	-0.070
-698.499	395.141	-0.050	-0.105
-697.485	-200.000	-0.041	-0.216
-696.470	-62.625	0.199	0.084
-695.456	800.000	-0.035	-0.120
-694.441	-200.000	0.013	-0.172
-693.426	-11.875	-0.045	0.030
-692.412	-75.207	-0.317	-0.114
-691.397	800.000	0.072	0.311
-690.383	-95.196	-0.291	-0.079
-689.368	-200.000	-0.446	0.001
-688.354	102.147	-0.095	0.113
-687.339	264.971	0.083	-0.147
-686.324	81.602	0.080	-0.088
-685.310	92.916	0.079	0.090
-684.295	52.924	0.253	0.245
-683.281	-7.160	0.201	-0.138
-682.266	206.815	-0.091	0.143
-681.251	714.782	0.099	-0.267
-680.237	330.083	-0.246	-0.478
-679.222	-124.207	-0.207	-0.033
-678.208	-119.467	-0.170	-0.030
-677.193	-200.000	-0.014	-0.096
-676.178	224.787	0.087	0.143
-675.164	96.602	0.161	0.187
-674.149	565.872	-0.125	-0.307
-673.135	-75.079	0.172	0.062
-672.120	67.523	-0.083	-0.085
-671.105	442.828	0.155	-0.344
-670.091	99.195	-0.139	-0.162
-669.076	143.696	0.059	-0.079
-668.062	-46.269	-0.259	-0.129
-667.047	25.562	-0.124	-0.104
-666.032	-164.090	-0.348	0.016
-665.018	-178.294	0.087	-0.002
-664.003	-39.072	-0.086	0.046
-662.989	7.848	0.222	0.169
-661.974	115.364	-0.092	-0.113
-660.959	-75.461	0.072	-0.026
-659.945	800.000	0.123	-0.368
-658.930	-117.273	-0.212	0.039
-657.916	51.522	-0.153	-0.147
-656.901	-200.000	0.008	0.073
-655.886	800.000	-0.089	-0.263
-654.872	-131.139	-0.277	-0.037
-653.857	11.825	-0.273	0.212
-652.843	800.000	0.027	-0.113
-651.828	-200.000	0.024	-0.133
-650.814	-200.000	-0.004	-0.056
-649.799	-200.000	0.002	-0.098
-648.784	-131.685	0.130	0.017
-647.770	490.253	0.053	0.123
-646.755	33.219	-0.178	-0.156
-645.741	-200.000	-0.007	0.143
-644.726	27.203	-0.104	0.088
-643.711	800.000	0.059	-0.185
-642.697	113.242	-0.153	0.188
-641.682	231.938	0.047	0.078
-640.668	-200.000	-0.011	-0.053
-639.653	-200.000	0.012	-0.336
-638.638	-46.353	0.063	-0.031
-637.624	-52.012	0.035	-0.017
-636.609	260.350	0.249	0.434
-635.595	-92.604	-0.053	-0.015
-634.580	58.476	0.145	0.144
-633.565	79.757	-0.056	-0.061
-632.551	-197.928	0.244	-0.001
-631.536	-200.000	-0.079	-0.550
-630.522	-125.429	0.352	-0.054
-629.507	-66.735	0.060	0.024
-628.492	-96.420	0.395	0.106
-627.478	-82.054	-0.127	-0.042
-626.463	-121.089	-0.335	-0.057
-625.449	-200.000	-0.007	0.039
-624.434	368.870	0.067	0.137
-623.419	221.473	0.163	-0.264
-622.405	109.060	-0.073	0.088
-621.390	-120.661	-0.102	-0.017
-620.376	90.842	0.143	-0.162
-619.361	-89.170	0.131	-0.039
-618.346	800.000	-0.038	-0.119
-617.332	219.091	-0.263	-0.424
-616.317	-2.210	-0.201	0.142
-615.303	800.000	0.069	-0.228
-614.288	-200.000	0.026	0.404
-613.273	800.000	0.078	0.325
-612.259	-31.965	-0.264	0.149
-611.244	-113.749	0.126	0.025
-610.230	-95.322	0.299	0.081
-609.215	-200.000	0.019	0.210
-608.201	-149.524	-0.130	-0.010
-607.186	15.694	-0.282	0.224
-606.171	133.173	-0.054	-0.070
-605.157	681.162	-0.080	-0.210
-604.142	-75.131	-0.413	-0.149
-603.128	-61.747	0.205	-0.086
-602.113	251.451	-0.139	-0.238
-601.098	800.000	0.046	-0.186
-600.084	-26.895	-0.348	-0.205
-599.069	83.202	-0.162	0.178
-598.055	-200.000	0.013	-0.272
-597.040	52.499	0.190	0.183
-596.025	152.302	0.220	0.302
-595.011	-138.380	0.150	0.017
-593.996	-69.372	-0.327	0.126
-592.982	-33.151	-0.318	0.178
-591.967	-144.585	0.284	0.026
-590.952	4.180	-0.152	0.112
-589.938	-71.210	-0.054	0.020
-588.923	-200.000	0.009	-0.182
-587.909	-149.707	-0.284	-0.023
-586.894	-195.120	0.191	0.001
-585.879	-200.000	-0.042	-0.196
-584.865	-200.000	0.027	0.445
-583.850	191.977	0.148	-0.225
-582.836	-92.589	-0.100	0.028
-581.821	665.631	0.055	0.143
-580.806	-34.727	-0.236	0.130
-579.792	-168.207	0.221	0.009
-578.777	-87.317	-0.343	0.105
-577.763	153.238	-0.053	0.073
-576.748	303.395	-0.091	-0.170
-575.733	-200.000	-0.025	-0.207
-574.719	800.000	-0.124	-0.388
-573.704	-200.000	-0.028	-0.218
-572.690	-200.000	-0.013	0.162
-571.675	310.335	0.038	-0.071
-570.661	38.930	-0.126	-0.113
-569.646	-200.000	0.010	0.072
-568.631	94.456	0.151	-0.173
-567.617	107.527	-0.107	-0.128
-566.602	-135.265	-0.264	0.032
-565.588	-132.725	0.114	0.015
-564.573	-200.000	-0.033	0.285
-563.558	601.007	0.149	0.373
-562.544	800.000	0.039	0.141
-561.529	121.378	-0.264	0.331
-560.515	381.542	-0.091	-0.187
-559.500	614.208	-0.056	0.142
-558.485	-200.000	-0.022	-0.141
-557.471	-40.068	0.152	-0.080
-556.456	-81.045	-0.143	0.048
-555.442	65.319	-0.182	0.185
-554.427	363.715	-0.119	0.241
-553.412	-70.936	0.316	0.120
-552.398	124.618	0.215	-0.273
-551.383	85.033	-0.056	-0.062
-550.369	-132.874	-0.142	-0.018
-549.354	59.592	0.276	0.273
-548.339	-66.816	-0.472	-0.188
-547.325	479.973	-0.056	-0.127
-546.310	-200.000	0.049	0.262
-545.296	800.000	-0.103	0.354
-544.281	-47.668	-0.211	-0.103
-543.266	242.322	-0.224	-0.377
-542.252	-200.000	-0.022	0.242
-541.237	123.680	-0.134	0.169
-540.223	-200.000	-0.011	0.128
-539.208	-200.000	-0.031	0.144
-538.193	-31.494	0.082	-0.046
-537.179	-200.000	0.007	0.168
-536.164	-78.244	-0.050	-0.017
-535.150	72.921	-0.091	0.096
-534.135	-200.000	0.006	0.161
-533.121	481.153	0.135	-0.308
-532.106	448.005	0.102	-0.227
-531.091	12.992	0.143	0.112
-530.077	-165.780	0.338	0.015
-529.062	-104.501	0.168	0.039
-528.048	344.322	0.058	-0.115
-527.033	180.166	-0.129	0.190
-526.018	800.000	-0.064	-0.188
-525.004	-200.000	-0.014	-0.275
-523.989	-102.868	-0.402	-0.096
-522.975	187.043	-0.222	0.332
-521.960	7.197	0.215	0.161
-520.945	-8.116	-0.202	0.137
-519.931	-96.767	-0.458	-0.121
-518.916	-36.331	-0.245	0.133
-517.902	120.052	0.061	-0.076
-516.887	663.812	-0.058	-0.151
-515.872	-71.961	-0.283	0.106
-514.858	-50.477	0.126	0.060
-513.843	137.657	-0.281	-0.369
-512.829	-200.000	-0.025	0.331
-511.814	-200.000	0.013	-0.157
-510.799	-111.825	-0.090	-0.018
-509.785	-55.630	0.198	0.089
-508.770	134.797	-0.115	0.151
-507.756	23.423	-0.100	-0.082
-506.741	-84.130	0.052	-0.017
-505.726	81.760	0.203	-0.221
-504.712	105.569	-0.111	0.132
-503.697	91.112	-0.292	-0.329
-502.683	-155.065	-0.171	-0.011
-501.668	-105.827	0.205	0.047
-500.653	8.870	0.428	0.324
-499.639	800.000	0.033	0.108
-498.624	380.478	0.116	-0.239
-497.610	-84.000	-0.209	0.067
-496.595	-200.000	-0.040	-0.307
-495.581	-74.287	0.281	-0.102
-494.566	-142.544	-0.341	-0.034
-493.551	123.370	0.070	0.088
-492.537	800.000	0.068	0.276
-491.522	-33.956	0.345	0.190
-490.508	-200.000	-0.001	-0.169
-489.493	29.635	0.097	0.083
-488.478	800.000	-0.119	0.474
-487.464	76.388	0.181	0.193
-486.449	-200.000	0.054	0.363
-485.435	-124.757	-0.533	-0.083
-484.420	-175.135	-0.175	-0.005
-483.405	54.203	0.357	0.345
-482.391	-94.828	0.065	-0.018
-481.376	-133.933	-0.153	-0.019
-480.362	81.642	-0.105	-0.114
-479.347	237.210	-0.121	-0.202
-478.332	-90.184	-0.087	0.025
-477.318	561.608	0.031	-0.075
-476.303	-200.000	0.012	-0.066
-475.289	260.262	0.046	-0.079
-474.274	-141.770	-0.308	-0.031
-473.259	3.807	-0.126	0.092
-472.245	46.330	-0.258	0.240
-471.230	-93.753	0.379	0.105
-470.216	-76.897	-0.422	0.148
-469.201	-141.842	0.298	-0.030
-468.186	175.677	-0.095	0.138
-467.172	-200.000	-0.025	0.455
-466.157	-37.597	-0.191	0.102
-465.143	-115.385	0.529	-0.100
-464.128	-200.000	-0.005	0.091
-463.113	44.313	-0.155	-0.142
-462.099	-200.000	-0.001	-0.431
-461.084	-42.127	-0.191	-0.098
-460.070	-158.323	-0.069	0.004
-459.055	-200.000	-0.015	-0.112
-458.040	-0.117	0.145	-0.103
-457.026	-153.595	-0.240	0.017
-456.011	-200.000	0.041	-0.191
-454.997	-5.979	0.084	0.058
-453.982	-142.703	0.289	0.028
-452.968	56.866	-0.242	0.236
-451.953	800.000	-0.042	0.163
-450.938	-155.786	-0.388	0.025
-449.924	397.035	-0.108	-0.226
-448.909	16.515	0.053	-0.042
-447.895	387.643	0.069	0.143
-446.880	-52.939	0.339	-0.156
-445.865	177.325	0.182	-0.266
-444.851	66.627	-0.100	-0.102
-443.836	-24.424	-0.238	-0.142
-442.822	54.987	0.148	0.143
-441.807	-200.000	0.000	0.228
-440.792	800.000	0.029	-0.115
-439.778	-140.619	0.421	0.044
-438.763	139.475	-0.078	-0.102
-437.749	383.582	0.085	-0.176
-436.734	-59.125	0.230	-0.099
-435.719	-136.016	0.356	0.042
-434.705	29.200	0.098	0.084
-433.690	-59.958	0.220	0.094
-432.676	-71.604	-0.147	0.055
-431.661	143.243	0.156	0.208
-430.646	395.985	-0.052	0.109
-429.632	-111.074	0.139	-0.029
-428.617	-200.000	-0.039	0.222
-427.603	55.929	0.396	-0.385
-426.588	-0.983	0.191	-0.135
-425.573	339.082	-0.197	-0.384
-424.559	-24.017	-0.064	0.038
-423.544	217.797	-0.066	-0.105
-422.530	83.278	-0.218	0.237
-421.515	141.778	0.176	0.234
-420.500	-53.235	-0.152	0.070
-419.486	292.611	0.081	-0.147
-418.471	58.139	-0.170	-0.167
-417.457	-41.471	0.356	-0.183
-416.442	-33.364	-0.367	0.203
-415.428	117.746	0.078	-0.096
-414.413	-14.277	-0.257	0.166
-413.398	800.000	-0.102	0.383
-412.384	800.000	0.043	0.144
-411.369	-171.318	0.204	0.007
-410.355	800.000	0.041	-0.178
-409.340	-58.331	-0.169	-0.073
-408.325	4.642	0.104	-0.076
-407.311	-18.706	-0.062	-0.039
-406.296	227.465	-0.200	-0.326
-405.282	256.105	0.126	-0.217
-404.267	244.895	-0.084	0.141
-403.252	-200.000	0.054	-0.294
-402.238	614.616	-0.121	-0.304
-401.223	277.021	0.065	0.116
-400.209	541.295	-0.059	0.142
-399.194	800.000	0.037	-0.120
-398.179	-40.006	0.360	0.188
-397.165	692.386	-0.070	-0.184
-396.150	207.042	0.101	-0.158
-395.136	281.214	-0.115	0.205
-394.121	282.915	-0.230	0.413
-393.106	-200.000	-0.014	0.303
-392.092	-200.000	0.043	0.265
-391.077	43.078	0.247	-0.226
-390.063	70.038	0.144	-0.148
-389.048	-200.000	0.010	-0.156
-388.033	-200.000	0.005	-0.143
-387.019	-81.824	0.113	-0.037
-386.004	-15.774	-0.244	0.155
-384.990	-200.000	0.018	-0.104
-383.975	-139.668	-0.323	-0.034
-382.960	-200.000	-0.051	-0.265
-381.946	-55.972	0.342	-0.153
-380.931	-44.972	0.311	-0.155
-379.917	-94.581	0.171	-0.046
-378.902	436.691	-0.119	-0.259
-377.888	178.804	0.071	0.103
-376.873	44.537	-0.143	0.132
-375.858	751.925	-0.096	0.258
-374.844	-200.000	0.012	-0.056
-373.829	29.928	-0.107	0.091
-372.815	126.406	0.076	-0.096
-371.800	-68.849	0.273	-0.105
-370.785	96.272	0.142	0.162
-369.771	-70.094	0.121	0.046
-368.756	-107.894	-0.072	0.016
-367.742	-200.000	0.026	-0.172
-366.727	-99.788	-0.203	-0.051
-365.712	-86.117	-0.092	0.028
-364.698	308.617	0.208	-0.387
-363.683	-72.991	-0.245	0.090
-362.669	-200.000	-0.001	0.044
-361.654	155.978	0.269	0.370
-360.639	-21.941	0.315	0.192
-359.625	241.581	-0.133	0.222
-358.610	-200.000	0.016	-0.153
-357.596	-65.711	0.244	0.098
-356.581	-200.000	-0.047	-0.243
-355.566	160.254	0.086	-0.120
-354.552	449.165	-0.062	0.136
-353.537	525.562	-0.072	0.169
-352.523	-54.387	-0.234	0.106
-351.508	205.080	-0.089	-0.138
-350.493	-97.633	-0.550	0.142
-349.479	260.039	0.191	-0.329
-348.464	66.298	-0.159	0.161
-347.450	138.589	0.150	0.197
-346.435	231.807	-0.092	0.150
-345.420	740.160	0.038	0.101
-344.406	-175.147	0.171	-0.005
-343.391	797.414	-0.079	0.219
-342.377	136.437	0.115	0.149
-341.362	-99.610	0.091	-0.023
-340.348	800.000	-0.049	0.154
-339.333	72.308	0.131	-0.136
-338.318	431.598	0.236	0.510
-337.304	-200.000	-0.040	-0.325
-336.289	-200.000	0.007	0.194
-335.275	-20.212	-0.338	-0.208
-334.260	-1.006	-0.122	-0.086
-333.245	553.811	0.012	-0.030
-332.231	-52.099	0.113	0.052
-331.216	-200.000	0.036	0.169
-330.202	800.000	-0.012	-0.049
-329.187	5.273	0.045	-0.033
-328.172	-200.000	0.008	-0.077
-327.158	33.823	0.207	-0.179
-326.143	44.372	0.298	0.273
-325.129	-200.000	0.044	0.342
-324.114	643.190	0.048	0.121
-323.099	-85.421	0.175	-0.054
-322.085	-58.702	-0.190	-0.082
-321.070	357.545	-0.191	0.380
-320.056	-122.068	0.206	0.034
-319.041	292.458	0.093	0.168
-318.026	-200.000	-0.000	0.141
-317.012	108.897	-0.161	-0.192
-315.997	-28.755	-0.162	0.093
-314.983	-63.357	0.116	-0.048
-313.968	474.755	-0.177	-0.399
-312.953	29.219	0.056	-0.047
-311.939	-200.000	-0.003	0.057
-310.924	-183.942	-0.213	-0.004
-309.910	-57.996	0.231	-0.101
-308.895	-99.712	-0.180	0.045
-307.880	109.869	0.137	-0.164
-306.866	-30.902	-0.198	0.111
-305.851	-110.642	-0.273	0.056
-304.837	-67.612	-0.075	0.029
-303.822	800.000	-0.063	0.202
-302.807	11.848	0.106	-0.081
-301.793	800.000	0.055	0.166
-300.778	-200.000	0.090	0.444
-299.764	-200.000	0.037	-0.192
-298.749	109.915	0.244	-0.292
-297.735	207.363	0.039	0.061
-296.720	800.000	0.039	0.122
-295.705	465.672	0.155	-0.345
-294.691	268.228	-0.136	-0.237
-293.676	16.972	0.212	-0.167
-292.662	330.665	0.185	0.356
-291.647	-0.664	-0.259	-0.183
-290.632	-3.755	0.148	0.103
-289.618	564.480	0.131	0.316
-288.603	-108.340	0.172	-0.037
-287.589	115.813	-0.184	-0.225
-286.574	-134.563	0.396	-0.048
-285.559	-146.909	0.142	0.012
-284.545	800.000	0.042	0.167
-283.530	225.392	0.101	0.163
-282.516	-61.528	0.146	0.061
-281.501	-200.000	-0.002	-0.355
-280.486	54.809	-0.133	0.128
-279.472	642.865	-0.231	-0.586
-278.457	-52.825	-0.058	0.027
-277.443	-200.000	0.080	0.359
-276.428	-136.970	0.187	0.021
-275.413	-156.297	-0.016	-0.001
-274.399	523.832	-0.038	0.090
-273.384	800.000	0.043	-0.156
-272.370	800.000	0.073	-0.270
-271.355	-200.000	-0.006	0.324
-270.340	-72.404	-0.304	-0.112
-269.326	368.633	-0.127	-0.255
-268.311	-49.216	0.218	-0.104
-267.297	-200.000	0.055	-0.335
-266.282	-121.854	-0.167	-0.027
-265.267	-106.887	-0.258	0.057
-264.253	319.440	0.075	-0.141
-263.238	129.029	-0.195	-0.247
-262.224	2.102	0.206	0.148
-261.209	23.255	-0.260	0.213
-260.195	158.522	-0.184	-0.255
-259.180	59.649	0.024	0.024
-258.165	-69.542	-0.314	0.120
-257.151	134.543	-0.107	0.138
-256.136	-158.316	0.320	-0.019
-255.122	160.438	0.017	-0.023
-254.107	-108.738	0.225	-0.048
-253.092	-200.000	-0.006	0.174
-252.078	248.016	0.088	-0.149
-251.063	-160.099	-0.121	0.007
-250.049	-110.333	-0.325	0.067
-249.034	290.948	-0.178	-0.323
-248.019	109.541	0.139	-0.165
-247.005	-200.000	0.045	-0.262
-245.990	53.782	0.122	-0.116
-244.976	-150.953	0.150	-0.011
-243.961	-111.971	-0.039	-0.008
-242.946	-51.462	0.268	-0.125
-241.932	-112.086	-0.171	0.034
-240.917	-142.693	0.370	0.036
-239.903	-53.089	-0.168	-0.077
-238.888	85.745	-0.398	-0.435
-237.873	-200.000	0.021	-0.406
-236.859	-200.000	0.014	-0.062
-235.844	102.969	-0.201	0.234
-234.830	800.000	0.070	0.194
-233.815	-148.600	-0.241	0.020
-232.800	15.055	-0.159	-0.123
-231.786	39.426	-0.114	0.101
-230.771	-3.122	0.128	-0.088
-229.757	199.004	-0.098	0.150
-228.742	162.750	0.227	0.317
-227.727	-175.399	0.365	0.010
-226.713	-200.000	0.019	-0.310
-225.698	-172.120	-0.231	0.007
-224.684	100.609	0.237	-0.274
-223.669	-200.000	-0.050	-0.217
-222.655	66.692	0.244	-0.246
-221.640	109.006	-0.144	-0.171
-220.625	-109.398	-0.097	0.020
-219.611	26.153	-0.139	-0.115
-218.596	199.084	-0.074	-0.113
-217.582	-200.000	-0.039	0.204
-216.567	800.000	0.079	0.303
-215.552	-13.196	0.153	-0.099
-214.538	800.000	0.049	-0.143
-213.523	-165.071	0.427	-0.019
-212.509	113.748	0.026	0.031
-211.494	261.592	-0.145	-0.249
-210.479	65.394	0.281	0.283
-209.465	303.764	-0.041	-0.075
-208.450	-32.575	0.071	0.039
-207.436	800.000	0.056	0.199
-206.421	217.404	0.136	-0.215
-205.406	-25.024	0.382	0.225
-204.392	118.514	0.075	-0.092
-203.377	-200.000	0.024	0.293
-202.363	800.000	-0.057	0.197
-201.348	108.723	-0.108	-0.128
-200.333	800.000	-0.090	0.307
-199.319	423.549	-0.030	-0.064
-198.304	-102.985	-0.092	-0.022
-197.290	-48.391	0.181	0.086
-196.275	800.000	-0.126	-0.355
-195.260	-86.432	0.336	0.103
-194.246	60.420	-0.160	-0.157
-193.231	40.025	0.183	0.164
-192.217	578.477	-0.055	0.134
-191.202	360.691	0.119	0.237
-190.187	119.106	0.121	0.149
-189.173	-200.000	-0.030	-0.207
-188.158	-41.021	0.215	-0.110
-187.144	14.955	0.169	-0.131
-186.129	-200.000	0.004	-0.210
-185.114	-82.654	0.227	0.073
-184.100	-133.519	0.136	0.017
-183.085	706.332	0.068	0.177
-182.071	-68.002	0.067	-0.026
-181.056	58.710	0.335	-0.326
-180.042	7.550	0.225	0.167
-179.027	155.784	0.114	0.155
-178.012	-147.229	-0.098	0.008
-176.998	800.000	0.102	-0.413
-175.983	-200.000	-0.028	0.189
-174.969	-181.296	-0.203	0.004
-173.954	-137.578	0.152	-0.017
-172.939	800.000	-0.043	0.120
-171.925	-57.094	-0.365	0.159
-170.910	268.380	-0.068	0.119
-169.896	-53.820	-0.248	-0.112
-168.881	21.209	-0.264	-0.213
-167.866	-200.000	0.007	0.234
-166.852	-16.592	0.071	-0.044
-165.837	-50.507	-0.225	-0.105
-164.823	-167.279	0.363	-0.015
-163.808	137.888	0.225	-0.292
-162.793	-22.662	-0.263	-0.157
-161.779	-118.888	-0.105	0.018
-160.764	255.147	-0.175	0.296
-159.750	-105.988	-0.142	0.032
-158.735	-119.082	0.224	-0.039
-157.720	8.032	-0.178	-0.132
-156.706	-56.837	0.255	0.112
-155.691	216.119	0.143	0.225
-154.677	800.000	-0.059	-0.256
-153.662	-50.128	-0.096	0.045
-152.647	182.864	-0.140	0.205
-151.633	-60.033	-0.201	-0.085
-150.618	-97.138	0.151	-0.039
-149.604	15.652	0.160	0.125
-148.589	-55.822	-0.227	0.101
-147.574	-155.902	0.160	0.010
-146.560	440.302	0.127	-0.274
-145.545	613.050	0.084	-0.209
-144.531	280.435	-0.112	0.198
-143.516	-83.480	-0.297	-0.094
-142.502	218.568	0.038	-0.060
-141.487	-36.083	-0.307	0.164
-140.472	-133.889	0.596	0.073
-139.458	-200.000	-0.036	-0.265
-138.443	349.611	0.135	0.264
-137.429	404.277	0.147	-0.306
-136.414	90.031	0.313	0.346
-135.399	-200.000	0.039	-0.470
-134.385	-119.071	-0.356	-0.062
-133.370	-200.000	-0.016	-0.161
-132.356	62.163	0.322	-0.318
-131.341	158.578	0.040	-0.055
-130.326	-76.606	0.294	0.102
-129.312	-131.708	0.240	-0.031
-128.297	37.066	-0.050	0.044
-127.283	-84.236	0.156	-0.049
-126.268	-22.976	-0.084	-0.050
-125.253	-51.983	0.152	-0.070
-124.239	-160.160	0.196	-0.011
-123.224	800.000	-0.053	-0.185
-122.210	-200.000	0.078	-0.345
-121.195	-104.180	0.308	-0.071
-120.180	-121.849	-0.084	0.014
-119.166	-84.195	0.102	-0.032
-118.151	144.963	0.085	0.112
-117.137	-144.167	0.015	0.001
-116.122	-62.932	0.173	0.071
-115.107	-132.380	0.281	0.036
-114.093	367.936	-0.024	0.048
-113.078	-0.432	0.209	-0.147
-112.064	-21.402	-0.188	0.114
-111.049	-200.000	-0.005	-0.124
-110.034	255.170	0.074	0.126
-109.020	-52.548	0.216	-0.099
-108.005	410.420	0.021	0.044
-106.991	301.828	-0.073	0.134
-105.976	-125.896	-0.147	0.022
-104.962	277.927	-0.161	0.283
-103.947	331.436	-0.136	0.259
-102.932	375.696	-0.045	-0.090
-101.918	-200.000	-0.021	0.173
-100.903	406.045	0.082	-0.170
-99.889	-2.254	0.201	-0.140
-98.874	-30.724	0.185	-0.104
-97.859	797.419	-0.025	0.068
-96.845	800.000	-0.040	0.137
-95.830	170.034	-0.056	0.079
-94.816	-192.408	0.254	-0.002
-93.801	-37.878	0.147	0.077
-92.786	-75.233	0.271	-0.096
-91.772	78.915	-0.079	0.083
-90.757	-87.560	-0.475	0.142
-89.743	146.825	0.111	0.147
-88.728	-81.214	0.330	-0.108
-87.713	270.336	0.114	0.199
-86.699	-125.440	0.314	0.047
-85.684	-200.000	0.016	-0.151
-84.670	-29.754	0.079	0.045
-83.655	133.981	-0.054	-0.069
-82.640	18.744	0.065	0.052
-81.626	434.794	0.134	0.288
-80.611	-152.733	0.110	0.008
-79.597	53.975	0.107	0.101
-78.582	-141.391	0.349	-0.035
-77.567	696.365	-0.071	0.184
-76.553	800.000	0.043	-0.140
-75.538	-91.028	-0.144	0.041
-74.524	396.474	-0.205	-0.423
-73.509	800.000	0.009	0.027
-72.494	-174.703	-0.280	-0.008
-71.480	-200.000	-0.053	0.527
-70.465	800.000	0.042	0.159
-69.451	-138.561	0.084	-0.009
-68.436	-37.094	0.209	0.110
-67.422	-200.000	0.029	0.548
-66.407	201.221	0.114	0.173
-65.392	240.269	-0.192	-0.316
-64.378	-66.792	0.319	-0.125
-63.363	-29.406	-0.273	0.154
-62.349	-107.319	0.244	-0.053
-61.334	-18.357	-1.372	-0.847
-60.319	-9.740	0.726	0.478
-59.305	291.107	-0.502	-0.900
-58.290	366.173	0.575	1.145
-57.276	739.279	0.627	1.661
-56.261	-200.000	104.451	604.875
-55.246	493.543	1493.518	3381.501
-54.232	173.563	2699.840	3844.856
-53.217	101.999	2335.589	2690.872
-52.203	36.335	2076.831	1807.166
-51.188	31.530	1988.321	1686.879
-50.173	29.978	1970.938	1658.180
-49.159	45.350	2026.916	1845.402
-48.144	46.048	2043.791	1867.037
-47.130	32.059	2002.431	1703.379
-46.115	29.768	1991.480	1673.300
-45.100	29.643	1988.767	1669.823
-44.086	29.627	1986.425	1667.649
-43.071	29.651	1983.257	1665.133
-42.057	29.621	1981.199	1663.075
-41.042	29.570	1979.926	1661.474
-40.027	29.597	1977.920	1659.972
-39.013	29.649	1975.886	1658.661
-37.998	29.742	1973.695	1657.590
-36.984	29.718	1971.631	1655.578
-35.969	29.661	1969.916	1653.560
-34.954	29.762	1968.439	1653.160
-33.940	29.712	1967.114	1651.540
-32.925	29.760	1965.668	1650.683
-31.911	29.759	1964.367	1649.522
-30.896	29.754	1961.922	1647.358
-29.881	29.816	1960.592	1646.726
-28.867	29.734	1959.210	1644.773
-27.852	29.826	1957.177	1643.814
-26.838	29.856	1954.954	1642.151
-25.823	29.706	1953.708	1639.704
-24.809	29.818	1951.433	1638.725
-23.794	29.711	1950.208	1636.680
-22.779	29.852	1948.132	1636.126
-21.765	29.798	1946.731	1634.407
-20.750	29.858	1944.454	1632.961
-19.736	29.720	1944.186	1631.449
-18.721	29.810	1941.740	1630.124
-17.706	29.828	1940.145	1628.883
-16.692	29.825	1938.299	1627.241
-15.677	29.756	1937.318	1625.745
-14.663	29.779	1935.484	1624.341
-13.648	29.790	1934.737	1623.746
-12.633	29.782	1933.418	1622.510
-11.619	29.864	1931.786	1621.796
-10.604	29.814	1930.447	1620.168
-9.590	29.700	1929.545	1618.348
-8.575	29.740	1927.942	1617.284
-7.560	29.780	1926.138	1616.061
-6.546	29.829	1925.310	1615.731
-5.531	29.763	1924.791	1614.652
-4.517	29.768	1922.641	1612.831
-3.502	29.795	1921.398	1611.955
-2.487	29.819	1920.408	1611.271
-1.473	29.809	1919.468	1610.328
-0.458	29.874	1914.658	1606.799
0.556	27.476	1894.831	1580.291
1.571	23.596	1876.485	1531.440
2.586	20.160	1900.165	1520.546
3.600	19.289	1936.407	1541.626
4.615	18.990	1932.138	1535.421
5.629	14.419	1830.581	1415.838
6.644	5.217	1711.374	1250.143
7.659	0.387	1673.788	1184.693
8.673	-0.120	1670.569	1178.333
9.688	-0.125	1669.042	1177.118
10.702	-0.128	1667.778	1176.096
11.717	-0.267	1664.259	1172.422
12.731	0.307	1664.072	1176.674
13.746	6.987	1680.326	1240.597
14.761	16.644	1702.159	1333.009
15.775	21.349	1710.852	1376.856
16.790	22.345	1711.617	1385.193
17.804	22.486	1711.308	1385.933
18.819	22.517	1710.658	1385.529
19.834	22.696	1709.515	1385.884
20.848	22.866	1709.477	1387.065
21.863	22.872	1708.945	1386.561
22.877	22.999	1707.232	1386.044
23.892	22.960	1706.243	1384.812
24.907	22.926	1705.641	1383.937
25.921	22.885	1705.063	1383.018
26.936	22.886	1704.010	1382.053
27.950	22.971	1702.369	1381.262
28.965	22.938	1701.793	1380.418
29.980	23.015	1700.977	1380.231
30.994	22.870	1700.648	1378.714
32.009	22.982	1698.638	1377.831
33.023	22.947	1697.963	1376.888
34.038	22.980	1696.925	1376.182
35.053	22.911	1695.919	1374.711
36.067	22.908	1695.024	1373.844
37.082	22.871	1694.207	1372.769
38.096	22.934	1692.643	1371.873
39.111	22.916	1692.364	1371.383
40.126	22.877	1691.785	1370.487
41.140	22.881	1691.201	1369.927
42.155	22.965	1689.488	1369.065
43.169	22.959	1688.322	1367.958
44.184	22.930	1687.136	1366.651
45.199	22.940	1686.469	1366.066
46.213	22.887	1685.285	1364.579
47.228	22.825	1684.633	1363.447
48.242	22.805	1683.179	1361.998
49.257	22.852	1681.834	1361.151
50.271	22.939	1680.517	1360.635
51.286	22.902	1679.439	1359.352
52.301	22.804	1678.458	1357.688
53.315	22.871	1676.872	1356.801
54.330	22.919	1675.102	1355.616
55.344	22.872	1674.012	1354.250
56.359	22.807	1672.728	1352.599
57.374	22.844	1671.784	1351.996
58.388	22.885	1670.514	1351.166
59.403	22.996	1668.818	1350.518
60.417	22.964	1667.937	1349.441
61.432	22.909	1666.878	1348.045
62.447	22.959	1665.817	1347.454
63.461	22.905	1665.061	1346.306
64.476	22.917	1664.060	1345.468
65.490	22.938	1663.298	1344.896
66.505	22.975	1661.567	1343.660
67.520	22.924	1660.862	1342.585
68.534	22.911	1660.277	1341.895
69.549	22.963	1658.865	1341.024
70.563	23.028	1657.000	1339.896
71.578	22.995	1656.228	1338.904
72.593	22.888	1655.833	1337.653
73.607	22.914	1654.658	1336.785
74.622	22.990	1653.447	1336.263
75.636	23.015	1652.742	1335.762
76.651	22.981	1652.171	1334.928
77.666	22.976	1651.170	1333.959
78.680	22.916	1650.124	1332.543
79.695	22.886	1649.286	1331.527
80.709	22.927	1647.992	1330.670
81.724	22.892	1647.260	1329.697
82.739	22.929	1646.761	1329.458
83.753	22.972	1645.121	1328.335
84.768	22.983	1644.200	1327.558
85.782	22.934	1644.015	1326.923
86.797	22.933	1642.927	1325.923
87.812	23.058	1641.524	1325.608
88.826	23.064	1640.665	1324.840
89.841	22.980	1639.807	1323.401
90.855	22.958	1639.062	1322.518
91.870	22.931	1638.031	1321.369
92.884	22.990	1636.791	1320.693
93.899	22.928	1636.018	1319.488
94.914	22.921	1634.975	1318.482
95.928	23.000	1633.586	1317.832
96.943	22.951	1632.392	1316.387
97.957	23.009	1631.220	1315.755
98.972	22.912	1630.207	1314.099
99.987	23.040	1628.232	1313.343
101.001	23.074	1626.366	1311.973
102.016	22.877	1625.604	1309.781
103.030	23.001	1623.809	1309.139
104.045	22.979	1622.396	1307.723
105.060	22.968	1621.671	1306.938
106.074	23.028	1620.120	1306.015
107.089	23.073	1619.082	1305.395
108.103	22.976	1618.217	1303.868
109.118	23.085	1616.646	1303.293
110.133	23.071	1614.970	1301.719
111.147	22.982	1614.471	1300.547
112.162	23.047	1613.285	1299.955
113.176	23.074	1611.578	1298.667
114.191	23.082	1609.838	1297.204
115.206	23.130	1609.398	1297.090
116.220	23.070	1608.285	1295.636
117.235	23.052	1607.018	1294.374
118.249	22.972	1605.965	1292.820
119.264	23.040	1604.983	1292.415
120.279	23.027	1603.704	1291.174
121.293	23.034	1602.583	1290.214
122.308	23.086	1601.374	1289.504
123.322	23.146	1599.576	1288.380
124.337	23.069	1598.715	1287.006
125.352	23.088	1597.555	1286.097
126.366	23.112	1596.844	1285.584
127.381	23.074	1595.811	1284.370
128.395	23.142	1594.915	1284.022
129.410	23.063	1594.278	1282.827
130.424	23.137	1592.196	1281.574
131.439	23.187	1590.605	1280.543
132.454	23.088	1590.107	1279.313
133.468	23.011	1589.059	1277.798
134.483	23.031	1587.662	1276.703
135.497	23.142	1585.920	1275.991
136.512	23.058	1584.852	1274.417
137.527	23.144	1583.441	1273.786
138.541	22.994	1582.923	1272.178
139.556	22.962	1581.747	1270.892
140.570	23.118	1579.877	1270.395
141.585	23.065	1578.717	1268.970
142.600	23.093	1577.685	1268.230
143.614	23.192	1575.909	1267.401
144.629	23.076	1575.329	1265.992
145.643	23.208	1573.604	1265.437
146.658	23.051	1572.550	1263.355
147.673	23.011	1571.211	1261.882
148.687	23.049	1570.138	1261.176
149.702	23.124	1569.416	1261.021
150.716	23.200	1567.395	1259.825
151.731	23.075	1566.746	1258.306
152.746	23.155	1565.657	1257.889
153.760	23.084	1564.175	1256.080
154.775	23.128	1563.413	1255.672
155.789	23.211	1562.009	1255.022
156.804	23.154	1561.216	1253.869
157.819	23.147	1559.724	1252.509
158.833	23.163	1558.697	1251.690
159.848	23.111	1558.223	1250.828
160.862	23.124	1557.221	1250.007
161.877	23.196	1556.336	1249.690
162.892	23.161	1555.293	1248.499
163.906	23.217	1554.480	1248.132
164.921	23.238	1553.583	1247.446
165.935	23.142	1552.665	1245.923
166.950	23.174	1551.663	1245.232
167.964	23.199	1550.332	1244.232
168.979	23.222	1549.449	1243.570
169.994	23.151	1548.711	1242.374
171.008	23.196	1547.887	1241.914
172.023	23.290	1546.639	1241.464
173.037	23.255	1545.558	1240.245
174.052	23.126	1544.927	1238.726
175.067	23.269	1542.957	1238.033
176.081	23.214	1542.833	1237.438
177.096	23.197	1541.732	1236.331
178.110	23.241	1540.566	1235.592
179.125	23.278	1539.166	1234.616
180.140	23.227	1538.740	1233.808
181.154	23.214	1538.057	1233.060
182.169	23.273	1537.094	1232.594
183.183	23.234	1536.012	1231.345
184.198	23.317	1534.812	1230.853
185.213	23.243	1534.426	1229.919
186.227	23.424	1533.097	1229.998
187.242	23.349	1532.368	1228.787
188.256	23.388	1531.569	1228.307
189.271	23.398	1530.290	1227.240
190.286	23.469	1529.652	1227.115
191.300	23.296	1529.259	1225.491
192.315	23.436	1527.818	1225.201
193.329	23.375	1526.777	1223.835
194.344	23.358	1525.763	1222.794
195.359	23.308	1525.558	1222.176
196.373	23.385	1524.792	1221.986
197.388	23.359	1523.927	1221.004
198.402	23.324	1522.764	1219.727
199.417	23.205	1521.839	1218.057
200.432	23.269	1520.844	1217.594
201.446	23.269	1520.646	1217.328
202.461	23.366	1519.364	1216.855
203.475	23.387	1518.147	1215.920
204.490	23.342	1517.794	1215.219
205.504	23.255	1516.836	1213.748
206.519	23.322	1515.977	1213.413
207.534	23.431	1515.083	1213.334
208.548	23.337	1514.451	1212.082
209.563	23.447	1513.249	1211.762
210.577	23.450	1511.888	1210.587
211.592	23.351	1511.504	1209.494
212.607	23.410	1511.071	1209.444
213.621	23.520	1510.230	1209.416
214.636	23.508	1509.601	1208.723
215.650	23.455	1508.308	1207.220
216.665	23.524	1507.579	1206.998
217.680	23.461	1507.035	1206.026
218.694	23.449	1506.354	1205.298
219.709	23.426	1505.450	1204.312
220.723	23.495	1504.264	1203.722
221.738	23.454	1503.858	1203.011
222.753	23.482	1502.736	1202.201
223.767	23.435	1501.551	1200.827
224.782	23.462	1500.713	1200.229
225.796	23.470	1499.888	1199.521
226.811	23.642	1499.318	1200.122
227.826	23.606	1498.665	1199.251
228.840	23.609	1497.544	1198.268
229.855	23.527	1496.751	1196.971
230.869	23.601	1495.946	1196.722
231.884	23.650	1494.979	1196.172
232.899	23.587	1494.194	1195.013
233.913	23.531	1493.188	1193.729
234.928	23.526	1491.888	1192.550
235.942	23.560	1491.445	1192.315
236.957	23.665	1489.882	1191.669
237.972	23.555	1489.216	1190.291
238.986	23.622	1487.780	1189.487
240.001	23.625	1487.386	1189.084
241.015	23.622	1485.873	1187.751
242.030	23.636	1485.115	1187.135
243.045	23.674	1483.948	1186.350
244.059	23.735	1483.628	1186.399
245.074	23.666	1482.572	1184.987
246.088	23.749	1481.823	1184.838
247.103	23.704	1481.230	1183.955
248.117	23.737	1480.651	1183.612
249.132	23.790	1479.355	1182.821
250.147	23.735	1478.799	1181.906
251.161	23.807	1477.869	1181.539
252.176	23.733	1477.649	1180.764
253.190	23.814	1476.756	1180.485
254.205	23.811	1476.138	1179.870
255.220	23.783	1475.254	1178.869
256.234	23.743	1474.796	1178.137
257.249	23.822	1473.378	1177.419
258.263	23.836	1472.658	1176.836
259.278	23.814	1471.852	1175.943
260.293	23.801	1470.932	1175.014
261.307	23.824	1470.501	1174.717
262.322	23.850	1469.710	1174.153
263.336	23.931	1468.886	1173.925
264.351	24.017	1467.734	1173.471
265.366	23.923	1466.810	1172.009
266.380	23.896	1466.372	1171.374
267.395	23.884	1465.524	1170.520
268.409	23.863	1464.285	1169.285
269.424	23.868	1463.831	1168.851
270.439	23.902	1463.173	1168.449
271.453	23.877	1461.953	1167.205
272.468	24.057	1460.735	1167.308
273.482	23.892	1460.597	1166.018
274.497	23.846	1459.909	1165.059
275.512	23.890	1458.710	1164.291
276.526	23.981	1458.088	1164.282
277.541	23.957	1456.841	1163.032
278.555	23.998	1456.404	1162.846
279.570	24.044	1455.550	1162.362
280.585	23.977	1454.626	1161.081
281.599	23.919	1454.023	1160.120
282.614	24.065	1452.745	1159.947
283.628	24.063	1451.922	1159.176
284.643	23.987	1451.124	1157.941
285.657	24.123	1449.597	1157.503
286.672	24.020	1449.515	1156.666
287.687	23.980	1448.866	1155.788
288.701	24.004	1447.655	1154.876
289.716	24.118	1447.087	1155.061
290.730	24.044	1446.393	1153.924
291.745	24.065	1445.087	1152.918
292.760	24.033	1444.660	1152.268
293.774	24.155	1443.493	1152.021
294.789	24.165	1442.451	1151.156
295.803	24.112	1442.445	1150.706
296.818	24.148	1441.353	1149.965
297.833	24.107	1440.187	1148.667
298.847	24.047	1439.817	1147.883
299.862	24.139	1438.755	1147.530
300.876	24.114	1438.135	1146.773
301.891	24.205	1436.622	1146.047
302.906	24.272	1435.897	1145.801
303.920	24.218	1435.790	1145.266
304.935	24.268	1435.606	1145.338
305.949	24.251	1434.447	1144.205
306.964	24.282	1433.291	1143.381
307.979	24.263	1432.540	1142.558
308.993	24.292	1431.621	1141.909
310.008	24.311	1431.049	1141.474
311.022	24.331	1429.792	1140.498
312.037	24.205	1429.039	1138.988
313.052	24.243	1428.104	1138.391
314.066	24.341	1426.711	1137.805
315.081	24.394	1425.855	1137.359
316.095	24.319	1425.256	1136.302
317.110	24.410	1424.098	1135.853
318.125	24.319	1423.373	1134.595
319.139	24.341	1422.967	1134.315
320.154	24.363	1421.803	1133.427
321.168	24.429	1420.726	1132.882
322.183	24.415	1420.146	1132.234
323.197	24.433	1419.062	1131.385
324.212	24.269	1418.769	1130.008
325.227	24.379	1417.639	1129.708
326.241	24.410	1416.717	1129.066
327.256	24.523	1415.810	1128.960
328.270	24.469	1415.230	1128.058
329.285	24.441	1415.127	1127.695
330.300	24.411	1414.196	1126.665
331.314	24.424	1412.974	1125.674
332.329	24.448	1411.774	1124.772
333.343	24.490	1411.477	1124.698
334.358	24.549	1410.560	1124.243
335.373	24.553	1410.006	1123.726
336.387	24.633	1409.113	1123.415
337.402	24.633	1408.620	1122.924
338.416	24.646	1407.990	1122.402
339.431	24.566	1407.606	1121.494
340.446	24.590	1407.081	1121.132
341.460	24.634	1405.992	1120.436
342.475	24.652	1404.835	1119.531
343.489	24.679	1404.038	1118.964
344.504	24.617	1403.107	1117.739
345.519	24.688	1402.008	1117.204
346.533	24.688	1401.103	1116.387
347.548	24.643	1400.216	1115.301
348.562	24.668	1399.790	1115.019
349.577	24.734	1398.756	1114.505
350.592	24.666	1398.211	1113.551
351.606	24.675	1397.436	1112.888
352.621	24.601	1396.524	1111.601
353.635	24.718	1395.386	1111.328
354.650	24.829	1394.319	1111.067
355.665	24.738	1393.778	1109.974
356.679	24.771	1392.721	1109.239
357.694	24.824	1391.204	1108.260
358.708	24.891	1390.174	1107.758
359.723	24.734	1389.376	1106.051
360.738	24.758	1388.374	1105.305
361.752	24.751	1387.091	1104.142
362.767	24.783	1386.209	1103.543
363.781	24.747	1385.429	1102.603
364.796	24.900	1384.311	1102.554
365.810	24.903	1383.760	1102.038
366.825	24.852	1383.571	1101.474
367.840	24.904	1382.631	1100.949
368.854	24.847	1382.245	1100.191
369.869	24.970	1381.710	1100.426
370.883	24.962	1380.620	1099.415
371.898	24.878	1380.178	1098.445
372.913	24.986	1379.654	1098.593
373.927	24.859	1378.611	1096.892
374.942	24.908	1378.154	1096.729
375.956	24.996	1377.422	1096.590
376.971	25.011	1376.502	1095.853
377.986	24.947	1375.446	1094.523
379.000	24.964	1374.733	1093.960
380.015	24.949	1374.107	1093.274
381.029	25.083	1373.039	1093.147
382.044	25.166	1372.686	1093.271
383.059	25.007	1372.313	1091.908
384.073	24.980	1371.656	1091.124
385.088	25.105	1370.585	1090.938
386.102	25.044	1369.993	1089.999
387.117	25.093	1369.588	1089.879
388.132	25.073	1369.059	1089.241
389.146	25.133	1367.990	1088.657
390.161	25.105	1367.042	1087.637
391.175	25.242	1366.154	1087.665
392.190	25.141	1366.170	1086.968
393.205	25.106	1365.276	1085.948
394.219	25.172	1364.262	1085.447
395.234	25.128	1363.689	1084.627
396.248	25.105	1362.323	1083.306
397.263	25.280	1360.747	1083.014
398.278	25.261	1359.956	1082.171
399.292	25.297	1358.711	1081.302
400.307	25.309	1357.849	1080.596
401.321	25.339	1357.009	1080.010
402.336	25.370	1356.103	1079.378
403.350	25.225	1354.971	1077.516
404.365	25.221	1354.198	1076.777
405.380	25.354	1353.088	1076.599
406.394	25.314	1353.024	1076.213
407.409	25.377	1352.052	1075.724
408.423	25.390	1351.399	1075.188
409.438	25.452	1350.525	1074.767
410.453	25.415	1349.768	1073.847
411.467	25.382	1349.348	1073.219
412.482	25.386	1348.810	1072.721
413.496	25.446	1348.193	1072.494
414.511	25.417	1347.327	1071.540
415.526	25.470	1346.599	1071.181
416.540	25.398	1345.940	1070.133
417.555	25.517	1344.963	1069.971
418.569	25.474	1344.201	1069.014
419.584	25.538	1344.007	1069.143
420.599	25.486	1343.574	1068.394
421.613	137.647	1436.687	1798.138
422.628	134.521	1450.224	1798.189
