DTS Sentinel unit serial number:	SN413079Multiplexer serial number:	ORYXHardware model number:	OX4-SRSoftware version number:	ORYX F/W v4.00 Oryx Data Collector v3.7.2.0data status	okinstallation	princeton_trtdifferential loss correction	single-endedforward channel	channel 4reverse channel	N/Adate	2019/09/12time	00:31:11forward acquisition time	60.00reverse acquisition time	0.00gamma	496.2192k internal	0.2308k external	0.2308temperature offset calibration	1.0090default loss term (dB/km)	0.3790temperature slope calibration	1.0000multiplexer offset coefficient	1.0000multiplexer slope coefficient	1.0000fibre end	0.00T internal ref (°C)	33.37T ext. ref 1 (°C)	2.05T ext. ref 2 (°C)	27.88length (m)	temperature (°C)	Stokes	anti-Stokes-747.200	800.000	-0.058	-0.232
-746.185	800.000	-0.111	0.346
-745.171	-170.184	0.062	-0.002
-744.156	-131.921	0.126	0.017
-743.142	800.000	0.027	0.097
-742.127	-162.223	-0.136	0.007
-741.112	800.000	0.092	-0.277
-740.098	126.946	-0.088	-0.113
-739.083	-200.000	0.046	0.219
-738.069	102.336	-0.156	0.186
-737.054	-77.526	0.253	0.089
-736.039	307.325	-0.159	-0.301
-735.025	-107.808	0.153	0.034
-734.010	-200.000	-0.051	0.490
-732.996	28.827	0.058	0.050
-731.981	43.328	-0.310	-0.287
-730.966	-123.857	-0.309	-0.050
-729.952	-200.000	-0.022	0.101
-728.937	-200.000	0.003	-0.165
-727.923	-129.525	-0.391	-0.055
-726.908	-125.284	-0.277	0.043
-725.894	-200.000	-0.020	0.399
-724.879	-77.444	-0.226	0.080
-723.864	-73.343	-0.291	0.108
-722.850	-34.329	0.158	-0.088
-721.835	110.243	-0.136	0.165
-720.821	206.426	-0.149	-0.235
-719.806	157.408	0.086	-0.121
-718.791	215.845	0.111	-0.180
-717.777	-23.609	0.200	0.122
-716.762	-76.627	0.126	-0.045
-715.748	87.245	0.021	0.023
-714.733	-22.265	0.157	-0.097
-713.718	-93.211	0.100	-0.028
-712.704	-200.000	-0.044	-0.363
-711.689	-77.557	-0.154	0.054
-710.675	-98.917	-0.270	-0.070
-709.660	-127.586	-0.091	-0.013
-708.645	-87.001	-0.161	-0.050
-707.631	800.000	-0.064	-0.208
-706.616	-167.678	-0.335	-0.013
-705.602	642.819	0.046	-0.120
-704.587	-200.000	-0.028	0.157
-703.572	-99.269	0.582	-0.149
-702.558	272.314	-0.063	-0.113
-701.543	-98.090	-0.082	-0.021
-700.529	-106.074	0.147	0.034
-699.514	144.877	-0.130	-0.176
-698.499	130.270	0.104	0.135
-697.485	119.376	0.045	0.057
-696.470	130.109	-0.162	0.211
-695.456	-185.005	0.219	-0.003
-694.441	90.781	-0.105	-0.119
-693.426	800.000	-0.153	0.473
-692.412	-108.146	0.148	-0.032
-691.397	-151.008	-0.104	0.008
-690.383	-200.000	0.017	-0.147
-689.368	-200.000	-0.050	-0.237
-688.354	-34.376	-0.053	-0.029
-687.339	-131.231	-0.343	-0.046
-686.324	-67.680	-0.076	-0.030
-685.310	-22.930	0.163	-0.100
-684.295	23.618	-0.005	0.004
-683.281	-68.725	-0.157	0.061
-682.266	-200.000	-0.070	0.382
-681.251	-10.545	-0.040	0.027
-680.237	201.602	0.194	0.303
-679.222	-42.601	0.194	0.100
-678.208	-56.796	0.205	-0.092
-677.193	-200.000	-0.048	-0.499
-676.178	-42.784	-0.459	0.236
-675.164	331.673	0.127	0.249
-674.149	0.481	-0.286	0.207
-673.135	91.539	0.108	0.123
-672.120	7.669	0.223	-0.169
-671.105	32.641	0.126	0.110
-670.091	340.594	-0.044	0.086
-669.076	-200.000	-0.034	-0.271
-668.062	-14.912	0.210	0.136
-667.047	-121.613	0.246	0.041
-666.032	-75.360	0.237	-0.086
-665.018	81.435	-0.307	-0.337
-664.003	-127.365	-0.107	0.016
-662.989	303.226	-0.201	-0.377
-661.974	-75.249	0.256	0.093
-660.959	5.502	0.165	-0.124
-659.945	-85.881	-0.172	0.054
-658.930	-65.066	-0.195	-0.080
-657.916	677.786	0.114	-0.300
-656.901	50.770	0.185	-0.177
-655.886	135.927	-0.128	-0.169
-654.872	-148.450	0.412	-0.034
-653.857	-0.053	0.103	-0.074
-652.843	-165.278	-0.257	0.011
-651.828	-43.379	0.069	-0.035
-650.814	59.161	-0.195	-0.195
-649.799	-113.481	0.122	0.024
-648.784	-200.000	0.028	-0.204
-647.770	800.000	0.084	0.260
-646.755	266.470	-0.246	-0.435
-645.741	-200.000	0.003	-0.091
-644.726	-54.931	-0.189	-0.086
-643.711	-200.000	0.024	0.240
-642.697	-48.796	0.018	0.009
-641.682	4.108	0.176	-0.131
-640.668	71.627	-0.232	-0.244
-639.653	-200.000	-0.050	-0.228
-638.638	-25.346	-0.196	0.117
-637.624	-76.600	-0.124	0.044
-636.609	409.473	-0.076	0.164
-635.595	96.114	0.320	0.370
-634.580	-139.498	-0.239	-0.026
-633.565	40.535	-0.188	-0.172
-632.551	107.649	-0.193	0.232
-631.536	-200.000	0.013	-0.127
-630.522	-24.165	0.404	-0.244
-629.507	46.344	-0.274	0.257
-628.492	-200.000	-0.035	0.182
-627.478	-200.000	0.009	-0.059
-626.463	238.736	0.171	0.287
-625.449	-62.340	-0.144	0.061
-624.434	800.000	-0.041	-0.119
-623.419	33.387	-0.049	-0.043
-622.405	81.232	0.250	-0.273
-621.390	-200.000	-0.002	0.219
-620.376	-70.971	-0.391	-0.149
-619.361	-88.147	-0.178	-0.054
-618.346	-200.000	0.001	0.049
-617.332	67.584	0.113	-0.117
-616.317	145.615	-0.208	-0.281
-615.303	4.613	0.047	-0.035
-614.288	-33.358	0.097	0.054
-613.273	102.748	0.083	-0.099
-612.259	657.931	-0.083	-0.217
-611.244	51.548	0.034	0.032
-610.230	-200.000	0.084	-0.410
-609.215	-38.276	-0.280	-0.150
-608.201	134.793	-0.030	0.039
-607.186	-49.176	-0.303	0.146
-606.171	171.317	-0.122	0.177
-605.157	-35.532	-0.073	0.040
-604.142	356.461	0.084	-0.169
-603.128	-115.194	0.200	0.038
-602.113	-200.000	-0.034	-0.301
-601.098	10.388	-0.086	0.066
-600.084	-73.788	0.190	-0.070
-599.069	225.285	-0.029	0.048
-598.055	-200.000	0.029	0.228
-597.040	228.280	0.087	-0.143
-596.025	800.000	-0.096	0.290
-595.011	-44.071	0.051	0.026
-593.996	199.083	0.221	0.343
-592.982	317.195	-0.156	0.298
-591.967	372.095	0.180	-0.369
-590.952	60.405	0.250	0.250
-589.938	395.277	-0.064	0.134
-588.923	96.187	0.087	-0.101
-587.909	-190.751	-0.077	-0.001
-586.894	5.341	-0.155	0.116
-585.879	220.139	0.129	0.209
-584.865	-133.983	-0.306	-0.038
-583.850	273.227	-0.080	0.143
-582.836	-35.538	0.244	-0.134
-581.821	-200.000	-0.046	-0.326
-580.806	-142.775	0.044	0.004
-579.792	800.000	-0.079	-0.338
-578.777	800.000	0.097	-0.337
-577.763	-200.000	-0.007	0.206
-576.748	-64.324	0.256	0.105
-575.733	356.111	-0.218	0.438
-574.719	-146.123	-0.302	0.027
-573.704	-42.823	-0.415	0.213
-572.690	-50.830	0.237	0.113
-571.675	-17.270	0.294	0.187
-570.661	8.907	-0.305	0.232
-569.646	800.000	0.045	-0.164
-568.631	-25.829	-0.101	-0.060
-567.617	-200.000	-0.061	0.312
-566.602	286.116	-0.121	0.220
-565.588	14.127	0.248	0.195
-564.573	140.651	0.124	-0.166
-563.558	-105.026	0.147	-0.034
-562.544	800.000	-0.208	0.582
-561.529	47.797	-0.109	0.102
-560.515	800.000	-0.076	0.278
-559.500	-200.000	0.002	-0.051
-558.485	61.465	0.341	0.343
-557.471	-166.783	-0.126	0.005
-556.456	700.989	0.052	-0.139
-555.442	544.047	-0.073	-0.175
-554.427	-200.000	-0.045	-0.294
-553.412	-19.310	0.102	-0.064
-552.398	-200.000	0.019	0.124
-551.383	211.596	0.069	-0.110
-550.369	157.932	-0.047	0.066
-549.354	138.427	-0.228	-0.301
-548.339	-73.191	0.440	-0.163
-547.325	284.385	-0.008	0.014
-546.310	-47.195	-0.452	0.222
-545.296	-14.060	0.249	-0.162
-544.281	-108.978	0.214	0.046
-543.266	-93.413	-0.354	0.099
-542.252	54.047	-0.163	0.158
-541.237	41.168	0.107	0.097
-540.223	-89.989	0.165	0.049
-539.208	-41.151	0.035	0.018
-538.193	20.167	0.107	-0.087
-537.179	-31.234	0.253	-0.144
-536.164	-6.969	-0.388	-0.266
-535.150	-34.467	-0.197	-0.109
-534.135	-125.336	-0.130	-0.020
-533.121	143.243	0.181	0.243
-532.106	-200.000	-0.007	-0.208
-531.091	-13.764	-0.050	-0.032
-530.077	162.726	-0.068	0.097
-529.062	18.801	-0.031	0.025
-528.048	-41.617	-0.189	-0.098
-527.033	9.208	-0.132	0.100
-526.018	-200.000	0.004	-0.195
-525.004	-104.417	-0.251	-0.059
-523.989	-73.556	0.113	-0.042
-522.975	151.565	-0.253	-0.347
-521.960	800.000	-0.034	0.107
-520.945	86.782	0.168	0.187
-519.931	800.000	-0.019	-0.061
-518.916	-79.529	0.201	-0.068
-517.902	-31.430	-0.249	-0.141
-516.887	800.000	0.053	-0.165
-515.872	-200.000	0.025	0.235
-514.858	-200.000	-0.021	-0.240
-513.843	525.684	0.110	-0.261
-512.829	-200.000	-0.038	-0.192
-511.814	-200.000	0.007	-0.088
-510.799	94.783	-0.293	0.336
-509.785	-200.000	-0.028	-0.174
-508.770	338.582	0.122	-0.238
-507.756	-82.839	-0.224	-0.073
-506.741	40.670	0.381	-0.346
-505.726	19.675	-0.060	-0.049
-504.712	800.000	0.071	-0.206
-503.697	800.000	0.097	-0.394
-502.683	7.785	-0.075	0.057
-501.668	227.200	0.156	0.255
-500.653	-86.917	-0.051	-0.016
-499.639	-65.862	-0.163	-0.066
-498.624	-22.938	-0.079	-0.048
-497.610	-200.000	0.028	-0.157
-496.595	-145.324	-0.175	0.016
-495.581	-95.973	0.272	-0.073
-494.566	-168.576	-0.180	0.007
-493.551	3.225	0.155	-0.113
-492.537	-200.000	-0.280	-0.001
-491.522	-0.212	0.167	0.120
-490.508	-78.298	0.315	-0.109
-489.493	104.845	-0.079	-0.094
-488.478	-200.000	0.035	-0.186
-487.464	117.016	0.303	0.375
-486.449	21.229	-0.349	0.285
-485.435	-152.036	-0.101	-0.007
-484.420	-200.000	0.053	0.236
-483.405	-160.746	-0.370	-0.020
-482.391	-31.317	0.082	0.046
-481.376	-33.292	0.432	0.240
-480.362	-53.304	0.329	0.152
-479.347	23.716	0.139	0.115
-478.332	-172.001	-0.503	-0.016
-477.318	800.000	-0.020	-0.086
-476.303	800.000	0.027	0.105
-475.289	21.468	-0.299	-0.245
-474.274	-39.549	-0.021	-0.011
-473.259	55.425	-0.079	-0.077
-472.245	10.604	0.326	0.250
-471.230	-125.078	-0.352	-0.054
-470.216	172.343	0.094	-0.136
-469.201	-200.000	-0.251	0.000
-468.186	-1.904	-0.369	-0.261
-467.172	-58.663	-0.195	0.085
-466.157	-15.502	-0.149	0.096
-465.143	-153.624	-0.195	-0.013
-464.128	-117.707	0.350	-0.063
-463.113	-171.434	0.049	-0.002
-462.099	-63.196	0.089	-0.037
-461.084	392.864	0.175	0.366
-460.070	-200.000	-0.049	-0.297
-459.055	304.476	-0.038	0.071
-458.040	800.000	0.103	0.322
-457.026	-200.000	-0.068	-0.327
-456.011	-54.640	-0.279	0.127
-454.997	800.000	-0.097	-0.330
-453.982	31.849	0.126	0.109
-452.968	239.830	0.209	-0.350
-451.953	-200.000	0.034	-0.273
-450.938	119.614	0.113	-0.141
-449.924	-117.987	0.117	-0.021
-448.909	-200.000	-0.002	0.026
-447.895	37.828	-0.110	0.098
-446.880	14.046	-0.108	-0.084
-445.865	95.045	0.162	-0.186
-444.851	-99.631	-0.322	-0.081
-443.836	106.060	0.212	0.253
-442.822	26.585	-0.395	0.332
-441.807	-200.000	-0.012	-0.081
-440.792	-122.079	0.459	-0.076
-439.778	247.086	0.180	-0.305
-438.763	583.318	-0.073	0.180
-437.749	-35.373	-0.204	-0.111
-436.734	-200.000	0.005	0.170
-435.719	656.860	-0.091	-0.236
-434.705	-121.449	-0.243	0.041
-433.690	114.818	0.173	-0.211
-432.676	299.233	-0.057	0.106
-431.661	541.317	-0.124	0.298
-430.646	472.821	0.051	0.114
-429.632	800.000	-0.095	0.289
-428.617	702.273	0.052	-0.138
-427.603	95.252	0.196	-0.224
-426.588	-136.835	0.153	0.018
-425.573	-200.000	0.015	0.255
-424.559	800.000	-0.025	-0.084
-423.544	240.607	-0.113	-0.190
-422.530	-85.366	0.107	-0.034
-421.515	-98.112	0.258	0.067
-420.500	-71.254	-0.243	-0.092
-419.486	-81.030	0.189	0.063
-418.471	-169.391	0.201	0.007
-417.457	110.337	0.121	-0.145
-416.442	800.000	-0.071	0.239
-415.428	-50.738	0.161	-0.076
-414.413	800.000	-0.115	-0.333
-413.398	452.293	0.077	0.170
-412.384	-14.955	-0.083	0.054
-411.369	590.713	0.092	0.228
-410.355	-200.000	0.011	-0.068
-409.340	126.859	0.030	0.038
-408.325	-147.870	0.159	-0.013
-407.311	800.000	0.096	-0.323
-406.296	-4.696	-0.259	-0.179
-405.282	-200.000	-0.047	0.225
-404.267	800.000	0.020	-0.060
-403.252	-158.792	-0.146	-0.008
-402.238	-75.453	-0.047	-0.017
-401.223	122.037	0.078	0.098
-400.209	-150.704	0.122	-0.009
-399.194	-200.000	0.058	0.262
-398.179	-87.158	0.055	-0.017
-397.165	50.163	0.103	0.098
-396.150	-69.113	0.056	0.022
-395.136	-13.397	-0.163	-0.106
-394.121	-18.314	0.090	-0.057
-393.106	402.945	0.050	0.106
-392.092	-200.000	-0.043	0.210
-391.077	-63.464	0.166	0.068
-390.063	71.892	-0.052	0.054
-389.048	-92.136	0.099	-0.028
-388.033	-56.684	0.287	-0.127
-387.019	-101.945	0.152	0.037
-386.004	208.891	-0.155	-0.243
-384.990	24.201	-0.101	-0.083
-383.975	-51.742	0.114	0.053
-382.960	800.000	0.042	0.123
-381.946	6.966	0.265	0.198
-380.931	581.479	0.067	0.164
-379.917	-200.000	0.074	0.381
-378.902	-125.589	0.305	-0.046
-377.888	79.657	0.169	0.182
-376.873	-200.000	-0.014	-0.227
-375.858	80.218	0.076	-0.082
-374.844	13.292	-0.294	0.228
-373.829	302.175	0.111	-0.205
-372.815	-200.000	-0.036	0.194
-371.800	-17.656	-0.103	0.065
-370.785	-200.000	-0.086	0.427
-369.771	622.727	0.016	0.040
-368.756	98.022	-0.104	-0.120
-367.742	-136.047	-0.043	0.005
-366.727	800.000	-0.072	0.221
-365.712	1.170	-0.351	0.252
-364.698	-76.304	-0.098	0.035
-363.683	91.876	0.033	-0.037
-362.669	-64.831	-0.173	0.070
-361.654	-200.000	0.047	-0.228
-360.639	-34.315	0.226	-0.124
-359.625	-115.301	-0.105	-0.020
-358.610	-200.000	0.011	0.158
-357.596	375.140	-0.123	0.252
-356.581	123.217	-0.036	0.045
-355.566	-114.394	-0.221	0.043
-354.552	-200.000	0.014	0.257
-353.537	-200.000	0.038	-0.236
-352.523	-200.000	0.065	-0.396
-351.508	800.000	-0.045	0.178
-350.493	16.082	0.064	-0.051
-349.479	335.830	-0.115	0.223
-348.464	-200.000	-0.003	-0.288
-347.450	190.400	0.054	0.081
-346.435	94.856	-0.152	0.173
-345.420	30.585	0.037	-0.032
-344.406	-18.559	-0.062	0.039
-343.391	34.554	-0.147	-0.129
-342.377	16.722	0.358	-0.283
-341.362	131.045	0.125	0.160
-340.348	-200.000	-0.196	-0.000
-339.333	20.166	-0.247	0.200
-338.318	-113.228	-0.142	-0.028
-337.304	83.010	0.148	0.161
-336.289	-76.183	-0.149	-0.053
-335.275	-200.000	-0.174	-0.000
-334.260	-134.511	-0.048	-0.006
-333.245	-200.000	-0.032	0.148
-332.231	56.462	-0.018	0.017
-331.216	-106.170	-0.407	0.091
-330.202	800.000	-0.100	0.352
-329.187	8.632	0.124	0.093
-328.172	-200.000	-0.014	-0.222
-327.158	-57.492	-0.281	0.123
-326.143	274.346	0.039	-0.069
-325.129	-62.043	-0.222	-0.093
-324.114	800.000	0.054	-0.153
-323.099	-48.355	0.114	0.055
-322.085	12.724	-0.088	0.068
-321.070	-138.654	-0.092	-0.010
-320.056	800.000	-0.048	0.139
-319.041	-200.000	0.039	0.190
-318.026	-25.419	-0.175	-0.103
-317.012	41.049	0.119	-0.107
-315.997	198.623	-0.169	-0.259
-314.983	175.127	-0.133	-0.192
-313.968	-17.293	0.224	0.141
-312.953	-123.476	-0.228	-0.036
-311.939	62.361	-0.145	-0.145
-310.924	-170.001	0.283	-0.010
-309.910	800.000	0.049	0.139
-308.895	-163.999	-0.153	-0.007
-307.880	213.159	0.129	0.203
-306.866	-53.353	-0.300	-0.138
-305.851	-8.142	0.177	-0.119
-304.837	692.277	-0.109	-0.286
-303.822	19.125	0.036	0.029
-302.807	800.000	0.012	-0.041
-301.793	79.580	-0.177	-0.189
-300.778	247.900	0.158	0.266
-299.764	-200.000	0.003	-0.039
-298.749	-200.000	-0.051	-0.300
-297.735	-30.543	0.163	-0.092
-296.720	-18.750	-0.221	-0.138
-295.705	-63.002	0.113	0.047
-294.691	34.912	-0.342	-0.299
-293.676	-64.105	0.245	-0.100
-292.662	-67.053	0.306	-0.121
-291.647	-200.000	0.001	0.049
-290.632	170.922	-0.097	0.138
-289.618	-200.000	-0.018	0.459
-288.603	-200.000	-0.014	0.360
-287.589	303.475	0.171	0.316
-286.574	-86.958	0.115	-0.035
-285.559	69.995	0.065	-0.067
-284.545	214.827	-0.039	-0.062
-283.530	-28.426	-0.285	0.164
-282.516	800.000	0.044	0.136
-281.501	-200.000	0.025	0.263
-280.486	-200.000	0.039	-0.366
-279.472	-200.000	0.046	-0.344
-278.457	123.951	0.114	-0.143
-277.443	-157.653	-0.066	0.004
-276.428	-22.861	-0.419	-0.252
-275.413	668.656	-0.187	-0.483
-274.399	-54.205	-0.207	-0.094
-273.384	-69.213	-0.226	0.087
-272.370	-128.412	-0.503	-0.071
-271.355	303.631	0.134	-0.248
-270.340	-11.014	-0.209	-0.137
-269.326	-114.052	0.238	0.046
-268.311	-114.612	0.380	0.073
-267.297	186.284	-0.091	0.136
-266.282	-26.503	0.474	0.277
-265.267	57.684	0.161	-0.157
-264.253	99.855	0.193	-0.223
-263.238	229.990	0.022	0.036
-262.224	-45.165	0.137	0.068
-261.209	-134.633	0.064	0.008
-260.195	-146.645	-0.022	-0.002
-259.180	-114.697	-0.284	-0.054
-258.165	-200.000	0.003	-0.115
-257.151	-107.507	0.121	-0.026
-256.136	5.949	0.053	0.039
-255.122	480.684	-0.071	0.161
-254.107	-147.043	0.358	-0.031
-253.092	51.684	-0.342	-0.324
-252.078	-14.198	0.341	0.219
-251.063	117.803	0.140	0.172
-250.049	74.060	-0.182	-0.190
-249.034	-94.032	0.189	0.052
-248.019	-200.000	0.088	0.563
-247.005	657.415	-0.132	0.338
-245.990	-91.476	0.215	0.061
-244.976	23.110	-0.277	-0.226
-243.961	-76.503	0.273	-0.096
-242.946	3.471	0.146	0.106
-241.932	800.000	0.012	0.051
-240.917	-42.477	0.311	-0.158
-239.903	-100.852	0.243	-0.059
-238.888	-200.000	-0.012	0.224
-237.873	242.203	-0.144	0.239
-236.859	143.081	-0.247	0.327
-235.844	-140.613	-0.108	0.011
-234.830	-53.236	-0.287	-0.131
-233.815	-200.000	-0.011	0.171
-232.800	129.673	-0.099	-0.126
-231.786	800.000	-0.108	-0.375
-230.771	327.107	0.127	-0.242
-229.757	800.000	0.076	0.312
-228.742	236.156	0.003	0.006
-227.727	15.370	0.149	0.117
-226.713	-0.897	0.238	0.168
-225.698	-149.031	-0.172	0.014
-224.684	-70.204	-0.239	-0.090
-223.669	-30.820	-0.136	0.077
-222.655	190.944	0.116	0.174
-221.640	541.215	0.069	-0.165
-220.625	43.062	0.144	0.131
-219.611	-200.000	0.021	-0.357
-218.596	-117.590	-0.104	0.019
-217.582	209.036	0.092	0.144
-216.567	-87.712	-0.094	0.028
-215.552	766.997	0.189	-0.513
-214.538	-200.000	0.021	-0.118
-213.523	-200.000	-0.052	-0.266
-212.509	509.339	0.079	-0.183
-211.494	-122.571	0.107	-0.017
-210.479	293.184	-0.014	-0.026
-209.465	-20.332	0.219	-0.134
-208.450	-150.716	-0.228	0.017
-207.436	2.623	0.269	-0.194
-206.421	-168.126	-0.305	0.012
-205.406	-200.000	0.036	-0.395
-204.392	-54.118	-0.135	-0.061
-203.377	66.868	0.091	0.092
-202.363	-30.270	0.025	-0.014
-201.348	-200.000	0.030	0.280
-200.333	-200.000	-0.027	0.123
-199.319	401.743	-0.103	0.216
-198.304	386.013	0.091	-0.187
-197.290	-200.000	0.048	0.313
-196.275	1.230	-0.163	0.117
-195.260	-40.026	-0.213	0.110
-194.246	800.000	0.044	-0.149
-193.231	154.390	0.165	0.226
-192.217	-200.000	0.000	-0.031
-191.202	185.459	0.193	0.285
-190.187	-130.448	-0.411	0.055
-189.173	69.667	0.174	0.178
-188.158	232.785	0.170	0.278
-187.144	648.983	0.075	-0.191
-186.129	307.478	0.041	0.076
-185.114	-92.997	0.191	-0.053
-184.100	35.536	0.165	-0.144
-183.085	800.000	-0.077	-0.234
-182.071	-93.452	-0.236	-0.065
-181.056	-200.000	-0.001	0.132
-180.042	55.588	0.136	0.131
-179.027	-139.105	0.164	-0.018
-178.012	-200.000	0.019	0.380
-176.998	134.302	0.250	-0.323
-175.983	524.551	0.088	0.206
-174.969	-152.248	-0.419	-0.030
-173.954	-132.119	0.209	-0.027
-172.939	-23.336	0.258	0.154
-171.925	336.887	-0.102	-0.198
-170.910	272.656	0.108	-0.189
-169.896	8.998	0.264	-0.198
-168.881	800.000	-0.053	-0.199
-167.866	-85.219	0.075	-0.023
-166.852	-200.000	-0.012	0.105
-165.837	-162.467	0.373	-0.018
-164.823	30.829	0.131	0.112
-163.808	-200.000	-0.059	-0.259
-162.793	-200.000	0.029	0.264
-161.779	239.781	-0.091	0.150
-160.764	-200.000	-0.008	-0.456
-159.750	-74.940	0.335	0.119
-158.735	800.000	0.052	-0.173
-157.720	800.000	0.069	0.283
-156.706	-119.158	0.134	-0.023
-155.691	-129.012	0.146	0.020
-154.677	-83.830	0.147	-0.046
-153.662	-89.120	-0.199	0.059
-152.647	-48.052	0.327	0.157
-151.633	-113.380	0.461	0.090
-150.618	243.753	-0.092	-0.153
-149.604	9.427	0.240	-0.180
-148.589	-193.432	-0.138	-0.001
-147.574	-200.000	0.007	0.223
-146.560	316.321	0.129	0.242
-145.545	37.560	-0.220	-0.193
-144.531	107.872	0.217	0.256
-143.516	800.000	0.010	0.036
-142.502	-75.795	0.220	0.078
-141.487	800.000	-0.127	0.449
-140.472	523.837	-0.086	0.200
-139.458	12.540	-0.191	0.147
-138.443	-200.000	-0.070	-0.335
-137.429	-200.000	0.004	-0.021
-136.414	-12.595	-0.382	0.247
-135.399	416.213	0.096	0.203
-134.385	261.207	-0.104	0.178
-133.370	-64.998	0.182	0.073
-132.356	294.879	-0.044	-0.079
-131.341	-200.000	0.007	0.042
-130.326	-200.000	-0.012	0.264
-129.312	-200.000	0.048	0.311
-128.297	800.000	-0.082	0.351
-127.283	485.504	0.014	0.031
-126.268	-200.000	0.022	0.285
-125.253	31.819	0.137	0.117
-124.239	-32.300	-0.087	0.048
-123.224	269.643	0.117	-0.204
-122.210	800.000	-0.024	0.068
-121.195	-200.000	0.039	0.287
-120.180	138.407	0.171	-0.222
-119.166	-200.000	0.002	0.121
-118.151	800.000	-0.074	0.221
-117.137	-156.595	-0.129	-0.008
-116.122	-96.435	-0.241	-0.063
-115.107	-200.000	0.014	-0.199
-114.093	-45.925	-0.119	0.058
-113.078	30.247	-0.212	-0.179
-112.064	50.509	0.078	-0.074
-111.049	11.938	0.319	0.243
-110.034	-12.975	-0.249	-0.161
-109.020	-46.073	-0.075	-0.036
-108.005	38.861	-0.224	0.199
-106.991	-75.223	0.403	0.143
-105.976	-200.000	-0.017	-0.097
-104.962	11.778	-0.103	-0.079
-103.947	56.018	0.229	-0.221
-102.932	-200.000	-0.002	-0.145
-101.918	-87.614	-0.094	-0.028
-100.903	800.000	0.042	-0.173
-99.889	118.712	-0.114	0.140
-98.874	-50.872	0.071	0.033
-97.859	646.150	0.102	-0.258
-96.845	-91.323	-0.032	0.009
-95.830	-200.000	-0.024	-0.105
-94.816	61.631	0.225	0.222
-93.801	13.752	-0.223	0.171
-92.786	-200.000	0.062	0.406
-91.772	-166.889	0.437	0.018
-90.757	800.000	0.045	0.135
-89.743	683.631	-0.099	0.257
-88.728	26.868	-0.075	0.062
-87.713	-200.000	0.000	-0.264
-86.699	141.009	-0.080	-0.105
-85.684	57.364	0.067	0.065
-84.670	101.566	0.061	0.070
-83.655	-113.972	-0.276	0.053
-82.640	497.553	-0.087	0.198
-81.626	126.636	0.049	-0.062
-80.611	420.779	-0.042	0.090
-79.597	252.750	-0.161	0.273
-78.582	653.942	-0.128	0.326
-77.567	-20.659	-0.050	-0.030
-76.553	390.219	0.066	-0.136
-75.538	60.345	0.058	-0.057
-74.524	155.549	0.118	0.161
-73.509	754.470	-0.081	-0.217
-72.494	14.280	-0.222	-0.172
-71.480	163.940	0.240	0.335
-70.465	44.035	-0.146	0.133
-69.451	374.564	-0.243	0.491
-68.436	232.619	-0.223	0.363
-67.422	63.410	0.143	0.142
-66.407	800.000	-0.091	-0.314
-65.392	21.578	0.087	0.070
-64.378	-37.123	-0.282	0.149
-63.363	33.023	0.084	-0.072
-62.349	128.719	0.116	0.147
-61.334	33.365	-0.917	-0.788
-60.319	588.747	0.245	0.597
-59.305	274.258	-0.514	-0.901
-58.290	-16.516	0.985	0.618
-57.276	800.000	0.385	1.542
-56.261	-200.000	96.438	578.461
-55.246	537.785	1387.713	3262.684
-54.232	154.357	2578.767	3502.046
-53.217	102.382	2305.091	2665.699
-52.203	39.762	2059.337	1828.067
-51.188	35.119	1974.072	1710.951
-50.173	33.603	1955.266	1681.154
-49.159	48.081	2006.232	1855.362
-48.144	49.848	2024.222	1887.811
-47.130	35.789	1984.117	1725.388
-46.115	33.321	1974.128	1694.580
-45.100	33.301	1971.072	1691.711
-44.086	33.247	1968.708	1689.127
-43.071	33.206	1966.719	1686.993
-42.057	33.219	1963.868	1684.590
-41.042	33.188	1962.710	1683.259
-40.027	33.283	1959.777	1681.521
-39.013	33.197	1958.586	1679.668
-37.998	33.256	1956.768	1678.568
-36.984	33.322	1954.758	1677.356
-35.969	33.322	1952.712	1675.536
-34.954	33.241	1952.179	1674.296
-33.940	33.294	1950.346	1673.123
-32.925	33.377	1948.355	1672.081
-31.911	33.415	1946.341	1670.627
-30.896	33.376	1945.166	1669.206
-29.881	33.383	1943.605	1667.866
-28.867	33.404	1942.379	1666.924
-27.852	33.366	1940.403	1664.829
-26.838	33.460	1938.103	1663.617
-25.823	33.474	1935.709	1661.617
-24.809	33.407	1934.855	1660.235
-23.794	33.417	1933.036	1658.691
-22.779	33.357	1931.266	1656.581
-21.765	33.409	1929.379	1655.353
-20.750	33.427	1927.384	1653.733
-19.736	33.410	1926.394	1652.674
-18.721	33.399	1925.337	1651.604
-17.706	33.373	1923.639	1649.859
-16.692	33.379	1921.639	1648.130
-15.677	33.440	1919.623	1646.859
-14.663	33.430	1918.748	1645.961
-13.648	33.413	1917.785	1644.919
-12.633	33.343	1917.241	1643.780
-11.619	33.416	1915.468	1642.826
-10.604	33.452	1913.683	1641.542
-9.590	33.460	1912.007	1640.107
-8.575	33.377	1910.831	1638.321
-7.560	33.337	1910.282	1637.440
-6.546	33.467	1908.253	1636.758
-5.531	33.408	1907.188	1635.268
-4.517	33.436	1905.811	1634.263
-3.502	33.416	1904.765	1633.132
-2.487	33.334	1903.979	1631.682
-1.473	33.485	1902.218	1631.415
-0.458	33.346	1898.161	1626.670
0.556	33.609	1878.650	1600.266
1.571	29.664	1859.914	1551.131
2.586	26.018	1882.627	1538.892
3.600	25.261	1918.839	1561.770
4.615	24.747	1913.941	1553.184
5.629	18.979	1813.012	1423.544
6.644	8.231	1690.704	1244.003
7.659	2.593	1650.777	1171.508
8.673	2.156	1647.339	1165.627
9.688	2.106	1645.641	1163.944
10.702	2.056	1644.245	1162.471
11.717	1.893	1640.973	1158.816
12.731	2.251	1640.242	1160.922
13.746	9.258	1657.489	1226.653
14.761	20.022	1681.279	1327.060
15.775	25.513	1690.829	1376.659
16.790	26.406	1691.835	1384.193
17.804	26.580	1691.321	1384.978
18.819	26.580	1690.534	1384.211
19.834	26.784	1689.735	1384.993
20.848	26.894	1689.595	1385.600
21.863	26.996	1688.410	1385.282
22.877	26.956	1687.931	1384.460
23.892	26.923	1687.093	1383.397
24.907	27.024	1685.835	1383.015
25.921	26.966	1684.857	1381.654
26.936	26.897	1684.181	1380.451
27.950	26.990	1682.710	1379.824
28.965	26.978	1682.478	1379.424
29.980	26.950	1681.630	1378.395
30.994	26.909	1680.010	1376.636
32.009	26.982	1678.904	1376.161
33.023	27.021	1677.901	1375.511
34.038	26.997	1676.698	1374.217
35.053	26.991	1675.963	1373.452
36.067	26.973	1675.178	1372.547
37.082	26.949	1674.375	1371.586
38.096	26.929	1673.309	1370.446
39.111	26.948	1672.070	1369.450
40.126	26.999	1671.657	1369.378
41.140	26.937	1671.130	1368.356
42.155	26.882	1669.554	1366.527
43.169	26.967	1668.402	1366.108
44.184	26.984	1667.641	1365.490
45.199	26.937	1666.415	1364.014
46.213	26.892	1665.335	1362.666
47.228	26.919	1664.039	1361.694
48.242	26.925	1662.723	1360.540
49.257	26.939	1662.254	1360.139
50.271	26.909	1660.793	1358.602
51.286	26.951	1659.316	1357.587
52.301	26.841	1658.350	1355.853
53.315	26.967	1656.893	1355.482
54.330	26.953	1655.523	1354.133
55.344	26.913	1654.076	1352.533
56.359	26.884	1652.905	1351.240
57.374	26.885	1652.317	1350.646
58.388	26.948	1651.050	1349.964
59.403	26.847	1650.142	1348.348
60.417	26.923	1649.082	1347.931
61.432	26.911	1647.810	1346.683
62.447	26.918	1646.849	1345.831
63.461	27.084	1645.460	1345.801
64.476	27.001	1644.917	1344.624
65.490	26.903	1644.112	1343.121
66.505	26.951	1642.477	1342.026
67.520	26.953	1641.686	1341.276
68.534	27.033	1640.914	1341.116
69.549	26.966	1639.675	1339.489
70.563	27.018	1638.479	1338.781
71.578	27.027	1637.064	1337.569
72.593	27.004	1636.457	1336.789
73.607	26.941	1636.189	1335.985
74.622	26.949	1634.947	1334.914
75.636	26.871	1633.969	1333.421
76.651	27.024	1633.014	1333.648
77.666	26.957	1632.086	1332.278
78.680	27.024	1631.226	1331.954
79.695	27.011	1630.118	1330.836
80.709	27.035	1629.335	1330.252
81.724	26.928	1628.709	1328.841
82.739	27.027	1627.503	1328.465
83.753	27.015	1626.420	1327.374
84.768	27.041	1625.686	1326.845
85.782	26.990	1624.526	1325.414
86.797	26.950	1624.089	1324.644
87.812	27.001	1623.002	1324.015
88.826	27.012	1621.928	1323.097
89.841	26.967	1621.619	1322.404
90.855	27.016	1620.543	1321.762
91.870	26.973	1619.445	1320.439
92.884	27.043	1618.532	1320.084
93.899	27.104	1616.969	1319.138
94.914	27.058	1615.892	1317.806
95.928	27.021	1614.854	1316.581
96.943	27.039	1613.703	1315.655
97.957	26.946	1612.879	1314.190
98.972	27.006	1611.313	1313.230
99.987	27.082	1609.733	1312.376
101.001	26.959	1608.266	1310.176
102.016	26.977	1607.038	1309.191
103.030	26.944	1605.734	1307.779
104.045	26.928	1604.487	1306.532
105.060	26.987	1603.333	1305.901
106.074	26.978	1602.081	1304.701
107.089	26.973	1600.904	1303.592
108.103	27.107	1599.571	1303.353
109.118	27.077	1598.366	1302.041
110.133	27.103	1597.263	1301.209
111.147	27.144	1595.574	1300.016
112.162	27.017	1595.487	1298.919
113.176	27.113	1593.854	1298.159
114.191	27.124	1592.325	1296.880
115.206	27.078	1591.883	1296.076
116.220	27.037	1591.054	1294.992
117.235	27.098	1589.418	1293.983
118.249	26.994	1588.862	1292.675
119.264	27.085	1587.496	1292.097
120.279	27.036	1586.384	1290.725
121.293	27.144	1585.327	1290.520
122.308	27.135	1583.784	1289.085
123.322	27.111	1582.809	1288.005
124.337	27.103	1581.356	1286.654
125.352	27.090	1580.654	1285.878
126.366	27.168	1579.596	1285.459
127.381	27.105	1578.706	1284.170
128.395	27.092	1577.920	1283.328
129.410	27.189	1577.069	1283.207
130.424	27.240	1575.837	1282.453
131.439	27.236	1574.036	1280.843
132.454	27.186	1573.334	1279.809
133.468	27.267	1572.046	1279.218
134.483	27.103	1571.063	1277.152
135.497	27.138	1569.807	1276.258
136.512	27.195	1568.249	1275.281
137.527	27.143	1567.267	1274.005
138.541	27.161	1566.308	1273.238
139.556	27.146	1565.275	1272.183
140.570	27.106	1563.728	1270.533
141.585	27.179	1562.544	1269.966
142.600	27.181	1561.658	1269.150
143.614	27.120	1560.764	1267.883
144.629	27.154	1559.140	1266.690
145.643	27.185	1558.258	1266.077
146.658	27.173	1556.828	1264.723
147.673	27.071	1555.759	1263.028
148.687	27.068	1554.910	1262.208
149.702	27.211	1553.413	1261.876
150.716	27.128	1552.353	1260.330
151.731	27.052	1551.067	1258.648
152.746	27.168	1550.177	1258.614
153.760	27.223	1548.812	1257.778
154.775	27.171	1548.427	1256.995
155.789	27.239	1547.050	1256.232
156.804	27.156	1546.027	1254.717
157.819	27.138	1545.260	1253.863
158.833	27.134	1544.119	1252.793
159.848	27.143	1542.892	1251.751
160.862	27.217	1542.061	1251.478
161.877	27.151	1541.702	1250.619
162.892	27.170	1540.483	1249.649
163.906	27.295	1539.382	1249.502
164.921	27.220	1538.383	1248.068
165.935	27.235	1537.700	1247.505
166.950	27.308	1536.384	1246.832
167.964	27.340	1535.080	1245.879
168.979	27.234	1534.826	1244.840
169.994	27.235	1533.772	1243.878
171.008	27.319	1532.914	1243.645
172.023	27.339	1532.179	1243.076
173.037	27.362	1531.029	1242.191
174.052	27.314	1529.732	1240.705
175.067	27.280	1528.778	1239.590
176.081	27.304	1527.973	1238.988
177.096	27.373	1526.856	1238.442
178.110	27.288	1525.625	1236.754
179.125	27.297	1525.142	1236.315
180.140	27.258	1524.081	1235.080
181.154	27.337	1523.669	1235.178
182.169	27.365	1522.716	1234.487
183.183	27.379	1521.275	1233.303
184.198	27.401	1520.072	1232.369
185.213	27.321	1519.763	1231.465
186.227	27.372	1518.459	1230.643
187.242	27.389	1518.241	1230.476
188.256	27.482	1517.056	1230.034
189.271	27.369	1516.565	1228.762
190.286	27.412	1515.538	1228.109
191.300	27.403	1514.999	1227.507
192.315	27.430	1513.982	1226.755
193.329	27.413	1512.904	1225.657
194.344	27.367	1512.081	1224.571
195.359	27.403	1511.392	1224.147
196.373	27.401	1510.734	1223.495
197.388	27.329	1509.967	1222.281
198.402	27.327	1508.826	1221.236
199.417	27.417	1507.324	1220.516
200.432	27.358	1506.716	1219.524
201.446	27.430	1505.788	1219.145
202.461	27.421	1505.412	1218.671
203.475	27.371	1504.171	1217.223
204.490	27.392	1503.432	1216.660
205.504	27.454	1502.297	1216.047
206.519	27.382	1501.779	1215.040
207.534	27.475	1500.926	1214.865
208.548	27.492	1500.166	1214.251
209.563	27.481	1499.324	1213.388
210.577	27.459	1498.129	1212.169
211.592	27.429	1497.504	1211.360
212.607	27.479	1496.766	1210.986
213.621	27.517	1496.258	1210.722
214.636	27.494	1495.437	1209.799
215.650	27.584	1494.369	1209.422
216.665	27.549	1494.019	1208.802
217.680	27.518	1493.334	1207.934
218.694	27.546	1491.838	1206.801
219.709	27.563	1491.490	1206.522
220.723	27.496	1490.839	1205.448
221.738	27.555	1489.656	1204.776
222.753	27.508	1489.126	1203.927
223.767	27.393	1488.128	1202.259
224.782	27.494	1487.081	1201.971
225.796	27.635	1486.381	1202.225
226.811	27.594	1485.735	1201.328
227.826	27.659	1485.367	1201.353
228.840	27.607	1483.888	1199.711
229.855	27.558	1483.619	1199.062
230.869	27.543	1482.859	1198.244
231.884	27.578	1481.858	1197.562
232.899	27.661	1480.463	1196.869
233.913	27.556	1479.750	1195.498
234.928	27.525	1478.899	1194.500
235.942	27.561	1477.517	1193.516
236.957	27.647	1476.580	1193.217
237.972	27.685	1475.548	1192.526
238.986	27.560	1474.628	1190.858
240.001	27.694	1473.182	1190.462
241.015	27.683	1473.194	1190.292
242.030	27.719	1471.948	1189.414
243.045	27.759	1470.867	1188.698
244.059	27.746	1470.113	1187.897
245.074	27.687	1469.386	1186.825
246.088	27.773	1468.472	1186.539
247.103	27.868	1467.704	1186.433
248.117	27.813	1467.247	1185.596
249.132	27.758	1466.176	1184.271
250.147	27.748	1465.821	1183.815
251.161	27.764	1465.188	1183.303
252.176	27.880	1463.898	1182.906
253.190	27.835	1463.349	1182.066
254.205	27.827	1462.341	1181.097
255.220	27.890	1461.724	1180.901
256.234	27.917	1460.837	1180.256
257.249	27.808	1460.587	1179.244
258.263	27.972	1459.405	1179.244
259.278	27.881	1458.589	1177.897
260.293	27.850	1458.244	1177.313
261.307	27.867	1457.899	1177.036
262.322	27.852	1456.552	1175.750
263.336	27.964	1455.921	1175.860
264.351	27.993	1454.803	1175.036
265.366	27.962	1453.579	1173.747
266.380	27.964	1453.048	1173.225
267.395	27.887	1452.501	1172.184
268.409	27.959	1451.389	1171.643
269.424	27.874	1450.452	1170.245
270.439	27.845	1449.914	1169.518
271.453	27.969	1448.392	1168.979
272.468	27.883	1448.025	1168.031
273.482	27.891	1447.679	1167.701
274.497	28.009	1446.259	1167.206
275.512	27.957	1445.572	1166.216
276.526	27.973	1445.287	1165.981
277.541	28.170	1443.709	1165.861
278.555	28.052	1443.539	1164.869
279.570	27.982	1442.526	1163.503
280.585	28.064	1441.267	1162.910
281.599	28.100	1440.705	1162.582
282.614	28.026	1439.889	1161.348
283.628	27.933	1439.203	1160.101
284.643	28.011	1438.152	1159.645
285.657	28.025	1437.430	1159.051
286.672	28.151	1436.526	1159.021
287.687	28.039	1435.935	1157.732
288.701	28.088	1434.464	1156.752
289.716	28.103	1434.121	1156.467
290.730	28.003	1433.838	1155.502
291.745	28.168	1432.246	1155.160
292.760	28.217	1431.038	1154.394
293.774	28.200	1430.448	1153.708
294.789	28.228	1429.923	1153.360
295.803	28.178	1429.116	1152.293
296.818	28.151	1428.671	1151.662
297.833	28.228	1427.469	1151.072
298.847	28.267	1426.624	1150.533
299.862	28.241	1425.603	1149.448
300.876	28.277	1424.818	1148.937
301.891	28.159	1424.636	1147.952
302.906	28.204	1423.827	1147.479
303.920	28.181	1423.179	1146.710
304.935	28.311	1422.524	1146.895
305.949	28.322	1421.574	1146.099
306.964	28.259	1420.607	1144.821
307.979	28.292	1419.719	1144.210
308.993	28.266	1419.008	1143.376
310.008	28.298	1418.071	1142.720
311.022	28.285	1417.218	1141.848
312.037	28.320	1416.053	1141.027
313.052	28.373	1415.110	1140.496
314.066	28.467	1414.236	1140.276
315.081	28.335	1413.501	1138.760
316.095	28.372	1412.679	1138.230
317.110	28.388	1411.603	1137.362
318.125	28.302	1411.022	1136.257
319.139	28.358	1410.474	1136.062
320.154	28.503	1409.018	1135.685
321.168	28.439	1408.353	1134.652
322.183	28.429	1407.607	1133.891
323.197	28.400	1407.211	1133.295
324.212	28.469	1405.592	1132.315
325.227	28.568	1404.850	1132.229
326.241	28.488	1404.346	1131.226
327.256	28.586	1403.375	1130.948
328.270	28.573	1402.886	1130.378
329.285	28.511	1402.452	1129.543
330.300	28.539	1401.220	1128.624
331.314	28.577	1400.247	1127.976
332.329	28.473	1399.831	1126.899
333.343	28.531	1399.140	1126.597
334.358	28.538	1398.605	1126.113
335.373	28.541	1397.763	1125.355
336.387	28.589	1397.189	1125.085
337.402	28.663	1396.076	1124.543
338.416	28.664	1395.614	1124.077
339.431	28.692	1395.234	1123.843
340.446	28.635	1394.667	1122.939
341.460	28.669	1393.219	1121.883
342.475	28.754	1392.274	1121.541
343.489	28.765	1391.577	1120.946
344.504	28.795	1390.755	1120.366
345.519	28.723	1390.132	1119.330
346.533	28.747	1389.036	1118.496
347.548	28.752	1388.120	1117.690
348.562	28.810	1387.378	1117.342
349.577	28.758	1386.697	1116.382
350.592	28.787	1386.324	1116.161
351.606	28.734	1385.443	1115.027
352.621	28.667	1383.983	1113.347
353.635	28.821	1383.102	1113.473
354.650	28.821	1382.448	1112.849
355.665	28.769	1381.869	1111.967
356.679	28.815	1380.912	1111.377
357.694	28.838	1379.548	1110.321
358.708	28.883	1378.519	1109.665
359.723	28.921	1377.208	1108.741
360.738	28.772	1376.563	1107.227
361.752	28.847	1375.250	1106.528
362.767	28.866	1374.298	1105.775
363.781	28.827	1373.854	1105.085
364.796	28.918	1372.935	1104.793
365.810	28.989	1371.718	1104.142
366.825	29.000	1371.500	1103.935
367.840	28.986	1370.855	1103.238
368.854	29.031	1370.028	1102.744
369.869	29.115	1369.718	1102.897
370.883	28.932	1369.535	1101.559
371.898	28.998	1368.609	1101.112
372.913	29.025	1367.914	1100.615
373.927	29.051	1366.558	1099.581
374.942	28.999	1366.198	1098.886
375.956	29.073	1365.340	1098.537
376.971	29.039	1364.491	1097.555
377.986	29.124	1363.380	1097.073
379.000	29.075	1363.058	1096.424
380.015	29.067	1362.571	1095.887
381.029	29.164	1361.692	1095.661
382.044	29.135	1360.993	1094.829
383.059	29.166	1360.144	1094.235
384.073	29.208	1359.646	1093.986
385.088	29.124	1359.495	1093.269
386.102	29.203	1358.495	1092.834
387.117	29.232	1357.615	1092.202
388.132	29.223	1357.161	1091.687
389.146	29.125	1356.786	1090.711
390.161	29.172	1355.843	1090.131
391.175	29.231	1355.096	1089.783
392.190	29.265	1354.386	1089.320
393.205	29.298	1353.446	1088.660
394.219	29.294	1352.257	1087.582
395.234	29.237	1351.783	1086.773
396.248	29.178	1351.029	1085.720
397.263	29.212	1349.853	1084.882
398.278	29.375	1348.299	1084.493
399.292	29.364	1347.546	1083.730
400.307	29.401	1346.520	1083.025
401.321	29.452	1345.871	1082.706
402.336	29.407	1345.251	1081.846
403.350	29.338	1343.972	1080.318
404.365	29.265	1343.235	1079.205
405.380	29.429	1342.131	1079.180
406.394	29.354	1342.072	1078.596
407.409	29.458	1340.843	1078.121
408.423	29.550	1340.264	1078.100
409.438	29.561	1339.628	1077.553
410.453	29.506	1338.924	1076.573
411.467	29.487	1338.335	1075.894
412.482	29.528	1338.164	1075.898
413.496	29.510	1336.886	1074.674
414.511	29.530	1336.243	1074.177
415.526	29.627	1335.400	1073.970
416.540	29.531	1334.836	1072.859
417.555	29.553	1334.343	1072.501
418.569	29.555	1333.879	1072.043
419.584	29.524	1333.202	1071.222
420.599	29.573	1332.772	1071.068
421.613	95.161	1351.436	1454.084
422.628	94.667	1354.118	1454.204
