DTS Sentinel unit serial number:	SN413079Multiplexer serial number:	ORYXHardware model number:	OX4-SRSoftware version number:	ORYX F/W v4.00 Oryx Data Collector v3.7.2.0data status	okinstallation	princeton_trtdifferential loss correction	single-endedforward channel	channel 4reverse channel	N/Adate	2019/09/10time	21:59:11forward acquisition time	60.00reverse acquisition time	0.00gamma	496.2192k internal	0.2314k external	0.2314temperature offset calibration	0.9946default loss term (dB/km)	0.3790temperature slope calibration	1.0000multiplexer offset coefficient	1.0000multiplexer slope coefficient	1.0000fibre end	0.00T internal ref (°C)	30.70T ext. ref 1 (°C)	-0.29T ext. ref 2 (°C)	24.03length (m)	temperature (°C)	Stokes	anti-Stokes-747.200	43.449	0.111	-0.103
-746.185	-200.000	0.014	-0.183
-745.171	49.360	-0.185	-0.177
-744.156	-87.791	0.128	0.039
-743.142	146.749	-0.147	0.201
-742.127	612.800	-0.022	0.057
-741.112	-93.979	0.323	0.090
-740.098	-56.582	-0.366	0.164
-739.083	261.456	0.110	-0.193
-738.069	-189.399	-0.346	-0.004
-737.054	39.509	-0.099	-0.090
-736.039	18.486	0.136	-0.110
-735.025	-106.557	0.420	0.095
-734.010	125.012	0.092	-0.117
-732.996	26.626	0.232	-0.196
-731.981	25.028	-0.086	-0.073
-730.966	260.759	-0.050	0.087
-729.952	-200.000	0.013	0.283
-728.937	-105.730	-0.040	0.009
-727.923	-200.000	-0.040	0.200
-726.908	800.000	-0.089	0.252
-725.894	211.011	-0.108	-0.172
-724.879	600.399	0.038	-0.095
-723.864	-121.212	0.170	0.029
-722.850	-38.116	-0.098	-0.053
-721.835	-167.139	-0.088	0.004
-720.821	800.000	-0.057	0.168
-719.806	193.213	0.147	-0.226
-718.791	-200.000	-0.026	0.153
-717.777	258.431	-0.199	0.347
-716.762	-114.297	-0.264	0.052
-715.748	-123.225	0.286	-0.046
-714.733	146.416	-0.103	0.140
-713.718	-155.984	-0.173	-0.011
-712.704	800.000	0.081	-0.346
-711.689	-34.041	0.245	-0.137
-710.675	25.123	0.123	0.103
-709.660	-91.811	-0.251	0.072
-708.645	611.490	0.166	-0.419
-707.631	-200.000	0.018	-0.133
-706.616	-65.528	0.022	0.009
-705.602	-37.489	0.139	0.075
-704.587	320.628	0.132	-0.253
-703.572	298.086	-0.125	0.233
-702.558	-21.763	-0.154	-0.095
-701.543	28.209	0.129	-0.111
-700.529	-129.210	-0.059	0.008
-699.514	-29.567	-0.288	-0.167
-698.499	140.765	0.104	-0.138
-697.485	-53.475	0.359	-0.166
-696.470	-43.826	0.107	-0.055
-695.456	-84.467	0.451	-0.144
-694.441	167.423	-0.105	-0.151
-693.426	-18.797	-0.146	0.092
-692.412	-118.338	0.098	0.018
-691.397	679.476	0.047	0.123
-690.383	-137.162	0.168	-0.019
-689.368	356.071	-0.045	0.090
-688.354	113.193	0.196	0.240
-687.339	12.360	0.149	0.116
-686.324	418.994	0.075	0.162
-685.310	-19.088	0.188	0.118
-684.295	800.000	-0.086	-0.336
-683.281	115.759	-0.185	-0.229
-682.266	-35.934	0.386	0.211
-681.251	-95.480	0.371	-0.101
-680.237	-200.000	0.006	0.029
-679.222	800.000	-0.059	-0.250
-678.208	-91.471	0.175	-0.050
-677.193	514.868	-0.142	0.334
-676.178	-27.586	-0.248	0.146
-675.164	-25.506	-0.153	-0.091
-674.149	174.523	0.120	-0.176
-673.135	-135.913	0.123	0.015
-672.120	-38.299	-0.003	0.002
-671.105	-200.000	-0.012	-0.084
-670.091	-99.078	-0.101	-0.026
-669.076	50.397	0.176	-0.168
-668.062	-200.000	-0.221	-0.001
-667.047	254.221	0.144	0.250
-666.032	-31.587	-0.216	0.122
-665.018	86.432	0.181	0.201
-664.003	-84.526	0.339	0.108
-662.989	66.546	-0.120	-0.123
-661.974	-141.867	0.275	0.028
-660.959	-200.000	-0.016	-0.129
-659.945	140.084	0.069	-0.092
-658.930	800.000	0.055	0.188
-657.916	-200.000	-0.005	0.305
-656.901	-115.942	0.407	-0.077
-655.886	-50.017	-0.107	-0.051
-654.872	-101.818	0.206	-0.050
-653.857	800.000	0.056	0.194
-652.843	-39.229	0.261	0.138
-651.828	73.677	-0.071	-0.075
-650.814	-23.339	-0.287	-0.174
-649.799	143.843	-0.128	-0.172
-648.784	-118.752	-0.147	-0.026
-647.770	-152.849	0.316	-0.023
-646.755	-121.053	-0.085	-0.014
-645.741	-25.038	0.075	-0.045
-644.726	-22.780	-0.211	-0.129
-643.711	792.952	0.035	0.096
-642.697	13.715	-0.218	0.171
-641.682	53.701	-0.150	0.145
-640.668	-190.086	0.220	-0.002
-639.653	-31.988	0.226	0.128
-638.638	-104.192	0.269	-0.063
-637.624	-200.000	-0.014	-0.227
-636.609	3.443	-0.140	-0.103
-635.595	724.362	-0.136	-0.365
-634.580	-200.000	0.028	-0.132
-633.565	-166.893	-0.313	-0.013
-632.551	-200.000	-0.030	0.141
-631.536	61.108	0.144	-0.144
-630.522	197.087	-0.129	0.198
-629.507	-73.657	-0.106	0.039
-628.492	43.979	0.162	0.150
-627.478	21.415	0.111	-0.091
-626.463	299.512	-0.063	0.117
-625.449	-200.000	0.016	-0.146
-624.434	-200.000	0.004	-0.402
-623.419	-121.787	0.300	-0.050
-622.405	103.487	0.271	-0.320
-621.390	-40.706	-0.115	-0.060
-620.376	-200.000	-0.003	-0.050
-619.361	125.974	-0.206	-0.263
-618.346	-200.000	-0.045	-0.382
-617.332	-41.639	0.120	0.062
-616.317	-25.306	-0.152	-0.090
-615.303	-200.000	0.001	-0.185
-614.288	80.782	-0.311	-0.338
-613.273	-200.000	-0.010	0.044
-612.259	800.000	-0.059	-0.205
-611.244	-166.932	0.339	0.014
-610.230	-200.000	-0.377	0.001
-609.215	-189.147	-0.290	-0.003
-608.201	-88.294	0.244	-0.074
-607.186	-59.821	-0.207	-0.089
-606.171	245.897	0.039	-0.065
-605.157	-9.199	0.097	-0.065
-604.142	-26.621	0.235	0.139
-603.128	-105.897	-0.389	-0.088
-602.113	800.000	0.048	-0.208
-601.098	288.369	0.126	-0.230
-600.084	800.000	0.044	-0.162
-599.069	800.000	-0.044	0.150
-598.055	-42.713	-0.089	0.045
-597.040	214.541	-0.123	-0.196
-596.025	-55.451	-0.228	0.103
-595.011	247.457	0.074	-0.125
-593.996	110.049	-0.211	-0.255
-592.982	-11.616	0.169	0.112
-591.967	-200.000	-0.062	0.424
-590.952	-85.977	0.048	-0.015
-589.938	130.542	0.145	-0.188
-588.923	800.000	-0.108	0.303
-587.909	565.333	0.134	0.328
-586.894	-170.233	-0.127	0.005
-585.879	22.043	-0.243	0.199
-584.865	696.259	0.003	0.008
-583.850	-200.000	0.007	0.428
-582.836	625.957	0.033	0.085
-581.821	-200.000	0.013	0.057
-580.806	-200.000	-0.028	-0.132
-579.792	13.071	0.073	-0.057
-578.777	-200.000	0.057	0.283
-577.763	256.703	0.252	-0.436
-576.748	-52.231	0.330	-0.154
-575.733	192.949	0.113	-0.172
-574.719	116.417	-0.161	0.199
-573.704	150.697	0.075	-0.103
-572.690	-164.487	0.186	-0.009
-571.675	13.383	0.268	0.209
-570.661	-104.835	-0.260	-0.060
-569.646	-64.081	-0.148	0.061
-568.631	-42.572	-0.369	0.189
-567.617	800.000	0.062	-0.229
-566.602	68.813	-0.359	-0.371
-565.588	394.744	0.108	-0.227
-564.573	6.692	-0.206	0.154
-563.558	-3.665	-0.317	0.222
-562.544	149.186	0.169	0.230
-561.529	-42.904	-0.046	-0.023
-560.515	-200.000	-0.030	-0.441
-559.500	-200.000	-0.018	0.081
-558.485	-22.973	-0.243	-0.147
-557.471	-46.824	0.237	0.117
-556.456	800.000	-0.048	-0.139
-555.442	302.732	0.189	-0.353
-554.427	234.624	-0.114	-0.189
-553.412	-81.340	-0.229	0.076
-552.398	12.528	-0.214	0.166
-551.383	800.000	0.060	0.188
-550.369	-125.437	-0.088	-0.013
-549.354	-17.229	-0.207	0.131
-548.339	-92.928	0.206	-0.058
-547.325	-136.080	0.147	-0.017
-546.310	-73.322	0.196	0.072
-545.296	200.984	0.079	-0.123
-544.281	70.783	0.047	0.049
-543.266	62.980	0.241	-0.242
-542.252	-200.000	0.004	0.192
-541.237	-200.000	0.002	-0.030
-540.223	-104.742	-0.115	-0.027
-539.208	800.000	-0.077	0.258
-538.193	-46.239	0.188	-0.093
-537.179	-109.664	0.214	-0.045
-536.164	158.493	-0.174	-0.242
-535.150	723.039	-0.090	0.241
-534.135	156.714	-0.048	0.066
-533.121	-138.135	-0.143	0.016
-532.106	141.547	0.154	-0.205
-531.091	420.455	0.081	0.175
-530.077	281.197	0.036	0.064
-529.062	-56.254	0.247	0.111
-528.048	-18.360	0.293	-0.184
-527.033	800.000	-0.098	-0.291
-526.018	377.210	0.038	-0.077
-525.004	800.000	-0.093	-0.299
-523.989	143.528	-0.034	0.045
-522.975	-200.000	0.009	0.097
-521.960	241.236	-0.182	-0.305
-520.945	-52.834	0.286	0.133
-519.931	88.968	-0.048	-0.053
-518.916	-41.489	0.139	-0.072
-517.902	-103.209	-0.182	-0.043
-516.887	-36.324	-0.248	0.134
-515.872	-68.661	-0.233	-0.091
-514.858	327.103	0.097	0.187
-513.843	-17.024	-0.176	-0.112
-512.829	20.197	0.205	-0.167
-511.814	222.405	0.101	-0.163
-510.799	47.212	-0.409	-0.383
-509.785	18.731	0.223	-0.179
-508.770	-117.134	0.368	0.067
-507.756	-74.212	0.363	-0.132
-506.741	-117.940	0.152	-0.027
-505.726	-200.000	-0.003	0.111
-504.712	-70.492	0.280	0.106
-503.697	-200.000	-0.294	0.001
-502.683	800.000	0.077	0.265
-501.668	-200.000	-0.022	-0.127
-500.653	800.000	-0.013	-0.055
-499.639	-54.080	-0.178	-0.081
-498.624	-127.584	-0.350	0.051
-497.610	787.469	-0.065	-0.179
-496.595	80.256	0.143	-0.154
-495.581	-200.000	0.004	-0.064
-494.566	24.823	0.210	-0.175
-493.551	-56.834	-0.251	0.111
-492.537	88.505	0.053	0.059
-491.522	134.929	-0.128	-0.166
-490.508	-42.550	0.301	-0.154
-489.493	401.611	0.145	0.306
-488.478	81.202	-0.234	-0.253
-487.464	11.423	0.178	0.137
-486.449	800.000	-0.056	-0.241
-485.435	10.697	0.251	-0.192
-484.420	-200.000	-0.015	0.289
-483.405	111.936	0.129	0.156
-482.391	250.723	-0.035	-0.060
-481.376	-86.022	0.238	0.074
-480.362	-80.304	-0.348	-0.117
-479.347	-200.000	-0.003	-0.027
-478.332	-80.284	0.199	0.067
-477.318	-22.623	0.332	-0.201
-476.303	-200.000	0.010	-0.439
-475.289	-115.740	-0.357	0.067
-474.274	-0.516	-0.280	-0.200
-473.259	-200.000	-0.068	-0.317
-472.245	15.804	0.067	-0.053
-471.230	-91.735	0.248	0.071
-470.216	45.294	0.093	0.086
-469.201	-112.363	0.378	-0.076
-468.186	800.000	0.063	0.180
-467.172	-200.000	0.026	-0.122
-466.157	-127.481	-0.136	-0.020
-465.143	-200.000	0.017	-0.204
-464.128	-103.304	-0.118	-0.028
-463.113	-200.000	0.008	0.122
-462.099	-119.462	-0.326	0.057
-461.084	10.345	-0.078	0.060
-460.070	-88.432	-0.256	-0.077
-459.055	-200.000	-0.000	0.213
-458.040	27.244	-0.143	-0.120
-457.026	-35.535	-0.162	-0.088
-456.011	-200.000	-0.023	0.227
-454.997	-140.555	-0.112	0.012
-453.982	-200.000	0.066	-0.407
-452.968	-131.404	0.167	0.022
-451.953	-200.000	0.002	0.268
-450.938	118.372	0.096	0.118
-449.924	145.319	-0.086	-0.115
-448.909	-200.000	0.036	-0.445
-447.895	-200.000	0.037	-0.364
-446.880	-147.427	0.256	-0.022
-445.865	-31.571	-0.177	0.100
-444.851	-200.000	0.008	0.247
-443.836	-91.009	0.045	-0.013
-442.822	-30.671	0.182	0.103
-441.807	61.983	0.114	0.114
-440.792	-36.536	0.264	0.142
-439.778	74.541	0.120	-0.127
-438.763	-52.857	-0.080	-0.037
-437.749	-157.716	-0.603	0.036
-436.734	4.651	0.269	0.198
-435.719	-198.880	0.099	-0.001
-434.705	6.952	-0.166	-0.124
-433.690	-169.761	0.155	-0.006
-432.676	-142.721	-0.174	-0.017
-431.661	-15.404	0.408	-0.261
-430.646	-77.248	-0.030	0.010
-429.632	-45.524	-0.223	-0.111
-428.617	800.000	0.032	-0.096
-427.603	-200.000	-0.059	0.418
-426.588	-109.755	-0.204	0.043
-425.573	800.000	0.058	0.191
-424.559	140.550	-0.093	0.123
-423.544	-28.756	-0.291	0.167
-422.530	-200.000	0.009	0.092
-421.515	800.000	-0.051	0.149
-420.500	-65.942	-0.201	0.080
-419.486	102.842	0.196	0.230
-418.471	-67.333	0.275	0.108
-417.457	-200.000	0.040	-0.265
-416.442	138.647	0.187	-0.245
-415.428	-79.726	-0.098	0.033
-414.413	16.193	-0.296	-0.233
-413.398	-149.957	0.303	0.024
-412.384	-200.000	-0.013	0.308
-411.369	800.000	0.056	-0.236
-410.355	-56.252	0.048	-0.021
-409.340	-200.000	-0.066	-0.357
-408.325	-188.807	0.188	-0.002
-407.311	-52.023	0.356	0.165
-406.296	-12.957	-0.360	0.234
-405.282	-200.000	-0.013	0.177
-404.267	-148.655	-0.105	0.009
-403.252	-200.000	0.027	-0.144
-402.238	800.000	0.201	-0.586
-401.223	174.250	0.165	-0.238
-400.209	11.525	-0.169	0.130
-399.194	104.460	-0.282	0.332
-398.179	245.003	0.106	-0.178
-397.165	10.960	0.090	-0.069
-396.150	-47.587	-0.233	0.113
-395.136	258.811	-0.168	0.289
-394.121	-104.019	0.333	-0.078
-393.106	800.000	0.035	-0.152
-392.092	230.264	0.037	-0.061
-391.077	19.645	-0.210	0.169
-390.063	-33.392	-0.210	-0.116
-389.048	800.000	0.098	0.314
-388.033	314.447	0.074	-0.139
-387.019	-51.761	0.079	0.037
-386.004	-50.748	-0.099	0.047
-384.990	-200.000	-0.084	-0.377
-383.975	-200.000	0.032	0.396
-382.960	503.470	0.230	0.532
-381.946	-21.095	-0.104	0.063
-380.931	-46.226	-0.100	-0.049
-379.917	-200.000	0.136	0.000
-378.902	-11.486	-0.252	-0.166
-377.888	-111.858	0.214	-0.043
-376.873	-200.000	-0.025	0.253
-375.858	-95.737	-0.237	0.063
-374.844	-200.000	-0.008	-0.102
-373.829	209.004	-0.150	-0.234
-372.815	-66.569	-0.195	0.077
-371.800	434.651	-0.090	-0.195
-370.785	615.837	-0.125	0.314
-369.771	-105.140	0.081	0.018
-368.756	123.501	-0.287	0.360
-367.742	419.309	0.135	-0.290
-366.727	205.998	-0.036	0.056
-365.712	800.000	0.020	-0.064
-364.698	746.285	0.091	0.245
-363.683	348.044	-0.135	-0.265
-362.669	-18.310	0.245	-0.153
-361.654	117.529	-0.107	-0.132
-360.639	89.654	0.113	-0.126
-359.625	-54.671	-0.121	0.055
-358.610	540.073	0.188	0.446
-357.596	-93.550	-0.455	0.125
-356.581	366.400	-0.047	0.094
-355.566	136.748	-0.066	0.086
-354.552	-43.679	-0.225	-0.113
-353.537	-143.632	0.088	-0.008
-352.523	-41.496	0.218	-0.112
-351.508	12.393	-0.303	-0.233
-350.493	59.618	-0.136	0.134
-349.479	-16.018	0.020	-0.012
-348.464	-200.000	0.010	0.205
-347.450	268.554	0.152	0.266
-346.435	255.930	0.112	-0.192
-345.420	-80.755	0.199	0.066
-344.406	-116.852	0.193	0.035
-343.391	24.587	-0.238	-0.196
-342.377	101.374	-0.238	0.276
-341.362	-147.224	0.284	0.024
-340.348	55.478	0.095	-0.092
-339.333	-200.000	0.028	0.249
-338.318	-102.301	-0.120	0.029
-337.304	-39.973	-0.284	-0.148
-336.289	-158.020	0.062	0.004
-335.275	-5.889	0.147	0.100
-334.260	21.227	0.041	0.033
-333.245	376.719	0.132	0.268
-332.231	8.808	0.073	0.055
-331.216	-42.394	-0.155	0.079
-330.202	40.770	-0.090	-0.081
-329.187	800.000	0.064	0.274
-328.172	-84.521	0.124	-0.039
-327.158	-7.273	-0.227	0.154
-326.143	-31.872	-0.161	0.090
-325.129	35.865	0.163	0.143
-324.114	800.000	0.039	0.116
-323.099	-83.368	-0.339	0.108
-322.085	-105.554	0.075	-0.017
-321.070	160.585	-0.071	-0.099
-320.056	26.495	-0.188	0.157
-319.041	-100.325	0.344	0.085
-318.026	-17.808	-0.186	0.116
-317.012	104.005	0.213	0.250
-315.997	644.146	-0.211	0.538
-314.983	-200.000	0.015	0.130
-313.968	-47.410	0.146	0.071
-312.953	789.974	-0.009	0.023
-311.939	112.425	-0.155	-0.187
-310.924	-14.400	0.070	0.045
-309.910	6.938	0.155	0.115
-308.895	-23.445	0.042	-0.025
-307.880	217.859	-0.114	-0.181
-306.866	-71.894	0.111	0.041
-305.851	-114.138	-0.319	0.061
-304.837	122.499	-0.063	0.079
-303.822	74.766	0.132	-0.138
-302.807	424.368	-0.152	0.325
-301.793	102.449	-0.140	0.163
-300.778	-200.000	0.036	0.181
-299.764	-171.834	-0.134	0.004
-298.749	-96.715	0.430	0.113
-297.735	-48.732	0.089	-0.043
-296.720	-200.000	0.013	0.237
-295.705	-200.000	0.036	0.226
-294.691	286.387	0.145	0.261
-293.676	61.321	0.085	-0.084
-292.662	-69.869	-0.128	-0.049
-291.647	-10.541	-0.083	0.055
-290.632	-71.927	-0.243	0.090
-289.618	-83.815	0.203	0.064
-288.603	-200.000	-0.034	0.253
-287.589	318.680	0.142	0.268
-286.574	374.549	0.104	-0.211
-285.559	-53.072	-0.077	-0.035
-284.545	12.504	0.123	-0.095
-283.530	101.966	0.076	0.088
-282.516	268.742	0.057	-0.099
-281.501	-93.893	0.172	-0.047
-280.486	-75.068	0.214	0.076
-279.472	3.278	-0.133	0.096
-278.457	21.905	0.140	0.114
-277.443	-200.000	0.010	-0.072
-276.428	-130.558	-0.144	0.019
-275.413	-94.123	-0.044	0.012
-274.399	529.643	-0.032	-0.074
-273.384	-200.000	-0.013	-0.093
-272.370	-116.438	0.240	-0.044
-271.355	49.943	0.174	0.164
-270.340	-85.113	-0.269	0.084
-269.326	-200.000	0.028	0.216
-268.311	-35.085	0.119	0.064
-267.297	10.596	0.225	-0.170
-266.282	-26.031	0.187	0.109
-265.267	-86.579	0.092	0.028
-264.253	-101.414	0.192	0.047
-263.238	327.615	0.190	0.363
-262.224	109.203	-0.043	-0.051
-261.209	95.860	0.109	-0.124
-260.195	-33.803	0.166	-0.091
-259.180	123.678	-0.017	-0.022
-258.165	-19.915	0.183	0.112
-257.151	255.236	-0.234	-0.399
-256.136	-87.030	0.148	-0.045
-255.122	299.350	-0.114	-0.209
-254.107	-131.916	-0.059	-0.008
-253.092	-18.958	-0.070	-0.043
-252.078	-107.124	0.088	0.019
-251.063	7.461	-0.243	-0.181
-250.049	-59.868	0.046	-0.020
-249.034	267.920	-0.025	-0.043
-248.019	260.052	-0.114	-0.196
-247.005	-25.234	0.143	0.084
-245.990	7.631	0.174	0.129
-244.976	66.660	0.095	-0.096
-243.961	-87.198	-0.217	-0.066
-242.946	-73.300	-0.252	-0.092
-241.932	799.236	-0.077	-0.210
-240.917	-200.000	0.040	-0.248
-239.903	800.000	0.047	-0.175
-238.888	440.266	0.081	0.177
-237.873	-123.710	-0.290	0.046
-236.859	286.076	0.042	-0.075
-235.844	107.685	-0.089	-0.105
-234.830	698.582	-0.127	-0.331
-233.815	-200.000	0.238	0.000
-232.800	-177.186	-0.068	0.002
-231.786	-54.639	0.065	-0.029
-230.771	379.647	-0.061	-0.124
-229.757	87.314	-0.378	0.416
-228.742	252.780	0.126	-0.213
-227.727	40.994	-0.194	0.174
-226.713	285.456	0.042	0.076
-225.698	800.000	-0.079	-0.337
-224.684	-200.000	-0.026	0.181
-223.669	-62.470	0.256	0.106
-222.655	84.474	-0.225	-0.244
-221.640	-126.671	-0.248	-0.036
-220.625	-57.025	-0.211	-0.092
-219.611	457.939	-0.035	-0.078
-218.596	-122.293	-0.142	-0.023
-217.582	138.068	-0.176	0.229
-216.567	146.536	-0.109	-0.146
-215.552	-86.662	0.426	-0.129
-214.538	-4.155	-0.092	0.063
-213.523	123.482	-0.116	0.144
-212.509	-57.283	0.287	0.125
-211.494	-66.937	0.133	0.052
-210.479	-41.346	0.183	0.094
-209.465	-200.000	0.025	0.379
-208.450	-159.526	0.034	-0.002
-207.436	308.570	-0.025	-0.046
-206.421	649.614	-0.128	0.325
-205.406	57.211	-0.117	0.114
-204.392	-19.332	-0.265	0.163
-203.377	22.944	-0.061	0.050
-202.363	180.355	-0.061	-0.089
-201.348	-62.819	-0.291	0.120
-200.333	800.000	0.047	-0.134
-199.319	-200.000	-0.007	0.091
-198.304	-30.337	-0.071	-0.040
-197.290	800.000	-0.047	0.164
-196.275	61.945	0.201	0.198
-195.260	-33.274	0.332	-0.182
-194.246	274.291	0.043	0.075
-193.231	-163.398	0.193	0.009
-192.217	800.000	0.122	-0.418
-191.202	-167.334	0.072	-0.003
-190.187	322.534	-0.149	0.281
-189.173	699.508	0.043	0.111
-188.158	58.725	0.175	0.170
-187.144	-200.000	-0.030	-0.453
-186.129	800.000	0.110	-0.306
-185.114	246.327	0.089	0.149
-184.100	37.232	0.253	0.222
-183.085	-70.458	0.366	0.138
-182.071	-34.754	0.030	-0.016
-181.056	-200.000	-0.025	0.281
-180.042	-37.558	0.386	0.204
-179.027	-200.000	0.035	0.237
-178.012	-0.083	0.115	-0.081
-176.998	-200.000	-0.015	0.140
-175.983	221.611	0.063	0.100
-174.969	82.196	-0.055	0.060
-173.954	248.035	-0.100	0.167
-172.939	-70.728	-0.199	-0.075
-171.925	17.183	0.234	-0.184
-170.910	-22.080	0.032	-0.020
-169.896	-15.110	-0.285	0.181
-168.881	800.000	-0.013	-0.056
-167.866	-200.000	-0.020	-0.151
-166.852	-9.180	-0.118	0.078
-165.837	270.942	0.213	-0.372
-164.823	12.345	0.169	0.129
-163.808	140.199	0.130	0.170
-162.793	-38.925	-0.117	-0.061
-161.779	-200.000	-0.058	-0.310
-160.764	-51.223	0.269	0.125
-159.750	151.424	0.063	0.085
-158.735	-114.676	0.014	-0.003
-157.720	42.867	-0.107	0.097
-156.706	-200.000	-0.004	0.383
-155.691	418.344	0.022	0.046
-154.677	11.388	-0.263	-0.199
-153.662	409.047	-0.062	0.129
-152.647	-10.044	-0.257	-0.169
-151.633	-200.000	-0.039	-0.190
-150.618	-53.936	-0.098	-0.044
-149.604	539.360	-0.079	-0.186
-148.589	-66.066	-0.120	-0.047
-147.574	-147.818	0.210	0.017
-146.560	70.763	-0.332	0.340
-145.545	61.720	0.253	0.250
-144.531	-119.882	0.158	-0.027
-143.516	721.205	0.069	-0.182
-142.502	-200.000	-0.053	-0.231
-141.487	171.986	-0.081	0.115
-140.472	193.514	-0.126	-0.189
-139.458	-164.945	0.120	-0.005
-138.443	280.256	-0.083	-0.146
-137.429	144.946	0.025	-0.033
-136.414	-149.267	0.356	-0.028
-135.399	596.627	0.077	-0.188
-134.385	-162.156	0.133	0.007
-133.370	-200.000	0.030	0.218
-132.356	-47.090	0.007	-0.003
-131.341	-117.110	0.137	0.025
-130.326	-177.388	0.357	0.009
-129.312	-25.598	-0.257	-0.150
-128.297	385.935	0.026	-0.054
-127.283	800.000	-0.060	-0.218
-126.268	230.802	-0.123	-0.199
-125.253	-60.320	0.205	-0.086
-124.239	-27.220	0.156	-0.090
-123.224	-29.584	-0.090	-0.051
-122.210	800.000	0.022	-0.084
-121.195	398.359	0.056	0.115
-120.180	-139.932	-0.096	-0.010
-119.166	800.000	0.038	-0.111
-118.151	-76.876	-0.047	-0.016
-117.137	-21.593	0.108	0.065
-116.122	366.685	-0.183	-0.364
-115.107	-121.277	-0.204	-0.034
-114.093	-200.000	-0.020	-0.203
-113.078	336.864	0.120	0.230
-112.064	800.000	-0.107	-0.354
-111.049	68.528	-0.040	0.041
-110.034	164.655	0.154	-0.215
-109.020	-200.000	0.014	-0.248
-108.005	-59.278	-0.131	0.056
-106.991	-64.784	-0.139	0.056
-105.976	-200.000	0.061	0.412
-104.962	-34.868	-0.117	-0.063
-103.947	461.489	0.003	0.006
-102.932	-18.041	0.287	0.178
-101.918	-68.379	0.165	0.063
-100.903	-27.536	-0.241	0.138
-99.889	-200.000	0.025	-0.129
-98.874	7.441	0.175	-0.129
-97.859	-159.851	0.343	0.019
-96.845	234.764	0.216	0.352
-95.830	265.724	0.077	0.132
-94.816	-200.000	0.032	-0.454
-93.801	-8.266	0.108	0.072
-92.786	-32.220	0.248	-0.137
-91.772	-44.695	-0.139	0.068
-90.757	-46.213	-0.157	-0.076
-89.743	-6.070	-0.122	-0.082
-88.728	-123.351	0.109	0.017
-87.713	-200.000	-0.005	0.300
-86.699	-82.650	-0.091	-0.029
-85.684	129.552	-0.148	-0.186
-84.670	-200.000	0.016	-0.266
-83.655	-70.421	-0.069	0.026
-82.640	800.000	0.211	0.756
-81.626	189.695	-0.006	-0.010
-80.611	341.365	0.045	-0.087
-79.597	-32.493	0.201	0.111
-78.582	800.000	0.032	-0.094
-77.567	-200.000	0.003	-0.104
-76.553	-4.026	-0.298	-0.204
-75.538	-200.000	0.013	-0.061
-74.524	156.436	-0.052	-0.070
-73.509	-104.264	-0.199	-0.045
-72.494	154.175	0.184	0.249
-71.480	-116.633	-0.295	-0.054
-70.465	-127.217	0.161	-0.023
-69.451	240.414	0.148	0.244
-68.436	597.306	0.154	-0.377
-67.422	-86.493	0.075	-0.023
-66.407	-200.000	-0.061	0.433
-65.392	-146.777	0.098	-0.008
-64.378	35.243	0.253	-0.219
-63.363	-200.000	-0.058	0.450
-62.349	-200.000	-0.048	0.208
-61.334	-39.660	-1.159	-0.598
-60.319	6.935	0.673	0.495
-59.305	-200.000	-0.181	-1.224
-58.290	800.000	0.374	1.171
-57.276	236.727	0.818	1.337
-56.261	-200.000	101.036	610.372
-55.246	524.365	1447.124	3358.217
-54.232	181.132	2651.761	3845.520
-53.217	104.519	2313.642	2688.229
-52.203	37.253	2063.094	1803.081
-51.188	32.442	1976.167	1684.115
-50.173	30.957	1957.112	1654.644
-49.159	46.603	2011.299	1841.720
-48.144	47.424	2028.646	1864.922
-47.130	33.108	1988.289	1700.178
-46.115	30.686	1978.135	1669.716
-45.100	30.543	1975.303	1665.976
-44.086	30.646	1972.275	1664.282
-43.071	30.550	1970.160	1661.573
-42.057	30.529	1968.190	1659.656
-41.042	30.493	1966.270	1657.651
-40.027	30.516	1965.010	1656.729
-39.013	30.623	1962.157	1655.210
-37.998	30.623	1960.484	1653.738
-36.984	30.602	1958.825	1652.078
-35.969	30.666	1956.517	1650.634
-34.954	30.680	1954.857	1649.292
-33.940	30.660	1953.821	1648.182
-32.925	30.726	1952.226	1647.354
-31.911	30.704	1950.806	1645.893
-30.896	30.731	1948.684	1644.278
-29.881	30.649	1947.396	1642.400
-28.867	30.668	1946.470	1641.722
-27.852	30.725	1943.580	1639.724
-26.838	30.812	1941.968	1639.067
-25.823	30.761	1940.394	1637.217
-24.809	30.769	1938.895	1635.964
-23.794	30.840	1935.978	1634.058
-22.779	30.766	1934.874	1632.416
-21.765	30.712	1933.297	1630.547
-20.750	30.655	1931.989	1628.879
-19.736	30.660	1930.191	1627.339
-18.721	30.731	1928.758	1626.688
-17.706	30.756	1927.192	1625.519
-16.692	30.755	1925.899	1624.357
-15.677	30.642	1924.579	1622.190
-14.663	30.635	1923.068	1620.798
-13.648	30.700	1921.591	1620.056
-12.633	30.687	1920.541	1618.992
-11.619	30.835	1918.288	1618.311
-10.604	30.749	1917.400	1616.750
-9.590	30.693	1915.777	1614.831
-8.575	30.700	1914.131	1613.447
-7.560	30.732	1913.019	1612.715
-6.546	30.717	1911.737	1611.447
-5.531	30.778	1910.617	1610.964
-4.517	30.783	1909.252	1609.795
-3.502	30.786	1907.907	1608.618
-2.487	30.693	1907.019	1607.006
-1.473	30.703	1905.631	1605.854
-0.458	30.774	1901.094	1602.580
0.556	28.130	1881.246	1574.055
1.571	23.763	1862.518	1520.959
2.586	19.901	1884.939	1505.598
3.600	19.023	1920.544	1526.121
4.615	18.832	1916.096	1520.757
5.629	14.415	1816.885	1404.736
6.644	5.197	1698.750	1240.336
7.659	0.279	1660.246	1173.870
8.673	-0.249	1657.414	1167.651
9.688	-0.303	1655.755	1165.962
10.702	-0.186	1654.445	1165.849
11.717	-0.442	1651.147	1161.438
12.731	-0.115	1650.030	1163.081
13.746	5.980	1664.816	1220.898
14.761	15.337	1686.301	1309.940
15.775	19.808	1694.117	1350.896
16.790	20.485	1694.106	1356.056
17.804	20.517	1693.799	1355.941
18.819	20.598	1692.948	1355.765
19.834	20.684	1692.375	1355.859
20.848	20.885	1692.086	1357.071
21.863	20.951	1690.570	1356.248
22.877	20.953	1689.784	1355.517
23.892	20.901	1688.925	1354.305
24.907	20.952	1688.011	1353.843
25.921	20.993	1686.851	1353.114
26.936	20.943	1686.121	1352.024
27.950	20.999	1685.163	1351.565
28.965	20.946	1684.448	1350.463
29.980	20.914	1683.375	1349.240
30.994	21.023	1681.645	1348.570
32.009	20.979	1680.619	1347.292
33.023	20.977	1679.792	1346.493
34.038	20.935	1678.978	1345.395
35.053	20.910	1678.081	1344.364
36.067	20.933	1676.996	1343.554
37.082	21.007	1675.538	1342.840
38.096	20.900	1675.354	1341.747
39.111	20.927	1674.378	1341.059
40.126	20.956	1673.159	1340.185
41.140	20.986	1672.431	1339.714
42.155	20.966	1671.331	1338.558
43.169	21.046	1669.794	1337.822
44.184	20.958	1669.260	1336.604
45.199	20.956	1668.117	1335.551
46.213	20.961	1666.921	1334.514
47.228	20.932	1666.014	1333.453
48.242	20.914	1664.539	1332.017
49.257	20.905	1663.694	1331.154
50.271	20.939	1662.134	1330.050
51.286	20.963	1661.010	1329.211
52.301	20.956	1659.673	1327.967
53.315	20.955	1658.183	1326.654
54.330	20.932	1657.035	1325.441
55.344	21.037	1655.342	1324.767
56.359	20.964	1654.296	1323.261
57.374	20.924	1653.227	1321.983
58.388	21.027	1652.128	1321.769
59.403	20.932	1651.235	1320.216
60.417	21.059	1649.815	1319.927
61.432	21.025	1648.831	1318.763
62.447	21.055	1647.312	1317.665
63.461	20.931	1646.817	1316.210
64.476	20.954	1645.950	1315.579
65.490	20.982	1644.892	1314.829
66.505	20.988	1643.642	1313.754
67.520	21.015	1642.266	1312.740
68.534	20.999	1641.648	1312.013
69.549	20.965	1640.685	1310.872
70.563	21.039	1638.974	1309.940
71.578	21.017	1638.209	1309.050
72.593	21.006	1636.873	1307.784
73.607	21.021	1636.208	1307.250
74.622	21.057	1634.790	1306.268
75.636	21.030	1634.342	1305.598
76.651	20.904	1633.704	1304.028
77.666	21.000	1632.630	1303.770
78.680	21.023	1631.497	1302.924
79.695	20.983	1630.717	1301.887
80.709	21.078	1629.413	1301.443
81.724	21.058	1628.649	1300.563
82.739	20.987	1628.116	1299.493
83.753	21.021	1626.540	1298.379
84.768	20.999	1626.070	1297.719
85.782	21.018	1624.732	1296.681
86.797	20.931	1624.230	1295.516
87.812	21.030	1623.008	1295.162
88.826	20.970	1621.857	1293.689
89.841	20.933	1621.557	1293.060
90.855	21.026	1620.046	1292.427
91.870	21.033	1618.938	1291.482
92.884	21.057	1617.719	1290.570
93.899	21.091	1616.810	1289.983
94.914	21.047	1615.390	1288.415
95.928	21.054	1614.149	1287.363
96.943	21.039	1613.053	1286.263
97.957	21.121	1611.764	1285.724
98.972	21.014	1610.670	1283.952
99.987	21.071	1608.875	1282.822
101.001	21.036	1607.675	1281.499
102.016	20.988	1606.198	1279.857
103.030	20.901	1605.252	1278.351
104.045	20.962	1603.715	1277.460
105.060	21.046	1602.304	1276.834
106.074	21.049	1601.466	1276.077
107.089	20.987	1600.118	1274.435
108.103	21.017	1598.827	1273.519
109.118	21.101	1597.246	1272.757
110.133	21.150	1595.611	1271.696
111.147	21.133	1594.704	1270.739
112.162	21.168	1593.813	1270.168
113.176	21.152	1592.112	1268.590
114.191	21.066	1590.698	1266.725
115.206	21.203	1589.294	1266.487
116.220	21.198	1588.128	1265.408
117.235	21.021	1587.482	1263.499
118.249	21.159	1585.890	1263.120
119.264	21.020	1585.231	1261.482
120.279	21.005	1583.371	1259.779
121.293	21.072	1582.497	1259.457
122.308	21.023	1581.311	1258.044
123.322	21.129	1579.181	1257.004
124.337	21.154	1578.034	1256.164
125.352	21.152	1576.482	1254.801
126.366	21.218	1575.749	1254.578
127.381	21.106	1575.084	1253.137
128.395	21.198	1574.036	1252.851
129.410	21.211	1572.603	1251.695
130.424	21.186	1571.523	1250.545
131.439	21.118	1570.260	1248.937
132.454	21.132	1568.770	1247.744
133.468	21.151	1567.630	1246.864
134.483	21.108	1566.178	1245.292
135.497	21.174	1564.861	1244.605
136.512	21.128	1563.914	1243.412
137.527	21.146	1562.543	1242.341
138.541	21.204	1561.392	1241.730
139.556	21.154	1560.002	1240.161
140.570	21.175	1558.636	1239.109
141.585	21.185	1557.753	1238.372
142.600	21.146	1556.146	1236.708
143.614	21.093	1555.050	1235.354
144.629	21.202	1554.076	1235.238
145.643	21.145	1552.696	1233.634
146.658	21.150	1551.415	1232.538
147.673	21.097	1550.483	1231.319
148.687	21.139	1549.043	1230.358
149.702	21.144	1547.878	1229.358
150.716	21.042	1546.491	1227.433
151.731	21.103	1545.558	1227.011
152.746	21.136	1544.402	1226.218
153.760	21.149	1542.830	1224.951
154.775	21.126	1542.011	1224.031
155.789	21.179	1541.042	1223.524
156.804	21.107	1539.900	1222.007
157.819	21.221	1538.420	1221.524
158.833	21.182	1537.973	1220.790
159.848	21.156	1536.415	1219.260
160.862	21.205	1535.677	1218.911
161.877	21.068	1534.973	1217.290
162.892	21.259	1533.497	1217.336
163.906	21.261	1532.480	1216.440
164.921	21.189	1531.493	1215.046
165.935	21.249	1530.624	1214.665
166.950	21.277	1529.592	1213.932
167.964	21.212	1528.201	1212.274
168.979	21.375	1527.135	1212.447
169.994	21.294	1526.628	1211.377
171.008	21.311	1525.500	1210.494
172.023	21.353	1524.632	1209.988
173.037	21.290	1523.593	1208.624
174.052	21.311	1522.423	1207.735
175.067	21.316	1521.769	1207.139
176.081	21.299	1520.699	1206.067
177.096	21.401	1519.387	1205.620
178.110	21.293	1518.862	1204.358
179.125	21.324	1517.407	1203.313
180.140	21.317	1516.867	1202.724
181.154	21.267	1516.133	1201.695
182.169	21.428	1514.543	1201.431
183.183	21.369	1513.673	1200.231
184.198	21.257	1513.297	1199.060
185.213	21.354	1512.109	1198.680
186.227	21.273	1511.434	1197.482
187.242	21.364	1510.296	1197.098
188.256	21.415	1509.330	1196.576
189.271	21.411	1508.127	1195.489
190.286	21.423	1507.649	1195.084
191.300	21.412	1506.690	1194.141
192.315	21.448	1505.712	1193.509
193.329	21.314	1505.584	1192.387
194.344	21.330	1504.168	1191.265
195.359	21.427	1503.284	1191.122
196.373	21.407	1502.439	1190.209
197.388	21.404	1501.332	1189.212
198.402	21.295	1500.621	1187.798
199.417	21.371	1499.695	1187.476
200.432	21.367	1498.720	1186.577
201.446	21.340	1498.444	1186.066
202.461	21.372	1497.312	1185.284
203.475	21.378	1495.905	1184.109
204.490	21.329	1495.518	1183.359
205.504	21.363	1494.432	1182.626
206.519	21.424	1493.600	1182.275
207.534	21.549	1492.651	1182.266
208.548	21.393	1492.107	1180.677
209.563	21.482	1491.271	1180.513
210.577	21.403	1490.597	1179.342
211.592	21.479	1489.289	1178.711
212.607	21.491	1488.477	1178.045
213.621	21.481	1488.209	1177.664
214.636	21.556	1487.226	1177.289
215.650	21.582	1486.161	1176.511
216.665	21.554	1485.219	1175.473
217.680	21.627	1484.431	1175.238
218.694	21.576	1483.501	1174.057
219.709	21.505	1483.392	1173.388
220.723	21.536	1482.057	1172.438
221.738	21.549	1481.343	1171.858
222.753	21.513	1480.344	1170.722
223.767	21.420	1479.678	1169.472
224.782	21.423	1478.857	1168.736
225.796	21.539	1478.014	1168.743
226.811	21.546	1477.219	1168.054
227.826	21.570	1476.598	1167.624
228.840	21.693	1475.900	1167.789
229.855	21.639	1474.953	1166.572
230.869	21.622	1474.220	1165.776
231.884	21.488	1473.249	1164.019
232.899	21.580	1472.135	1163.646
233.913	21.579	1470.793	1162.475
234.928	21.623	1470.000	1162.035
235.942	21.625	1468.910	1161.086
236.957	21.677	1468.023	1160.627
237.972	21.629	1467.040	1159.426
238.986	21.655	1465.662	1158.411
240.001	21.678	1464.923	1157.873
241.015	21.619	1464.412	1156.980
242.030	21.675	1463.175	1156.270
243.045	21.719	1462.651	1156.041
244.059	21.786	1461.567	1155.527
245.074	21.825	1460.283	1154.667
246.088	21.816	1459.486	1153.869
247.103	21.760	1459.019	1153.034
248.117	21.833	1458.015	1152.620
249.132	21.774	1457.668	1151.854
250.147	21.801	1456.839	1151.272
251.161	21.807	1456.209	1150.710
252.176	21.794	1455.996	1150.355
253.190	21.833	1454.686	1149.477
254.205	21.769	1454.192	1148.564
255.220	21.844	1453.099	1148.088
256.234	21.802	1452.262	1147.052
257.249	21.777	1451.855	1146.470
258.263	21.830	1450.794	1145.875
259.278	21.892	1449.737	1145.344
260.293	21.813	1449.417	1144.470
261.307	21.842	1448.456	1143.803
262.322	21.902	1447.990	1143.726
263.336	21.905	1446.988	1142.852
264.351	21.886	1445.738	1141.636
265.366	21.891	1445.247	1141.182
266.380	21.924	1444.690	1140.856
267.395	21.921	1443.215	1139.571
268.409	21.882	1442.610	1138.737
269.424	21.971	1441.525	1138.362
270.439	21.847	1440.637	1136.753
271.453	21.977	1439.823	1136.851
272.468	22.047	1439.336	1136.818
273.482	22.007	1438.563	1135.848
274.497	21.943	1437.662	1134.624
275.512	21.918	1436.841	1133.713
276.526	22.039	1435.857	1133.617
277.541	22.003	1435.367	1132.898
278.555	21.978	1434.624	1132.051
279.570	22.105	1433.858	1132.168
280.585	22.036	1432.947	1130.905
281.599	22.078	1431.736	1130.120
282.614	22.030	1431.067	1129.180
283.628	21.931	1430.032	1127.626
284.643	21.999	1428.884	1127.059
285.657	22.084	1428.476	1127.183
286.672	22.041	1427.849	1126.315
287.687	22.027	1426.761	1125.262
288.701	22.071	1426.063	1124.896
289.716	22.044	1425.381	1124.087
290.730	22.122	1424.067	1123.447
291.745	22.153	1422.937	1122.654
292.760	22.073	1422.735	1121.889
293.774	22.018	1422.078	1120.915
294.789	22.168	1420.873	1120.829
295.803	22.146	1420.020	1119.915
296.818	22.212	1419.011	1119.436
297.833	22.174	1418.226	1118.479
298.847	22.083	1417.609	1117.315
299.862	22.182	1416.716	1117.143
300.876	22.230	1415.612	1116.474
301.891	22.265	1414.959	1116.084
302.906	22.264	1414.030	1115.248
303.920	22.348	1413.255	1115.071
304.935	22.324	1413.009	1114.625
305.949	22.357	1412.227	1114.118
306.964	22.270	1411.470	1112.871
307.979	22.294	1410.160	1111.893
308.993	22.348	1409.242	1111.408
310.008	22.229	1408.966	1110.346
311.022	22.309	1407.728	1109.772
312.037	22.257	1406.750	1108.580
313.052	22.382	1405.531	1108.307
314.066	22.363	1404.990	1107.660
315.081	22.200	1404.401	1106.076
316.095	22.301	1403.160	1105.634
317.110	22.415	1402.247	1105.531
318.125	22.485	1401.468	1105.259
319.139	22.368	1400.852	1103.943
320.154	22.500	1399.738	1103.793
321.168	22.494	1398.690	1102.829
322.183	22.506	1397.418	1101.804
323.197	22.395	1397.053	1100.725
324.212	22.467	1396.019	1100.262
325.227	22.546	1395.380	1100.160
326.241	22.379	1394.999	1098.716
327.256	22.471	1394.112	1098.492
328.270	22.532	1393.132	1098.007
329.285	22.522	1392.339	1097.219
330.300	22.459	1391.425	1096.009
331.314	22.574	1390.575	1095.963
332.329	22.543	1390.121	1095.311
333.343	22.464	1389.253	1094.039
334.358	22.539	1388.445	1093.770
335.373	22.663	1387.325	1093.565
336.387	22.595	1387.044	1092.822
337.402	22.647	1386.145	1092.343
338.416	22.596	1385.837	1091.685
339.431	22.577	1385.242	1091.005
340.446	22.636	1384.598	1090.766
341.460	22.668	1383.195	1089.762
342.475	22.634	1382.478	1088.891
343.489	22.605	1382.103	1088.316
344.504	22.603	1381.039	1087.373
345.519	22.657	1379.876	1086.690
346.533	22.658	1378.935	1085.861
347.548	22.753	1377.944	1085.566
348.562	22.751	1377.572	1085.165
349.577	22.665	1376.679	1083.842
350.592	22.749	1375.904	1083.651
351.606	22.688	1374.873	1082.371
352.621	22.732	1374.222	1082.028
353.635	22.678	1372.993	1080.637
354.650	22.746	1372.514	1080.577
355.665	22.793	1371.635	1080.079
356.679	22.696	1370.887	1078.798
357.694	22.842	1369.565	1078.560
358.708	22.852	1368.341	1077.557
359.723	22.842	1367.649	1076.856
360.738	22.723	1366.769	1075.346
361.752	22.810	1365.392	1074.698
362.767	22.769	1364.227	1073.432
363.781	22.811	1363.677	1073.160
364.796	22.834	1363.057	1072.719
365.810	22.907	1361.959	1072.204
366.825	22.852	1361.510	1071.419
367.840	22.944	1360.674	1071.223
368.854	22.873	1360.107	1070.252
369.869	22.969	1359.638	1070.370
370.883	22.999	1358.437	1069.513
371.898	22.916	1358.119	1068.664
372.913	22.963	1357.497	1068.368
373.927	22.927	1356.508	1067.275
374.942	22.927	1355.467	1066.360
375.956	22.906	1355.145	1065.886
376.971	23.019	1354.260	1065.780
377.986	22.924	1353.507	1064.521
379.000	22.920	1352.720	1063.783
380.015	23.082	1351.913	1064.025
381.029	23.117	1350.835	1063.298
382.044	23.053	1350.355	1062.439
383.059	23.095	1349.341	1061.799
384.073	23.054	1349.056	1061.237
385.088	23.126	1348.693	1061.289
386.102	23.084	1348.079	1060.460
387.117	23.153	1347.333	1060.189
388.132	23.023	1346.979	1059.039
389.146	23.089	1346.373	1058.865
390.161	23.090	1345.457	1058.055
391.175	23.117	1344.826	1057.628
392.190	23.275	1343.666	1057.566
393.205	23.280	1342.845	1056.857
394.219	23.174	1341.769	1055.283
395.234	23.129	1341.311	1054.560
396.248	23.128	1340.049	1053.470
397.263	23.192	1338.988	1052.926
398.278	23.252	1337.537	1052.050
399.292	23.286	1336.726	1051.517
400.307	23.370	1335.819	1051.207
401.321	23.303	1335.141	1050.186
402.336	23.315	1334.063	1049.314
403.350	23.234	1333.000	1047.905
404.365	23.276	1332.242	1047.470
405.380	23.229	1331.385	1046.422
406.394	23.306	1330.804	1046.328
407.409	23.438	1329.816	1046.238
408.423	23.383	1329.149	1045.296
409.438	23.298	1328.566	1044.247
410.453	23.396	1328.009	1044.291
411.467	23.338	1327.304	1043.304
412.482	23.485	1326.500	1043.447
413.496	23.361	1326.242	1042.420
414.511	23.459	1325.528	1042.344
415.526	23.430	1324.694	1041.426
416.540	23.404	1324.063	1040.686
417.555	23.391	1323.116	1039.770
418.569	23.486	1322.543	1039.784
419.584	23.417	1322.034	1038.887
420.599	23.480	1321.423	1038.688
421.613	139.060	1431.746	1798.776
422.628	135.331	1447.769	1798.870
