DTS Sentinel unit serial number:	SN413079Multiplexer serial number:	ORYXHardware model number:	OX4-SRSoftware version number:	ORYX F/W v4.00 Oryx Data Collector v3.7.2.0data status	okinstallation	princeton_trtdifferential loss correction	single-endedforward channel	channel 4reverse channel	N/Adate	2019/09/10time	23:23:11forward acquisition time	60.00reverse acquisition time	0.00gamma	496.2192k internal	0.2316k external	0.2316temperature offset calibration	0.9952default loss term (dB/km)	0.3790temperature slope calibration	1.0000multiplexer offset coefficient	1.0000multiplexer slope coefficient	1.0000fibre end	0.00T internal ref (°C)	29.78T ext. ref 1 (°C)	-0.31T ext. ref 2 (°C)	23.17length (m)	temperature (°C)	Stokes	anti-Stokes-747.200	180.160	-0.216	0.320
-746.185	141.052	0.091	0.122
-745.171	-94.372	-0.194	0.054
-744.156	89.051	0.116	0.131
-743.142	800.000	-0.080	-0.234
-742.127	140.796	-0.104	0.139
-741.112	-90.852	-0.263	0.077
-740.098	800.000	-0.023	-0.070
-739.083	-39.138	0.293	-0.156
-738.069	-200.000	-0.032	-0.168
-737.054	-200.000	-0.088	-0.477
-736.039	517.041	-0.028	-0.067
-735.025	674.326	-0.055	0.143
-734.010	-103.700	0.244	-0.058
-732.996	-14.716	-0.125	-0.082
-731.981	167.499	-0.198	-0.284
-730.966	800.000	-0.085	0.264
-729.952	-26.447	0.117	-0.069
-728.937	-97.723	-0.292	0.076
-727.923	-78.637	-0.062	-0.022
-726.908	135.930	-0.240	-0.317
-725.894	707.892	0.055	-0.146
-724.879	800.000	0.099	0.317
-723.864	-200.000	0.051	-0.257
-722.850	800.000	-0.079	-0.241
-721.835	-36.397	-0.110	-0.060
-720.821	-144.329	-0.370	-0.035
-719.806	-151.061	-0.248	0.019
-718.791	-200.000	-0.172	-0.000
-717.777	-200.000	0.005	-0.139
-716.762	-200.000	-0.058	-0.341
-715.748	-123.786	-0.459	-0.073
-714.733	-200.000	-0.004	-0.392
-713.718	-187.991	0.073	0.001
-712.704	470.142	0.136	-0.309
-711.689	-65.739	-0.162	-0.065
-710.675	-44.960	0.296	-0.149
-709.660	106.420	0.102	-0.123
-708.645	127.742	0.195	-0.251
-707.631	5.499	0.057	0.042
-706.616	-200.000	0.003	-0.114
-705.602	-18.360	-0.127	-0.080
-704.587	-54.835	0.042	-0.019
-703.572	-37.666	0.122	0.066
-702.558	-98.683	0.140	-0.036
-701.543	-103.046	0.010	-0.002
-700.529	57.103	0.160	-0.158
-699.514	-107.601	0.059	0.013
-698.499	-102.510	-0.492	-0.119
-697.485	-73.647	-0.146	0.054
-696.470	-76.370	-0.021	0.008
-695.456	225.576	-0.166	0.271
-694.441	-109.740	-0.061	-0.013
-693.426	168.329	0.112	0.162
-692.412	52.818	0.151	-0.146
-691.397	69.136	-0.274	-0.285
-690.383	619.596	0.062	-0.157
-689.368	112.849	0.069	0.084
-688.354	-34.634	-0.165	-0.091
-687.339	239.050	-0.132	0.221
-686.324	53.332	0.124	0.120
-685.310	151.364	0.029	-0.040
-684.295	431.939	-0.096	-0.210
-683.281	-200.000	-0.012	0.094
-682.266	287.947	-0.078	-0.142
-681.251	50.597	-0.099	-0.095
-680.237	-150.500	0.189	0.015
-679.222	113.800	-0.170	-0.209
-678.208	-180.027	-0.194	-0.004
-677.193	57.773	-0.158	0.156
-676.178	-142.781	-0.209	0.021
-675.164	583.002	-0.029	-0.073
-674.149	-84.274	-0.178	0.057
-673.135	-186.197	0.185	0.003
-672.120	800.000	-0.075	-0.228
-671.105	69.327	-0.266	0.276
-670.091	800.000	0.122	0.366
-669.076	101.721	-0.122	0.144
-668.062	-64.737	-0.118	0.048
-667.047	-144.033	-0.231	-0.022
-666.032	-90.295	0.300	0.088
-665.018	-133.906	0.295	0.037
-664.003	-110.029	-0.282	-0.060
-662.989	315.950	0.088	0.167
-661.974	436.655	-0.142	0.313
-660.959	-59.551	-0.116	-0.050
-659.945	494.975	0.089	0.206
-658.930	-90.279	-0.128	0.038
-657.916	-129.190	-0.083	-0.012
-656.901	-35.888	0.420	0.230
-655.886	-171.467	-0.158	0.005
-654.872	-200.000	0.007	-0.042
-653.857	-8.352	0.202	0.137
-652.843	-200.000	0.056	-0.294
-651.828	-110.824	0.147	-0.031
-650.814	-151.015	-0.198	-0.015
-649.799	-200.000	0.059	-0.323
-648.784	-200.000	-0.012	0.191
-647.770	-13.274	-0.100	0.065
-646.755	-111.337	0.174	-0.036
-645.741	-123.906	-0.142	0.023
-644.726	-156.088	0.315	0.020
-643.711	771.664	-0.023	-0.064
-642.697	-200.000	0.051	-0.267
-641.682	800.000	-0.065	0.190
-640.668	-200.000	-0.038	-0.394
-639.653	-12.150	-0.033	0.022
-638.638	688.787	-0.092	0.243
-637.624	-143.538	-0.321	-0.031
-636.609	-127.641	0.203	-0.030
-635.595	-200.000	0.091	-0.445
-634.580	-17.569	-0.247	0.157
-633.565	800.000	-0.068	0.262
-632.551	-139.646	0.213	0.023
-631.536	25.997	0.014	0.012
-630.522	17.857	-0.255	-0.205
-629.507	-200.000	-0.006	-0.253
-628.492	260.225	0.053	0.092
-627.478	-163.224	0.107	0.005
-626.463	-71.715	-0.134	0.050
-625.449	800.000	-0.028	-0.116
-624.434	257.125	-0.176	-0.305
-623.419	10.970	-0.122	-0.094
-622.405	-200.000	-0.001	0.035
-621.390	452.026	-0.158	0.353
-620.376	-45.727	-0.094	0.047
-619.361	-200.000	0.005	-0.098
-618.346	-200.000	-0.009	-0.118
-617.332	52.357	-0.196	-0.189
-616.317	89.863	-0.063	0.071
-615.303	800.000	-0.038	-0.121
-614.288	800.000	-0.029	0.090
-613.273	800.000	0.087	-0.378
-612.259	250.414	-0.086	-0.148
-611.244	661.100	0.053	0.139
-610.230	-146.300	0.348	0.031
-609.215	-87.955	0.227	-0.069
-608.201	-176.217	-0.402	-0.011
-607.186	266.754	-0.156	-0.275
-606.171	-200.000	0.076	-0.454
-605.157	800.000	-0.058	-0.179
-604.142	183.625	-0.034	0.051
-603.128	-200.000	0.014	0.079
-602.113	39.983	-0.127	0.115
-601.098	-200.000	-0.015	0.108
-600.084	445.487	-0.107	-0.236
-599.069	560.691	-0.057	-0.140
-598.055	800.000	0.079	-0.271
-597.040	-134.240	-0.056	0.007
-596.025	-200.000	0.024	0.296
-595.011	189.344	0.040	-0.061
-593.996	93.580	0.063	0.071
-592.982	-66.493	-0.166	-0.066
-591.967	-200.000	0.036	0.287
-590.952	282.385	0.016	0.029
-589.938	-116.757	-0.268	-0.050
-588.923	739.202	0.056	0.153
-587.909	-83.615	0.218	0.070
-586.894	1.262	-0.159	-0.115
-585.879	-151.420	0.193	0.014
-584.865	-7.839	0.093	-0.063
-583.850	171.900	-0.279	-0.403
-582.836	-51.434	-0.350	-0.165
-581.821	39.960	-0.182	0.164
-580.806	-75.932	0.288	0.103
-579.792	-200.000	0.072	0.416
-578.777	800.000	-0.049	-0.206
-577.763	-97.220	-0.136	0.036
-576.748	8.020	0.112	0.085
-575.733	-200.000	-0.010	-0.276
-574.719	-200.000	-0.017	0.213
-573.704	800.000	-0.074	-0.297
-572.690	48.147	-0.193	-0.181
-571.675	-103.162	-0.198	0.047
-570.661	401.873	0.146	0.308
-569.646	-200.000	-0.016	0.086
-568.631	-13.502	0.097	-0.063
-567.617	-58.952	-0.271	-0.118
-566.602	35.626	0.106	-0.093
-565.588	800.000	0.053	0.176
-564.573	800.000	0.062	-0.241
-563.558	-61.637	0.280	-0.118
-562.544	249.317	0.177	-0.302
-561.529	441.226	-0.048	0.105
-560.515	24.667	0.190	-0.159
-559.500	-129.701	-0.167	-0.023
-558.485	78.427	0.179	0.192
-557.471	83.806	0.124	-0.136
-556.456	-19.302	0.078	0.049
-555.442	800.000	-0.052	0.226
-554.427	-200.000	-0.022	-0.136
-553.412	-72.168	-0.239	0.089
-552.398	116.926	0.115	-0.142
-551.383	-200.000	0.028	-0.388
-550.369	-108.915	-0.253	0.054
-549.354	-200.000	0.025	0.118
-548.339	254.364	-0.116	0.200
-547.325	-74.998	-0.159	-0.057
-546.310	-63.757	0.171	0.070
-545.296	730.658	0.098	0.263
-544.281	-5.049	0.130	-0.090
-543.266	86.688	-0.268	-0.297
-542.252	98.685	-0.073	-0.084
-541.237	-131.828	-0.212	-0.028
-540.223	598.326	0.105	0.262
-539.208	-200.000	-0.003	0.245
-538.193	729.002	0.081	-0.218
-537.179	125.333	-0.186	-0.235
-536.164	315.294	0.118	0.224
-535.150	58.129	-0.033	0.033
-534.135	-21.004	-0.266	-0.164
-533.121	-200.000	0.010	-0.242
-532.106	13.864	0.242	0.189
-531.091	-144.136	0.464	0.044
-530.077	-80.632	0.163	-0.054
-529.062	800.000	0.060	-0.176
-528.048	118.877	-0.211	0.262
-527.033	-100.028	-0.137	0.034
-526.018	-45.112	0.326	0.163
-525.004	-20.477	0.098	-0.060
-523.989	387.263	0.139	-0.288
-522.975	-200.000	-0.006	-0.087
-521.960	545.709	0.068	0.164
-520.945	-200.000	-0.016	0.138
-519.931	800.000	-0.091	-0.272
-518.916	-163.424	-0.252	0.012
-517.902	-29.327	0.010	0.005
-516.887	-91.597	-0.147	0.042
-515.872	18.310	-0.380	0.305
-514.858	392.841	0.244	-0.510
-513.843	528.169	-0.111	-0.264
-512.829	273.759	-0.102	0.181
-511.814	-200.000	0.020	0.164
-510.799	42.722	0.146	0.134
-509.785	-118.254	0.105	0.019
-508.770	463.074	-0.083	0.187
-507.756	-168.772	-0.129	0.005
-506.741	173.537	0.177	0.257
-505.726	-67.174	0.088	0.035
-504.712	-200.000	0.046	0.415
-503.697	161.067	0.160	0.224
-502.683	-120.789	-0.517	0.088
-501.668	82.490	0.226	-0.246
-500.653	-108.864	-0.431	0.092
-499.639	-199.724	0.431	0.002
-498.624	-191.213	-0.236	0.002
-497.610	129.230	-0.107	-0.137
-496.595	-100.988	0.190	0.047
-495.581	800.000	-0.039	-0.136
-494.566	-19.050	0.114	-0.071
-493.551	56.608	0.185	-0.181
-492.537	-91.124	0.145	-0.042
-491.522	-167.461	0.250	0.010
-490.508	-146.841	-0.225	0.019
-489.493	337.584	-0.110	0.214
-488.478	577.037	-0.029	-0.072
-487.464	100.193	0.125	0.146
-486.449	-126.745	-0.263	-0.039
-485.435	-125.692	0.217	-0.033
-484.420	73.007	-0.154	0.161
-483.405	-14.965	-0.156	-0.101
-482.391	103.735	0.086	-0.101
-481.376	-141.288	-0.359	0.037
-480.362	343.923	-0.019	0.037
-479.347	28.154	-0.139	0.118
-478.332	-128.139	0.137	0.020
-477.318	-200.000	-0.011	0.077
-476.303	49.746	-0.047	0.044
-475.289	719.862	0.058	0.155
-474.274	-50.479	0.371	0.176
-473.259	-90.550	-0.060	0.017
-472.245	-2.618	-0.159	-0.112
-471.230	-111.101	0.267	0.055
-470.216	545.005	0.081	-0.194
-469.201	-31.936	0.223	0.125
-468.186	-34.757	-0.229	-0.125
-467.172	-149.853	-0.267	-0.021
-466.157	-132.202	-0.194	-0.025
-465.143	-140.946	-0.474	0.049
-464.128	153.084	-0.183	0.251
-463.113	-83.258	-0.241	0.078
-462.099	185.101	0.168	0.250
-461.084	-200.000	0.009	-0.094
-460.070	800.000	0.017	-0.069
-459.055	1.361	0.389	0.280
-458.040	-57.272	0.218	0.096
-457.026	56.009	-0.307	0.298
-456.011	-200.000	0.064	0.334
-454.997	-200.000	-0.010	0.434
-453.982	104.293	-0.206	0.243
-452.968	78.017	0.205	-0.219
-451.953	-170.311	0.318	-0.011
-450.938	-200.000	0.038	0.174
-449.924	-149.882	0.168	-0.013
-448.909	-200.000	-0.002	0.116
-447.895	-37.469	0.196	0.105
-446.880	77.179	0.083	-0.089
-445.865	-25.149	-0.177	0.105
-444.851	-11.118	-0.350	-0.231
-443.836	-66.739	0.157	0.062
-442.822	191.726	-0.032	-0.048
-441.807	-200.000	-0.017	-0.136
-440.792	-200.000	-0.055	0.296
-439.778	22.313	0.039	0.032
-438.763	-104.227	-0.250	0.058
-437.749	-200.000	-0.051	-0.249
-436.734	-76.185	-0.129	-0.046
-435.719	-37.188	0.198	0.106
-434.705	-129.069	0.272	0.038
-433.690	179.977	-0.077	-0.113
-432.676	-200.000	-0.039	-0.219
-431.661	800.000	0.094	-0.384
-430.646	-200.000	-0.044	0.347
-429.632	173.133	-0.134	0.194
-428.617	47.381	-0.179	-0.167
-427.603	-200.000	-0.030	-0.260
-426.588	-135.831	-0.233	0.028
-425.573	-143.799	0.225	0.021
-424.559	800.000	0.032	0.121
-423.544	-32.087	-0.030	0.017
-422.530	-104.643	-0.257	-0.059
-421.515	64.486	-0.179	-0.181
-420.500	350.220	-0.071	0.140
-419.486	-200.000	-0.002	0.279
-418.471	-89.858	0.377	-0.110
-417.457	236.587	0.048	-0.079
-416.442	182.974	0.066	-0.097
-415.428	-60.788	-0.139	-0.059
-414.413	-121.464	0.273	0.045
-413.398	64.343	-0.182	-0.184
-412.384	-200.000	-0.001	0.273
-411.369	-84.346	0.236	-0.075
-410.355	-200.000	0.003	-0.058
-409.340	148.706	-0.076	-0.103
-408.325	-37.972	-0.111	-0.059
-407.311	-37.420	0.183	-0.097
-406.296	402.762	0.099	-0.207
-405.282	58.615	-0.211	-0.207
-404.267	-55.170	-0.236	-0.106
-403.252	-200.000	-0.031	0.314
-402.238	8.592	0.150	-0.113
-401.223	536.525	0.185	-0.440
-400.209	69.492	0.187	0.193
-399.194	800.000	-0.093	0.311
-398.179	-67.623	0.255	-0.100
-397.165	-200.000	-0.044	0.203
-396.150	190.537	-0.119	-0.179
-395.136	800.000	0.053	-0.216
-394.121	-55.455	0.281	-0.126
-393.106	-105.391	0.107	0.024
-392.092	114.036	0.158	-0.192
-391.077	-160.453	0.192	0.010
-390.063	-200.000	0.011	0.092
-389.048	29.250	0.172	-0.146
-388.033	780.257	0.049	0.134
-387.019	110.303	-0.086	-0.103
-386.004	110.950	0.096	-0.115
-384.990	800.000	-0.118	-0.328
-383.975	-160.777	0.398	0.021
-382.960	-38.786	-0.372	0.196
-381.946	68.743	-0.065	0.066
-380.931	31.858	-0.121	0.104
-379.917	-30.424	0.097	0.055
-378.902	-87.174	0.173	0.052
-377.888	-200.000	0.113	-0.594
-376.873	-185.198	0.044	-0.001
-375.858	-34.310	0.095	-0.052
-374.844	-109.688	0.381	0.080
-373.829	-83.728	-0.135	0.043
-372.815	130.186	-0.349	-0.446
-371.800	-200.000	0.068	-0.523
-370.785	800.000	-0.043	-0.183
-369.771	800.000	-0.026	0.079
-368.756	20.090	0.042	0.034
-367.742	8.102	-0.108	0.081
-366.727	-51.861	-0.049	-0.023
-365.712	-39.887	0.216	0.113
-364.698	800.000	-0.090	0.256
-363.683	-14.982	0.051	-0.033
-362.669	800.000	0.032	0.110
-361.654	-97.925	-0.219	-0.056
-360.639	32.064	-0.104	0.090
-359.625	-107.084	-0.180	0.040
-358.610	-42.615	0.172	0.088
-357.596	-200.000	-0.029	0.282
-356.581	-57.709	-0.374	-0.163
-355.566	-134.476	-0.234	0.029
-354.552	-45.454	0.166	0.082
-353.537	-24.949	-0.080	0.047
-352.523	34.355	0.258	0.225
-351.508	26.968	0.119	0.100
-350.493	669.907	0.081	-0.208
-349.479	-128.632	0.456	0.064
-348.464	-22.641	0.426	-0.257
-347.450	219.367	-0.225	0.359
-346.435	-20.867	0.146	-0.089
-345.420	236.670	0.054	-0.089
-344.406	-41.053	0.123	-0.063
-343.391	-50.863	0.423	0.198
-342.377	-145.246	0.155	-0.014
-341.362	-29.463	0.147	-0.084
-340.348	-200.000	0.003	0.031
-339.333	-33.753	0.207	-0.114
-338.318	-6.478	0.057	0.039
-337.304	-71.841	0.406	0.151
-336.289	169.824	-0.097	-0.139
-335.275	800.000	0.024	-0.079
-334.260	-180.114	0.305	0.006
-333.245	362.405	-0.013	0.027
-332.231	-61.139	0.190	0.080
-331.216	120.388	-0.388	-0.480
-330.202	645.720	-0.041	-0.104
-329.187	-200.000	0.029	-0.144
-328.172	107.922	0.178	0.211
-327.158	499.294	-0.020	-0.046
-326.143	-169.222	-0.102	0.004
-325.129	290.643	-0.125	-0.227
-324.114	-44.886	0.290	0.144
-323.099	-100.814	0.292	-0.072
-322.085	466.126	-0.163	-0.364
-321.070	-148.320	-0.188	0.015
-320.056	-25.799	0.075	-0.044
-319.041	141.583	0.078	0.103
-318.026	800.000	-0.116	-0.322
-317.012	33.850	-0.193	0.167
-315.997	147.305	-0.076	0.102
-314.983	268.010	0.113	-0.197
-313.968	-200.000	-0.000	0.032
-312.953	-67.010	-0.375	0.147
-311.939	800.000	0.017	-0.057
-310.924	-200.000	0.032	0.331
-309.910	-57.980	-0.270	-0.117
-308.895	90.541	-0.186	-0.207
-307.880	-200.000	-0.041	0.421
-306.866	38.744	-0.293	-0.261
-305.851	-56.581	0.202	0.089
-304.837	123.949	-0.072	0.090
-303.822	332.420	0.189	0.364
-302.807	475.404	-0.056	0.126
-301.793	137.407	-0.197	0.256
-300.778	-200.000	-0.036	-0.287
-299.764	-46.402	0.221	-0.108
-298.749	-36.305	0.085	-0.046
-297.735	-200.000	0.025	0.188
-296.720	800.000	-0.062	0.244
-295.705	564.180	-0.072	0.174
-294.691	45.281	-0.089	0.081
-293.676	-109.611	-0.064	-0.013
-292.662	-102.335	0.212	-0.051
-291.647	5.998	-0.230	0.170
-290.632	-83.345	-0.177	-0.056
-289.618	192.683	-0.112	0.168
-288.603	-11.377	0.105	0.068
-287.589	-200.000	-0.043	0.301
-286.574	403.535	-0.098	-0.206
-285.559	-57.016	0.036	0.016
-284.545	-16.138	-0.123	0.078
-283.530	-104.250	0.250	-0.058
-282.516	-175.888	0.133	0.004
-281.501	-1.611	0.191	-0.134
-280.486	800.000	-0.048	0.158
-279.472	162.681	0.095	0.133
-278.457	800.000	-0.032	0.114
-277.443	-22.564	0.105	-0.063
-276.428	-141.189	-0.161	-0.016
-275.413	-142.929	-0.179	-0.017
-274.399	93.306	0.070	-0.079
-273.384	252.860	-0.258	-0.438
-272.370	-146.747	-0.230	-0.020
-271.355	94.128	-0.079	0.089
-270.340	74.312	0.196	-0.205
-269.326	-172.778	-0.055	-0.002
-268.311	800.000	-0.017	0.068
-267.297	800.000	0.081	-0.310
-266.282	447.904	-0.038	-0.083
-265.267	299.936	-0.061	-0.112
-264.253	800.000	-0.120	-0.484
-263.238	-90.418	-0.229	0.066
-262.224	79.201	0.161	0.171
-261.209	800.000	-0.099	-0.427
-260.195	-177.573	0.201	0.005
-259.180	-200.000	0.043	-0.225
-258.165	-166.337	0.294	0.012
-257.151	648.541	0.050	0.127
-256.136	473.733	-0.023	0.051
-255.122	-17.382	0.095	0.060
-254.107	-39.580	-0.368	0.191
-253.092	365.679	-0.164	0.328
-252.078	-61.793	0.319	0.133
-251.063	2.762	-0.313	-0.226
-250.049	-200.000	0.017	-0.123
-249.034	31.499	-0.066	-0.057
-248.019	800.000	-0.033	-0.133
-247.005	-86.022	-0.092	-0.028
-245.990	264.984	0.177	0.306
-244.976	5.162	-0.045	0.033
-243.961	478.623	0.024	-0.053
-242.946	23.583	-0.113	-0.092
-241.932	135.133	0.162	-0.209
-240.917	-73.012	0.218	0.079
-239.903	800.000	0.118	0.392
-238.888	-23.209	0.304	-0.182
-237.873	-77.918	0.093	0.032
-236.859	346.351	0.224	-0.437
-235.844	-85.158	0.343	-0.107
-234.830	306.380	0.111	-0.205
-233.815	-200.000	-0.043	-0.239
-232.800	62.320	0.143	-0.142
-231.786	-34.501	-0.138	0.075
-230.771	-109.270	-0.341	-0.072
-229.757	-200.000	0.004	0.149
-228.742	230.201	0.208	0.338
-227.727	800.000	-0.034	0.095
-226.713	-104.155	-0.126	-0.029
-225.698	-81.143	0.091	0.030
-224.684	-200.000	0.055	0.401
-223.669	-200.000	0.020	-0.109
-222.655	-60.561	0.212	-0.089
-221.640	34.769	0.070	-0.060
-220.625	246.504	-0.075	-0.126
-219.611	-42.337	-0.174	-0.088
-218.596	309.376	0.183	0.339
-217.582	-200.000	-0.009	0.099
-216.567	-115.148	-0.139	0.026
-215.552	150.561	0.062	0.083
-214.538	-200.000	0.022	0.215
-213.523	-52.490	-0.284	0.130
-212.509	72.410	-0.073	-0.075
-211.494	-69.656	0.227	0.086
-210.479	-24.956	-0.151	-0.089
-209.465	-68.869	-0.209	0.080
-208.450	149.083	0.271	-0.363
-207.436	385.969	0.107	-0.218
-206.421	20.758	-0.204	0.164
-205.406	-56.050	-0.083	-0.036
-204.392	-7.568	0.125	-0.084
-203.377	120.917	-0.099	-0.122
-202.363	325.122	-0.020	0.039
-201.348	-68.660	-0.344	0.132
-200.333	54.396	-0.120	0.115
-199.319	78.551	-0.126	0.134
-198.304	254.489	0.153	-0.260
-197.290	137.474	0.168	0.218
-196.275	-200.000	-0.009	0.151
-195.260	193.452	0.009	-0.013
-194.246	-200.000	0.122	0.650
-193.231	85.269	0.109	0.119
-192.217	-18.910	0.196	0.121
-191.202	49.634	-0.179	0.167
-190.187	-200.000	0.034	0.187
-189.173	-77.456	-0.290	0.100
-188.158	119.219	0.092	-0.113
-187.144	37.012	0.111	-0.097
-186.129	-200.000	-0.041	0.287
-185.114	422.095	0.138	0.295
-184.100	166.807	0.110	-0.155
-183.085	-4.131	-0.204	-0.140
-182.071	-14.495	-0.190	-0.121
-181.056	-200.000	-0.017	0.269
-180.042	-22.659	0.190	-0.114
-179.027	-200.000	-0.020	0.187
-178.012	85.901	-0.301	0.328
-176.998	189.683	0.119	0.176
-175.983	26.633	0.057	0.047
-174.969	-157.591	-0.198	-0.012
-173.954	-67.143	0.035	0.014
-172.939	28.299	-0.231	0.193
-171.925	297.570	-0.092	0.168
-170.910	444.241	0.131	-0.284
-169.896	-200.000	0.022	0.131
-168.881	208.353	-0.199	0.308
-167.866	4.284	-0.232	0.168
-166.852	-200.000	-0.045	-0.377
-165.837	-143.630	0.469	-0.044
-164.823	-150.279	-0.349	-0.027
-163.808	441.122	0.117	-0.254
-162.793	-200.000	-0.037	-0.467
-161.779	800.000	0.097	0.287
-160.764	719.767	-0.066	0.175
-159.750	56.736	-0.331	0.319
-158.735	138.266	0.062	0.081
-157.720	147.041	0.110	-0.147
-156.706	519.003	0.071	0.164
-155.691	-142.366	0.235	-0.023
-154.677	150.833	-0.060	0.081
-153.662	-200.000	0.090	-0.594
-152.647	-9.582	-0.054	0.035
-151.633	537.370	0.111	0.262
-150.618	6.932	0.129	0.095
-149.604	395.240	-0.052	0.108
-148.589	-53.248	0.254	0.115
-147.574	-34.518	-0.355	-0.192
-146.560	-114.254	-0.119	0.023
-145.545	69.406	0.114	0.116
-144.531	-76.574	-0.235	-0.082
-143.516	757.408	0.082	-0.218
-142.502	-50.949	-0.166	0.077
-141.487	39.721	-0.167	0.148
-140.472	256.707	0.124	0.211
-139.458	-200.000	0.011	0.109
-138.443	-70.266	0.015	0.005
-137.429	-49.725	-0.109	-0.051
-136.414	-105.078	0.307	-0.070
-135.399	54.631	0.076	0.073
-134.385	18.479	0.238	0.188
-133.370	51.527	0.105	-0.099
-132.356	0.681	0.050	-0.035
-131.341	63.511	0.128	-0.127
-130.326	-105.842	0.106	0.024
-129.312	-200.000	-0.002	-0.148
-128.297	-200.000	-0.019	0.128
-127.283	23.095	-0.223	-0.181
-126.268	800.000	-0.063	0.210
-125.253	68.455	0.057	0.058
-124.239	-167.384	-0.180	-0.007
-123.224	-200.000	0.056	0.260
-122.210	-123.802	0.139	0.022
-121.195	-64.496	0.195	0.078
-120.180	-77.358	0.298	0.102
-119.166	-44.065	-0.212	0.105
-118.151	-200.000	-0.072	-0.347
-117.137	-56.657	0.102	-0.045
-116.122	-158.693	0.214	0.012
-115.107	-100.167	0.231	-0.057
-114.093	-200.000	0.007	0.053
-113.078	800.000	-0.030	0.095
-112.064	-77.630	-0.149	0.051
-111.049	-200.000	-0.014	-0.184
-110.034	255.949	-0.105	-0.178
-109.020	26.330	0.086	0.071
-108.005	-200.000	0.006	-0.216
-106.991	-200.000	0.029	-0.222
-105.976	800.000	0.053	0.166
-104.962	32.486	0.082	-0.070
-103.947	324.555	0.067	0.127
-102.932	-113.066	-0.047	-0.009
-101.918	-50.117	-0.219	0.103
-100.903	94.057	0.034	0.038
-99.889	73.962	0.148	-0.153
-98.874	800.000	-0.101	-0.321
-97.859	800.000	-0.081	0.271
-96.845	-200.000	0.111	0.000
-95.830	83.056	-0.107	0.115
-94.816	451.361	0.060	-0.131
-93.801	-43.186	0.140	-0.070
-92.786	-200.000	-0.003	0.077
-91.772	23.580	-0.154	0.125
-90.757	-91.975	0.210	-0.059
-89.743	17.634	-0.043	0.034
-88.728	-56.383	-0.181	-0.080
-87.713	469.850	0.059	-0.131
-86.699	34.145	0.100	0.086
-85.684	525.655	-0.031	-0.073
-84.670	-39.451	0.331	-0.171
-83.655	53.137	0.152	0.144
-82.640	-50.660	0.223	0.104
-81.626	111.391	0.218	0.260
-80.611	-200.000	-0.020	0.095
-79.597	387.677	0.144	0.293
-78.582	-200.000	-0.020	-0.092
-77.567	24.107	-0.062	0.051
-76.553	-25.796	-0.665	0.386
-75.538	800.000	-0.111	0.369
-74.524	124.914	-0.063	0.078
-73.509	-65.880	0.041	-0.016
-72.494	245.558	-0.143	-0.238
-71.480	-200.000	-0.008	-0.171
-70.465	1.325	0.219	0.156
-69.451	-200.000	-0.013	0.311
-68.436	800.000	-0.095	0.322
-67.422	-103.192	0.209	0.049
-66.407	800.000	-0.062	-0.182
-65.392	193.614	0.109	0.163
-64.378	800.000	0.108	0.402
-63.363	-53.872	0.104	-0.047
-62.349	456.664	-0.227	-0.496
-61.334	252.229	-0.806	-1.354
-60.319	156.500	0.483	0.657
-59.305	285.555	-0.479	-0.852
-58.290	488.583	0.520	1.172
-57.276	407.359	0.587	1.224
-56.261	-200.000	105.669	618.415
-55.246	508.895	1499.288	3434.397
-54.232	174.337	2697.626	3845.086
-53.217	102.744	2322.939	2680.532
-52.203	36.219	2068.683	1797.120
-51.188	31.474	1981.721	1679.026
-50.173	30.068	1964.169	1651.571
-49.159	46.172	2020.491	1845.018
-48.144	46.305	2038.410	1862.512
-47.130	32.067	1996.674	1696.794
-46.115	29.832	1985.602	1667.200
-45.100	29.694	1982.910	1663.628
-44.086	29.753	1980.190	1661.815
-43.071	29.718	1977.879	1659.493
-42.057	29.666	1976.367	1657.690
-41.042	29.677	1973.815	1655.585
-40.027	29.622	1972.104	1653.594
-39.013	29.663	1970.364	1652.437
-37.998	29.685	1968.522	1651.018
-36.984	29.709	1966.313	1649.318
-35.969	29.699	1964.520	1647.659
-34.954	29.696	1963.022	1646.309
-33.940	29.796	1961.340	1645.724
-32.925	29.769	1959.935	1644.237
-31.911	29.782	1957.810	1642.505
-30.896	29.744	1956.440	1640.959
-29.881	29.831	1954.689	1640.197
-28.867	29.772	1953.109	1638.276
-27.852	29.809	1951.591	1637.271
-26.838	29.784	1949.701	1635.399
-25.823	29.814	1947.874	1634.065
-24.809	29.733	1946.838	1632.419
-23.794	29.807	1944.896	1631.378
-22.779	29.821	1942.707	1629.599
-21.765	29.748	1941.320	1627.723
-20.750	29.790	1939.808	1626.767
-19.736	29.804	1938.173	1625.455
-18.721	29.878	1935.896	1624.125
-17.706	29.865	1934.590	1622.853
-16.692	29.792	1933.482	1621.217
-15.677	29.810	1931.523	1619.672
-14.663	29.751	1930.139	1617.930
-13.648	29.895	1928.771	1617.974
-12.633	29.902	1927.771	1617.137
-11.619	29.848	1926.390	1615.443
-10.604	29.858	1924.946	1614.254
-9.590	29.715	1923.899	1612.063
-8.575	29.728	1922.358	1610.825
-7.560	29.730	1921.210	1609.815
-6.546	29.915	1919.584	1609.995
-5.531	29.859	1918.376	1608.428
-4.517	29.824	1917.367	1607.218
-3.502	29.782	1916.171	1605.786
-2.487	29.828	1914.650	1604.847
-1.473	29.760	1914.111	1603.744
-0.458	29.903	1908.357	1600.091
0.556	27.322	1888.628	1571.382
1.571	23.005	1870.744	1519.344
2.586	19.130	1893.569	1503.962
3.600	18.156	1929.353	1523.575
4.615	17.972	1924.375	1517.874
5.629	13.741	1824.353	1403.131
6.644	4.949	1706.789	1242.750
7.659	0.182	1669.849	1178.495
8.673	-0.237	1666.029	1172.425
9.688	-0.306	1665.108	1171.127
10.702	-0.294	1663.737	1170.159
11.717	-0.383	1660.506	1167.086
12.731	-0.141	1659.255	1167.987
13.746	6.003	1674.593	1226.787
14.761	15.458	1695.379	1316.373
15.775	20.203	1703.984	1360.250
16.790	20.978	1704.920	1366.953
17.804	21.089	1704.241	1367.155
18.819	21.117	1703.305	1366.501
19.834	21.300	1702.707	1367.335
20.848	21.526	1701.430	1367.958
21.863	21.489	1701.209	1367.373
22.877	21.481	1700.356	1366.502
23.892	21.534	1699.287	1365.936
24.907	21.535	1698.581	1365.253
25.921	21.534	1697.553	1364.299
26.936	21.559	1696.199	1363.282
27.950	21.556	1695.110	1362.263
28.965	21.472	1695.151	1361.521
29.980	21.555	1693.993	1361.115
30.994	21.562	1692.498	1359.852
32.009	21.562	1690.949	1358.489
33.023	21.549	1690.301	1357.743
34.038	21.515	1689.458	1356.686
35.053	21.513	1688.663	1355.913
36.067	21.664	1686.939	1355.571
37.082	21.515	1686.471	1353.923
38.096	21.536	1684.913	1352.718
39.111	21.593	1684.019	1352.323
40.126	21.569	1683.562	1351.647
41.140	21.469	1683.076	1350.364
42.155	21.556	1681.714	1349.827
43.169	21.540	1680.930	1348.949
44.184	21.522	1679.670	1347.684
45.199	21.528	1678.747	1346.868
46.213	21.512	1677.968	1346.006
47.228	21.488	1676.420	1344.460
48.242	21.539	1675.140	1343.705
49.257	21.448	1674.567	1342.424
50.271	21.584	1672.351	1341.574
51.286	21.484	1671.463	1339.973
52.301	21.505	1670.105	1338.927
53.315	21.506	1668.814	1337.787
54.330	21.544	1667.341	1336.778
55.344	21.414	1666.789	1335.223
56.359	21.502	1664.760	1334.153
57.374	21.547	1663.696	1333.525
58.388	21.557	1662.496	1332.515
59.403	21.552	1661.117	1331.257
60.417	21.595	1660.000	1330.571
61.432	21.548	1659.050	1329.335
62.447	21.513	1658.005	1328.116
63.461	21.546	1656.907	1327.369
64.476	21.562	1655.763	1326.457
65.490	21.526	1655.066	1325.503
66.505	21.637	1653.765	1325.184
67.520	21.586	1652.963	1324.042
68.534	21.546	1651.717	1322.626
69.549	21.635	1650.324	1322.067
70.563	21.577	1649.466	1320.822
71.578	21.604	1648.098	1319.810
72.593	21.584	1647.578	1319.125
73.607	21.532	1646.458	1317.724
74.622	21.589	1645.258	1317.075
75.636	21.626	1644.469	1316.604
76.651	21.594	1643.409	1315.402
77.666	21.605	1642.839	1314.908
78.680	21.573	1641.630	1313.582
79.695	21.574	1640.907	1312.898
80.709	21.573	1639.715	1311.824
81.724	21.632	1638.748	1311.374
82.739	21.571	1638.325	1310.465
83.753	21.522	1637.135	1309.030
84.768	21.603	1635.826	1308.468
85.782	21.526	1635.552	1307.558
86.797	21.550	1634.189	1306.535
87.812	21.563	1633.243	1305.763
88.826	21.598	1632.300	1305.151
89.841	21.599	1630.995	1304.000
90.855	21.479	1630.595	1302.673
91.870	21.638	1629.239	1302.656
92.884	21.585	1628.235	1301.345
93.899	21.587	1627.443	1300.611
94.914	21.537	1626.306	1299.214
95.928	21.704	1624.253	1298.694
96.943	21.618	1623.946	1297.697
97.957	21.589	1622.241	1296.005
98.972	21.627	1621.054	1295.224
99.987	21.641	1619.859	1294.260
101.001	21.644	1618.037	1292.708
102.016	21.617	1616.447	1291.125
103.030	21.639	1615.034	1290.049
104.045	21.638	1613.928	1289.043
105.060	21.676	1612.064	1287.716
106.074	21.596	1611.678	1286.707
107.089	21.580	1609.921	1285.073
108.103	21.699	1608.566	1284.751
109.118	21.647	1607.912	1283.734
110.133	21.729	1606.187	1282.847
111.147	21.689	1605.144	1281.606
112.162	21.701	1604.173	1280.806
113.176	21.699	1602.825	1279.597
114.191	21.724	1601.421	1278.548
115.206	21.674	1600.244	1277.129
116.220	21.665	1599.181	1276.107
117.235	21.662	1597.588	1274.702
118.249	21.668	1596.821	1274.014
119.264	21.703	1595.544	1273.142
120.279	21.614	1594.356	1271.432
121.293	21.656	1592.918	1270.481
122.308	21.712	1591.588	1269.710
123.322	21.716	1589.983	1268.345
124.337	21.608	1589.265	1266.880
125.352	21.751	1587.831	1266.658
126.366	21.721	1587.100	1265.745
127.381	21.586	1586.546	1264.218
128.395	21.731	1584.766	1263.737
129.410	21.738	1583.808	1262.910
130.424	21.708	1582.520	1261.555
131.439	21.788	1581.084	1260.874
132.454	21.747	1579.960	1259.571
133.468	21.676	1578.756	1257.990
134.483	21.722	1577.490	1257.197
135.497	21.703	1576.239	1255.957
136.512	21.788	1574.950	1255.425
137.527	21.724	1573.396	1253.618
138.541	21.650	1572.878	1252.566
139.556	21.776	1571.426	1252.195
140.570	21.698	1570.297	1250.634
141.585	21.726	1568.467	1249.263
142.600	21.708	1567.794	1248.489
143.614	21.697	1566.769	1247.481
144.629	21.638	1565.959	1246.309
145.643	21.768	1564.235	1245.752
146.658	21.803	1562.805	1244.751
147.673	21.661	1561.881	1242.899
148.687	21.667	1560.601	1241.806
149.702	21.722	1559.389	1241.127
150.716	21.747	1557.844	1239.965
151.731	21.780	1556.645	1239.128
152.746	21.799	1555.663	1238.374
153.760	21.797	1554.000	1236.924
154.775	21.669	1553.730	1235.700
155.789	21.802	1552.410	1235.474
156.804	21.870	1551.108	1234.813
157.819	21.717	1550.578	1233.206
158.833	21.701	1549.171	1231.864
159.848	21.771	1547.882	1231.221
160.862	21.862	1547.039	1231.081
161.877	21.849	1546.003	1230.052
162.892	21.829	1545.010	1229.019
163.906	21.779	1544.373	1228.052
164.921	21.883	1543.096	1227.656
165.935	21.854	1542.340	1226.743
166.950	21.832	1541.473	1225.787
167.964	21.867	1540.229	1224.935
168.979	21.876	1539.423	1224.251
169.994	21.809	1538.522	1222.960
171.008	21.865	1537.407	1222.354
172.023	21.905	1536.584	1221.871
173.037	21.858	1535.654	1220.690
174.052	21.918	1534.414	1220.020
175.067	21.833	1533.379	1218.498
176.081	21.871	1532.555	1217.995
177.096	21.988	1531.145	1217.579
178.110	21.943	1530.212	1216.423
179.125	21.885	1528.961	1214.915
180.140	21.863	1528.659	1214.414
181.154	21.862	1527.833	1213.647
182.169	21.957	1526.718	1213.308
183.183	21.869	1525.673	1211.761
184.198	21.884	1524.611	1210.914
185.213	21.907	1524.246	1210.678
186.227	21.898	1523.071	1209.572
187.242	21.959	1522.260	1209.246
188.256	21.975	1521.085	1208.316
189.271	22.061	1520.251	1208.138
190.286	22.015	1519.197	1206.878
191.300	21.951	1518.790	1206.008
192.315	21.995	1517.694	1205.330
193.329	21.932	1516.742	1204.039
194.344	21.932	1516.115	1203.429
195.359	22.076	1514.564	1203.079
196.373	22.074	1514.385	1202.820
197.388	22.003	1513.665	1201.656
198.402	21.982	1512.307	1200.327
199.417	21.846	1511.593	1198.724
200.432	21.872	1511.045	1198.362
201.446	21.958	1510.315	1198.265
202.461	21.997	1509.252	1197.580
203.475	22.024	1508.079	1196.726
204.490	22.041	1506.946	1195.837
205.504	21.912	1506.821	1194.754
206.519	21.990	1505.202	1193.896
207.534	21.986	1504.955	1193.568
208.548	21.989	1503.840	1192.594
209.563	22.019	1503.041	1192.062
210.577	22.032	1501.996	1191.216
211.592	22.001	1501.039	1190.142
212.607	22.076	1500.151	1189.839
213.621	22.048	1500.047	1189.460
214.636	22.134	1499.238	1189.297
215.650	22.117	1498.108	1188.182
216.665	22.115	1497.525	1187.599
217.680	22.080	1496.449	1186.403
218.694	22.159	1495.772	1186.295
219.709	22.056	1495.198	1185.040
220.723	22.062	1494.412	1184.353
221.738	22.151	1493.260	1183.938
222.753	22.087	1492.069	1182.452
223.767	22.006	1491.707	1181.517
224.782	22.028	1490.364	1180.498
225.796	22.094	1489.439	1180.103
226.811	22.139	1488.797	1179.791
227.826	22.069	1488.778	1179.203
228.840	22.238	1487.336	1179.093
229.855	22.153	1486.894	1178.069
230.869	22.132	1486.217	1177.287
231.884	22.208	1484.981	1176.712
232.899	22.175	1483.848	1175.485
233.913	22.211	1482.520	1174.572
234.928	22.207	1481.446	1173.593
235.942	22.232	1480.775	1173.123
236.957	22.223	1479.898	1172.264
237.972	22.283	1478.455	1171.414
238.986	22.176	1477.905	1170.166
240.001	22.197	1476.580	1169.149
241.015	22.301	1475.826	1169.141
242.030	22.261	1474.897	1168.038
243.045	22.375	1473.958	1167.948
244.059	22.292	1473.112	1166.622
245.074	22.317	1472.317	1166.056
246.088	22.316	1471.420	1165.236
247.103	22.329	1470.910	1164.817
248.117	22.424	1470.022	1164.634
249.132	22.331	1469.056	1163.153
250.147	22.363	1468.446	1162.778
251.161	22.427	1467.825	1162.609
252.176	22.353	1467.795	1161.992
253.190	22.399	1466.743	1161.360
254.205	22.409	1465.768	1160.554
255.220	22.508	1464.574	1160.157
256.234	22.395	1464.145	1158.969
257.249	22.458	1463.092	1158.446
258.263	22.460	1462.765	1158.102
259.278	22.409	1461.524	1156.681
260.293	22.499	1460.658	1156.480
261.307	22.400	1460.377	1155.507
262.322	22.486	1459.541	1155.310
263.336	22.588	1458.476	1155.031
264.351	22.576	1457.142	1153.791
265.366	22.484	1456.500	1152.580
266.380	22.481	1455.740	1151.856
267.395	22.588	1454.246	1151.275
268.409	22.513	1454.046	1150.521
269.424	22.498	1453.237	1149.684
270.439	22.485	1452.814	1149.162
271.453	22.470	1451.821	1148.175
272.468	22.556	1450.647	1147.709
273.482	22.527	1450.064	1146.956
274.497	22.509	1449.429	1146.231
275.512	22.594	1448.342	1145.829
276.526	22.558	1447.852	1145.106
277.541	22.632	1446.741	1144.605
278.555	22.542	1446.161	1143.461
279.570	22.555	1445.536	1142.948
280.585	22.641	1444.125	1142.291
281.599	22.614	1443.025	1141.141
282.614	22.629	1442.823	1140.978
283.628	22.606	1441.435	1139.633
284.643	22.712	1440.091	1139.152
285.657	22.729	1439.123	1138.397
286.672	22.682	1438.889	1137.807
287.687	22.637	1437.984	1136.698
288.701	22.623	1436.954	1135.699
289.716	22.676	1436.508	1135.586
290.730	22.718	1436.187	1135.497
291.745	22.729	1434.692	1134.286
292.760	22.699	1434.079	1133.511
293.774	22.680	1433.051	1132.479
294.789	22.671	1432.289	1131.714
295.803	22.712	1431.544	1131.289
296.818	22.847	1430.551	1131.272
297.833	22.695	1429.859	1129.651
298.847	22.812	1428.643	1129.340
299.862	22.709	1428.205	1128.233
300.876	22.831	1427.105	1128.041
301.891	22.793	1426.550	1127.263
302.906	22.814	1425.774	1126.681
303.920	22.888	1425.013	1126.455
304.935	22.872	1424.369	1125.742
305.949	22.920	1423.689	1125.413
306.964	22.847	1423.070	1124.360
307.979	22.815	1422.042	1123.246
308.993	22.851	1421.131	1122.655
310.008	22.903	1420.248	1122.184
311.022	22.926	1419.120	1121.343
312.037	22.909	1418.344	1120.523
313.052	22.846	1417.696	1119.513
314.066	22.919	1416.541	1118.962
315.081	23.007	1415.418	1118.536
316.095	22.911	1414.644	1117.213
317.110	22.981	1413.753	1116.855
318.125	23.011	1412.929	1116.293
319.139	22.982	1411.936	1115.229
320.154	22.985	1411.216	1114.578
321.168	23.041	1410.086	1113.942
322.183	23.016	1409.593	1113.298
323.197	23.004	1408.664	1112.385
324.212	23.002	1407.920	1111.689
325.227	23.004	1406.769	1110.692
326.241	23.028	1406.606	1110.622
327.256	23.081	1405.142	1109.700
328.270	22.998	1404.841	1108.839
329.285	23.151	1403.686	1108.793
330.300	23.139	1403.185	1108.221
331.314	23.066	1402.246	1106.927
332.329	23.153	1401.140	1106.495
333.343	23.019	1400.766	1105.269
334.358	23.130	1399.971	1105.233
335.373	23.074	1399.353	1104.301
336.387	23.134	1398.826	1104.162
337.402	23.173	1397.606	1103.342
338.416	23.158	1397.351	1102.949
339.431	23.161	1397.200	1102.751
340.446	23.209	1396.142	1102.117
341.460	23.224	1395.097	1101.287
342.475	23.236	1393.902	1100.326
343.489	23.318	1392.943	1099.979
344.504	23.186	1392.277	1098.538
345.519	23.245	1391.591	1098.265
346.533	23.258	1390.585	1097.456
347.548	23.252	1389.767	1096.672
348.562	23.308	1388.391	1095.835
349.577	23.242	1387.826	1094.889
350.592	23.315	1387.323	1094.841
351.606	23.268	1386.409	1093.736
352.621	23.200	1385.662	1092.628
353.635	23.240	1384.850	1092.139
354.650	23.225	1383.931	1091.224
355.665	23.265	1383.037	1090.668
356.679	23.464	1381.803	1090.824
357.694	23.308	1381.134	1089.241
358.708	23.437	1379.534	1088.677
359.723	23.477	1378.396	1087.927
360.738	23.392	1377.687	1086.750
361.752	23.311	1376.596	1085.298
362.767	23.359	1375.583	1084.693
363.781	23.486	1374.901	1084.841
364.796	23.505	1373.903	1084.073
365.810	23.481	1373.301	1083.355
366.825	23.472	1372.765	1082.782
367.840	23.530	1371.971	1082.414
368.854	23.475	1371.020	1081.231
369.869	23.495	1370.839	1081.112
370.883	23.585	1370.039	1080.936
371.898	23.565	1369.342	1080.165
372.913	23.580	1368.597	1079.573
373.927	23.572	1367.848	1078.838
374.942	23.564	1367.017	1078.042
375.956	23.584	1366.335	1077.531
376.971	23.589	1365.647	1076.921
377.986	23.603	1364.963	1076.373
379.000	23.664	1364.177	1076.025
380.015	23.578	1363.549	1074.916
381.029	23.624	1362.625	1074.371
382.044	23.463	1362.086	1072.876
383.059	23.579	1361.271	1072.839
384.073	23.618	1360.257	1072.180
385.088	23.746	1359.918	1072.594
386.102	23.686	1359.626	1071.906
387.117	23.686	1358.970	1071.291
388.132	23.737	1358.081	1070.807
389.146	23.717	1357.507	1070.136
390.161	23.653	1356.455	1068.826
391.175	23.706	1355.967	1068.666
392.190	23.763	1355.138	1068.262
393.205	23.675	1354.524	1067.157
394.219	23.924	1353.392	1067.664
395.234	23.791	1352.133	1065.779
396.248	23.890	1351.051	1065.428
397.263	23.818	1349.757	1063.878
398.278	23.823	1348.997	1063.219
399.292	23.829	1348.117	1062.466
400.307	23.909	1347.200	1062.126
401.321	24.022	1345.787	1061.593
402.336	23.905	1344.935	1060.130
403.350	23.837	1344.155	1059.015
404.365	23.882	1343.243	1058.471
405.380	23.864	1342.830	1057.946
406.394	23.844	1342.060	1057.127
407.409	23.911	1340.923	1056.534
408.423	23.858	1340.989	1056.177
409.438	23.912	1339.991	1055.618
410.453	24.018	1339.079	1055.435
411.467	24.141	1338.029	1055.240
412.482	24.024	1337.932	1054.378
413.496	24.000	1337.118	1053.505
414.511	23.999	1336.397	1052.833
415.526	24.012	1335.688	1052.261
416.540	24.049	1334.360	1051.339
417.555	24.016	1333.910	1050.696
418.569	24.138	1333.221	1050.784
419.584	24.125	1332.973	1050.414
420.599	24.101	1332.403	1049.732
421.613	139.238	1432.406	1798.401
422.628	135.854	1446.956	1798.514
