DTS Sentinel unit serial number:	SN413079Multiplexer serial number:	ORYXHardware model number:	OX4-SRSoftware version number:	ORYX F/W v4.00 Oryx Data Collector v3.7.2.0data status	okinstallation	princeton_trtdifferential loss correction	single-endedforward channel	channel 4reverse channel	N/Adate	2019/09/10time	17:43:11forward acquisition time	60.00reverse acquisition time	0.00gamma	496.2192k internal	0.2296k external	0.2296temperature offset calibration	0.9942default loss term (dB/km)	0.3790temperature slope calibration	1.0000multiplexer offset coefficient	1.0000multiplexer slope coefficient	1.0000fibre end	0.00T internal ref (°C)	37.56T ext. ref 1 (°C)	-0.34T ext. ref 2 (°C)	30.84length (m)	temperature (°C)	Stokes	anti-Stokes-747.200	137.751	0.094	-0.126
-746.185	6.738	0.343	-0.261
-745.171	-64.018	-0.183	-0.076
-744.156	-66.412	-0.212	0.086
-743.142	-157.461	-0.063	0.004
-742.127	706.445	-0.168	0.453
-741.112	256.985	0.142	-0.249
-740.098	800.000	-0.102	0.413
-739.083	-144.730	0.283	0.027
-738.069	800.000	-0.018	-0.054
-737.054	390.787	0.099	0.209
-736.039	-88.260	0.202	-0.062
-735.025	92.019	-0.117	0.134
-734.010	144.358	0.193	-0.264
-732.996	-130.370	-0.378	0.052
-731.981	-200.000	0.034	-0.166
-730.966	-21.956	-0.027	-0.017
-729.952	-165.833	0.143	0.006
-728.937	-120.390	-0.167	0.029
-727.923	-94.480	0.335	0.093
-726.908	93.214	0.189	0.219
-725.894	78.879	-0.119	0.130
-724.879	160.053	0.103	-0.147
-723.864	-200.000	-0.001	-0.197
-722.850	-33.160	0.213	-0.121
-721.835	524.994	-0.094	0.225
-720.821	-92.182	0.235	0.068
-719.806	-104.961	-0.151	-0.035
-718.791	-1.658	-0.117	0.084
-717.777	-169.549	0.146	-0.005
-716.762	295.821	0.125	-0.233
-715.748	211.567	-0.064	0.102
-714.733	30.663	-0.094	0.082
-713.718	-6.451	-0.186	0.129
-712.704	800.000	0.042	-0.167
-711.689	-200.000	0.023	-0.192
-710.675	-200.000	0.011	-0.128
-709.660	504.430	0.089	-0.210
-708.645	-100.568	-0.419	-0.106
-707.631	-12.515	0.170	0.113
-706.616	409.642	-0.093	0.200
-705.602	-107.437	0.492	0.110
-704.587	386.318	0.161	-0.339
-703.572	-54.453	0.237	-0.110
-702.558	800.000	-0.064	-0.263
-701.543	-200.000	0.053	0.243
-700.529	-104.269	0.249	-0.059
-699.514	91.305	-0.088	0.101
-698.499	800.000	-0.093	-0.402
-697.485	43.139	-0.187	-0.174
-696.470	-82.233	-0.241	-0.080
-695.456	800.000	0.037	-0.126
-694.441	232.644	0.186	0.311
-693.426	-140.122	0.221	0.024
-692.412	-200.000	-0.015	0.210
-691.397	152.417	-0.179	0.249
-690.383	-200.000	0.008	0.097
-689.368	-98.842	-0.217	-0.056
-688.354	-37.305	0.198	-0.108
-687.339	-200.000	-0.031	0.226
-686.324	128.213	0.117	0.152
-685.310	351.821	0.030	0.060
-684.295	25.793	0.148	-0.125
-683.281	140.101	-0.036	-0.049
-682.266	323.398	0.151	0.294
-681.251	800.000	0.063	0.243
-680.237	128.515	-0.059	-0.077
-679.222	800.000	0.066	-0.238
-678.208	-51.946	-0.096	0.045
-677.193	-200.000	0.028	0.400
-676.178	-83.877	0.326	-0.106
-675.164	-92.526	-0.258	0.074
-674.149	-127.289	-0.319	0.047
-673.135	-50.405	-0.448	-0.215
-672.120	147.776	-0.205	-0.282
-671.105	-5.563	0.184	0.129
-670.091	36.413	-0.172	0.155
-669.076	383.197	-0.129	0.270
-668.062	-90.577	-0.122	-0.036
-667.047	50.965	-0.110	-0.106
-666.032	165.125	-0.037	0.053
-665.018	-200.000	-0.004	-0.079
-664.003	-200.000	-0.019	-0.317
-662.989	378.892	-0.033	0.070
-661.974	97.015	0.121	0.141
-660.959	582.111	0.101	-0.251
-659.945	-14.686	-0.226	0.148
-658.930	6.929	0.178	-0.135
-657.916	-22.229	-0.177	0.109
-656.901	782.870	-0.037	0.104
-655.886	93.560	0.089	0.102
-654.872	-200.000	0.041	-0.355
-653.857	115.819	-0.198	-0.247
-652.843	-84.870	-0.272	0.087
-651.828	800.000	-0.063	-0.270
-650.814	-86.435	-0.114	-0.036
-649.799	-129.250	-0.069	-0.010
-648.784	316.393	-0.101	-0.193
-647.770	674.721	-0.043	-0.113
-646.755	77.031	0.107	-0.116
-645.741	-200.000	-0.015	-0.091
-644.726	301.057	-0.189	-0.354
-643.711	51.912	-0.167	0.162
-642.697	173.505	-0.129	0.189
-641.682	8.081	0.154	-0.118
-640.668	18.399	0.133	-0.108
-639.653	-7.906	-0.050	-0.034
-638.638	50.602	-0.190	-0.182
-637.624	54.582	0.121	0.118
-636.609	-72.838	0.277	0.104
-635.595	-122.944	0.146	0.024
-634.580	800.000	-0.020	0.070
-633.565	-111.417	0.065	0.014
-632.551	-72.487	0.121	-0.045
-631.536	87.326	-0.128	-0.144
-630.522	83.892	0.217	0.241
-629.507	-200.000	-0.010	-0.145
-628.492	-143.153	0.128	0.013
-627.478	800.000	0.018	-0.068
-626.463	-200.000	-0.006	-0.142
-625.449	-12.758	-0.123	-0.082
-624.434	68.468	-0.144	0.150
-623.419	-200.000	-0.001	-0.345
-622.405	83.454	-0.165	-0.183
-621.390	640.241	0.012	-0.032
-620.376	-19.823	0.234	-0.147
-619.361	5.791	-0.092	0.069
-618.346	-82.901	-0.252	-0.083
-617.332	11.820	-0.092	-0.072
-616.317	68.107	0.244	0.253
-615.303	-200.000	0.002	0.289
-614.288	-4.565	0.129	-0.090
-613.273	-145.469	0.407	-0.037
-612.259	17.337	-0.137	-0.111
-611.244	-6.677	0.069	-0.048
-610.230	-2.223	-0.136	0.097
-609.215	224.037	-0.060	0.098
-608.201	388.368	0.106	-0.224
-607.186	-98.769	-0.019	0.005
-606.171	210.498	-0.089	0.142
-605.157	-120.281	-0.311	-0.054
-604.142	-88.868	-0.063	-0.019
-603.128	-27.645	-0.198	0.117
-602.113	-107.849	-0.368	-0.081
-601.098	-18.428	0.177	0.112
-600.084	-1.032	0.174	0.125
-599.069	-200.000	0.188	0.001
-598.055	-200.000	0.041	-0.203
-597.040	-101.788	0.151	-0.037
-596.025	-53.038	-0.207	-0.097
-595.011	-200.000	0.005	-0.076
-593.996	-109.669	-0.181	-0.039
-592.982	-43.682	-0.181	0.093
-591.967	40.533	-0.132	0.121
-590.952	-200.000	0.019	-0.254
-589.938	331.463	-0.131	0.257
-588.923	548.413	-0.057	0.137
-587.909	313.224	0.114	0.218
-586.894	140.912	0.175	0.235
-585.879	-200.000	-0.005	0.096
-584.865	24.626	0.191	-0.160
-583.850	-159.919	0.340	0.019
-582.836	85.355	-0.308	-0.343
-581.821	-200.000	0.006	0.271
-580.806	-200.000	-0.005	-0.046
-579.792	19.556	0.199	0.162
-578.777	196.171	0.023	0.035
-577.763	682.126	-0.057	0.150
-576.748	91.369	-0.180	0.205
-575.733	654.521	-0.021	-0.054
-574.719	-75.855	-0.076	0.027
-573.704	-104.288	-0.188	-0.044
-572.690	306.811	0.142	-0.269
-571.675	-200.000	-0.039	0.250
-570.661	-180.077	-0.174	0.004
-569.646	-98.654	-0.139	-0.036
-568.631	86.983	-0.136	-0.152
-567.617	297.332	0.067	-0.125
-566.602	52.032	-0.222	0.214
-565.588	167.624	-0.037	0.053
-564.573	-200.000	-0.044	-0.321
-563.558	-48.036	0.098	-0.048
-562.544	-200.000	-0.034	-0.269
-561.529	230.223	-0.137	0.227
-560.515	35.361	0.256	0.228
-559.500	-36.573	-0.082	0.045
-558.485	-19.695	0.160	0.100
-557.471	3.469	-0.124	-0.091
-556.456	-32.256	-0.202	0.114
-555.442	-200.000	0.026	0.252
-554.427	-57.742	0.167	-0.074
-553.412	784.372	-0.027	-0.075
-552.398	29.489	0.236	-0.203
-551.383	-4.230	0.266	-0.187
-550.369	99.661	0.220	0.258
-549.354	156.719	0.206	-0.289
-548.339	-95.643	-0.321	-0.087
-547.325	225.100	0.040	0.065
-546.310	-39.075	0.082	0.043
-545.296	-83.609	-0.109	-0.035
-544.281	29.615	0.052	-0.045
-543.266	-18.213	0.017	-0.011
-542.252	-40.882	-0.117	-0.061
-541.237	800.000	-0.070	-0.236
-540.223	-200.000	0.007	0.205
-539.208	-81.901	0.235	-0.078
-538.193	96.596	-0.124	-0.143
-537.179	-123.899	-0.136	-0.022
-536.164	-73.036	0.102	-0.038
-535.150	592.037	0.140	-0.350
-534.135	697.792	0.130	-0.347
-533.121	-131.745	-0.064	-0.009
-532.106	-200.000	-0.039	0.284
-531.091	-200.000	-0.016	0.124
-530.077	454.665	0.099	0.222
-529.062	-56.043	-0.306	-0.138
-528.048	-200.000	0.019	-0.092
-527.033	-117.990	-0.281	-0.051
-526.018	119.739	-0.186	-0.234
-525.004	241.346	0.118	0.200
-523.989	10.137	0.230	-0.177
-522.975	334.757	-0.066	0.129
-521.960	16.461	0.133	0.106
-520.945	415.960	-0.047	-0.103
-519.931	602.373	0.094	0.237
-518.916	-55.864	0.183	0.083
-517.902	-200.000	-0.003	0.274
-516.887	-30.527	0.090	-0.051
-515.872	228.430	-0.253	-0.417
-514.858	-200.000	0.013	-0.096
-513.843	66.454	0.046	-0.047
-512.829	-51.582	-0.168	0.079
-511.814	-63.336	-0.152	-0.063
-510.799	800.000	-0.019	-0.056
-509.785	-8.040	-0.410	0.280
-508.770	93.732	0.146	-0.167
-507.756	-120.006	-0.105	0.018
-506.741	-11.529	0.056	0.037
-505.726	-116.533	-0.092	0.017
-504.712	800.000	-0.003	0.010
-503.697	-18.420	-0.176	0.111
-502.683	-200.000	0.005	0.028
-501.668	800.000	0.044	-0.153
-500.653	-150.636	0.233	-0.018
-499.639	800.000	-0.093	-0.269
-498.624	-42.515	0.105	0.054
-497.610	-41.135	0.131	0.069
-496.595	101.756	0.106	-0.125
-495.581	-108.858	-0.363	-0.078
-494.566	209.678	0.196	0.312
-493.551	27.014	-0.210	0.178
-492.537	-197.054	0.149	-0.001
-491.522	800.000	0.066	-0.247
-490.508	27.683	-0.137	-0.116
-489.493	-43.988	-0.039	-0.020
-488.478	-200.000	-0.420	-0.001
-487.464	800.000	-0.096	-0.415
-486.449	610.340	-0.101	-0.256
-485.435	58.064	0.110	-0.109
-484.420	-200.000	-0.034	-0.431
-483.405	272.216	-0.101	0.180
-482.391	720.173	-0.065	0.174
-481.376	-116.839	-0.105	-0.019
-480.362	231.989	0.176	-0.292
-479.347	-5.780	-0.188	0.130
-478.332	-200.000	-0.050	0.292
-477.318	192.820	-0.046	-0.071
-476.303	34.427	0.066	0.058
-475.289	-200.000	-0.010	0.120
-474.274	800.000	-0.028	-0.088
-473.259	-200.000	0.005	0.129
-472.245	44.625	-0.306	0.284
-471.230	-61.445	0.195	0.083
-470.216	42.598	-0.114	0.105
-469.201	24.567	0.137	0.115
-468.186	-200.000	-0.044	0.326
-467.172	179.519	0.175	0.259
-466.157	-31.163	-0.197	-0.112
-465.143	-83.676	0.253	-0.082
-464.128	240.314	0.104	-0.175
-463.113	-200.000	-0.009	-0.222
-462.099	137.310	0.224	0.296
-461.084	-60.086	0.168	0.072
-460.070	800.000	0.062	-0.212
-459.055	96.779	0.243	-0.281
-458.040	-49.378	-0.148	-0.072
-457.026	-69.345	0.304	0.118
-456.011	152.517	-0.086	0.119
-454.997	-22.285	0.233	-0.143
-453.982	800.000	-0.062	-0.244
-452.968	-200.000	0.009	-0.182
-451.953	54.667	-0.153	0.149
-450.938	-200.000	-0.022	0.130
-449.924	-86.179	-0.121	-0.038
-448.909	288.523	-0.043	0.078
-447.895	-200.000	0.004	-0.218
-446.880	-200.000	0.008	0.091
-445.865	-23.750	-0.305	0.184
-444.851	190.075	-0.141	-0.214
-443.836	-76.136	-0.264	0.094
-442.822	-67.004	-0.281	-0.112
-441.807	-200.000	0.068	-0.447
-440.792	800.000	-0.076	0.289
-439.778	414.797	0.039	0.084
-438.763	-148.522	-0.246	0.020
-437.749	26.021	-0.095	0.080
-436.734	-200.000	0.025	0.193
-435.719	-200.000	0.030	-0.155
-434.705	480.237	-0.104	0.237
-433.690	-200.000	0.002	-0.102
-432.676	-82.959	-0.339	-0.110
-431.661	800.000	-0.054	0.193
-430.646	214.580	0.027	-0.042
-429.632	27.036	0.194	-0.164
-428.617	103.563	0.326	0.386
-427.603	-160.919	0.350	-0.019
-426.588	-60.725	0.181	0.077
-425.573	43.881	-0.080	-0.073
-424.559	-42.545	-0.230	-0.118
-423.544	54.140	0.400	-0.388
-422.530	68.892	-0.089	-0.092
-421.515	-200.000	-0.035	0.280
-420.500	-200.000	-0.020	-0.099
-419.486	800.000	-0.095	0.416
-418.471	-200.000	-0.015	-0.066
-417.457	-0.027	-0.072	-0.052
-416.442	-200.000	0.046	-0.215
-415.428	101.880	0.021	-0.024
-414.413	-113.369	-0.224	0.044
-413.398	22.897	-0.172	-0.142
-412.384	-199.731	-0.371	-0.002
-411.369	625.563	0.067	0.171
-410.355	63.778	-0.011	0.011
-409.340	-18.499	-0.337	-0.212
-408.325	-200.000	0.016	-0.275
-407.311	-200.000	0.050	-0.296
-406.296	6.430	-0.200	-0.150
-405.282	-183.219	-0.188	-0.003
-404.267	334.898	0.077	0.151
-403.252	257.786	0.172	-0.299
-402.238	-68.669	0.155	-0.060
-401.223	-112.641	-0.226	0.045
-400.209	-19.133	0.150	-0.094
-399.194	-186.598	-0.389	0.006
-398.179	-200.000	-0.018	-0.315
-397.165	-99.178	-0.012	0.003
-396.150	-111.444	-0.489	-0.100
-395.136	-200.000	0.001	-0.267
-394.121	-76.376	0.169	0.060
-393.106	800.000	-0.051	-0.207
-392.092	-39.393	-0.121	-0.064
-391.077	-182.026	0.121	-0.002
-390.063	-160.108	-0.263	0.014
-389.048	-200.000	-0.010	0.231
-388.033	800.000	0.064	0.277
-387.019	-78.525	-0.023	-0.008
-386.004	20.835	-0.101	-0.083
-384.990	129.292	0.242	0.311
-383.975	39.429	0.211	0.190
-382.960	-92.097	-0.081	-0.023
-381.946	-42.219	-0.098	-0.050
-380.931	320.213	-0.066	0.126
-379.917	-28.460	-0.105	0.061
-378.902	-154.374	0.152	-0.010
-377.888	212.753	-0.054	-0.086
-376.873	31.508	0.119	-0.103
-375.858	19.940	0.139	-0.113
-374.844	-44.369	0.105	0.053
-373.829	117.990	0.346	0.429
-372.815	-55.888	0.254	-0.114
-371.800	-110.703	-0.356	0.074
-370.785	44.017	0.135	-0.125
-369.771	15.082	0.145	0.114
-368.756	800.000	0.065	0.208
-367.742	550.691	-0.078	0.190
-366.727	-200.000	-0.012	-0.200
-365.712	800.000	-0.063	0.219
-364.698	-71.294	0.353	-0.133
-363.683	130.143	-0.236	-0.304
-362.669	-53.014	-0.316	-0.146
-361.654	105.499	-0.078	-0.093
-360.639	800.000	-0.049	-0.147
-359.625	115.792	0.119	0.146
-358.610	-152.068	0.116	0.009
-357.596	36.490	0.208	-0.184
-356.581	80.057	-0.136	0.147
-355.566	-149.914	-0.166	0.013
-354.552	800.000	-0.045	-0.154
-353.537	-200.000	0.014	0.262
-352.523	730.229	0.020	0.054
-351.508	-48.262	0.153	0.074
-350.493	11.296	0.327	0.252
-349.479	-103.200	0.056	-0.013
-348.464	243.879	0.210	0.355
-347.450	223.965	-0.215	-0.349
-346.435	-43.224	-0.273	-0.139
-345.420	707.084	0.156	0.413
-344.406	-21.825	-0.319	0.195
-343.391	-62.795	-0.096	-0.040
-342.377	-81.878	0.418	-0.138
-341.362	-156.988	-0.181	0.011
-340.348	110.267	0.167	0.202
-339.333	800.000	0.018	-0.072
-338.318	203.435	-0.089	0.138
-337.304	483.919	0.048	-0.109
-336.289	-69.743	-0.048	-0.018
-335.275	800.000	-0.043	-0.139
-334.260	-17.950	-0.213	-0.134
-333.245	-159.557	0.441	0.025
-332.231	-113.426	-0.169	-0.033
-331.216	53.308	-0.162	0.156
-330.202	292.446	-0.137	0.250
-329.187	-0.585	0.299	0.213
-328.172	404.252	0.026	0.056
-327.158	396.528	-0.056	-0.117
-326.143	73.728	-0.096	-0.101
-325.129	800.000	-0.020	-0.059
-324.114	-155.382	-0.299	-0.020
-323.099	800.000	0.026	-0.074
-322.085	-200.000	0.027	-0.143
-321.070	800.000	0.021	0.062
-320.056	800.000	-0.029	0.114
-319.041	266.152	0.086	0.151
-318.026	-200.000	-0.002	0.357
-317.012	524.855	0.078	-0.183
-315.997	-149.922	-0.326	-0.026
-314.983	-139.998	0.036	-0.004
-313.968	-54.692	0.123	0.056
-312.953	15.834	-0.077	-0.061
-311.939	-66.480	0.344	-0.137
-310.924	174.567	-0.268	0.390
-309.910	-91.395	-0.146	0.042
-308.895	-200.000	-0.023	0.105
-307.880	20.082	0.171	0.139
-306.866	123.250	0.106	-0.134
-305.851	777.784	-0.149	-0.409
-304.837	-110.481	0.291	-0.061
-303.822	738.175	-0.102	0.274
-302.807	3.973	0.105	0.077
-301.793	-80.935	0.255	0.085
-300.778	800.000	0.077	-0.259
-299.764	16.282	0.144	0.114
-298.749	-200.000	0.054	0.419
-297.735	5.355	0.097	0.072
-296.720	201.311	-0.223	0.345
-295.705	-80.756	0.111	0.037
-294.691	-92.506	0.345	-0.097
-293.676	-17.570	0.308	-0.195
-292.662	800.000	-0.039	0.146
-291.647	76.814	0.222	0.236
-290.632	95.914	0.216	-0.247
-289.618	45.432	0.246	-0.228
-288.603	-27.644	0.261	0.152
-287.589	-200.000	0.001	-0.084
-286.574	115.716	0.079	0.097
-285.559	-200.000	0.054	0.441
-284.545	-84.109	0.134	-0.043
-283.530	119.033	-0.169	0.210
-282.516	-71.850	-0.401	-0.150
-281.501	62.486	-0.216	-0.216
-280.486	175.493	-0.049	-0.071
-279.472	-151.262	-0.242	-0.018
-278.457	39.491	0.122	-0.109
-277.443	699.383	0.039	-0.103
-276.428	49.133	0.151	0.143
-275.413	64.362	-0.048	-0.049
-274.399	800.000	-0.050	0.214
-273.384	437.195	-0.161	-0.351
-272.370	-73.727	0.445	0.162
-271.355	504.311	-0.043	-0.101
-270.340	800.000	-0.017	-0.063
-269.326	-74.165	0.263	0.095
-268.311	800.000	-0.053	-0.164
-267.297	143.197	0.171	0.228
-266.282	136.638	0.156	-0.204
-265.267	137.385	0.144	0.189
-264.253	248.083	0.105	0.178
-263.238	-200.000	0.038	0.200
-262.224	112.700	-0.267	0.325
-261.209	-146.743	-0.042	-0.004
-260.195	77.748	-0.121	-0.130
-259.180	800.000	-0.036	0.138
-258.165	132.501	-0.109	-0.141
-257.151	121.031	-0.163	0.203
-256.136	463.086	0.143	-0.321
-255.122	-192.572	-0.312	-0.003
-254.107	216.030	-0.157	0.250
-253.092	789.817	-0.046	-0.127
-252.078	60.326	0.241	0.239
-251.063	-200.000	-0.046	-0.463
-250.049	156.622	0.162	0.224
-249.034	-45.614	0.140	-0.069
-248.019	-200.000	0.034	-0.442
-247.005	-200.000	-0.004	-0.056
-245.990	-119.243	0.411	-0.072
-244.976	800.000	-0.068	-0.227
-243.961	-18.813	-0.228	-0.142
-242.946	542.503	-0.077	-0.183
-241.932	-107.983	-0.298	-0.065
-240.917	125.989	-0.046	0.058
-239.903	46.304	-0.145	0.135
-238.888	74.983	0.139	0.146
-237.873	36.213	0.142	0.125
-236.859	-200.000	0.041	-0.228
-235.844	-37.544	-0.192	0.102
-234.830	-200.000	-0.038	0.173
-233.815	-127.473	-0.174	0.025
-232.800	-200.000	0.012	-0.332
-231.786	650.582	0.056	-0.144
-230.771	-200.000	0.039	0.247
-229.757	-200.000	0.054	0.292
-228.742	227.328	-0.090	0.146
-227.727	48.358	-0.207	-0.194
-226.713	277.734	0.135	0.240
-225.698	242.809	0.022	-0.037
-224.684	712.452	0.093	-0.247
-223.669	163.878	0.130	-0.184
-222.655	240.503	0.195	0.326
-221.640	-200.000	-0.016	0.155
-220.625	16.760	0.101	-0.080
-219.611	-79.446	0.152	0.051
-218.596	800.000	0.073	0.246
-217.582	-200.000	0.000	-0.326
-216.567	-14.603	0.405	-0.261
-215.552	69.373	0.233	-0.240
-214.538	194.185	0.111	0.168
-213.523	-57.031	0.332	0.146
-212.509	163.628	-0.275	-0.387
-211.494	127.250	-0.059	-0.075
-210.479	-108.952	0.095	0.020
-209.465	-200.000	0.013	0.250
-208.450	-200.000	0.003	-0.108
-207.436	349.073	0.195	0.385
-206.421	-119.121	-0.272	-0.048
-205.406	-150.296	-0.242	0.019
-204.392	-82.954	0.099	0.032
-203.377	457.688	0.058	0.128
-202.363	0.539	0.314	0.225
-201.348	26.141	0.107	-0.089
-200.333	-91.858	-0.232	0.066
-199.319	3.260	-0.201	0.146
-198.304	139.356	0.246	-0.324
-197.290	6.178	0.066	-0.049
-196.275	79.279	0.282	0.302
-195.260	-200.000	0.023	0.146
-194.246	800.000	-0.015	-0.063
-193.231	-118.006	0.244	-0.044
-192.217	-80.230	-0.087	0.029
-191.202	-200.000	-0.034	0.331
-190.187	43.140	0.270	0.246
-189.173	-154.121	0.142	-0.010
-188.158	708.420	-0.099	0.261
-187.144	265.695	0.036	0.063
-186.129	-75.772	-0.227	0.080
-185.114	-150.910	0.282	-0.021
-184.100	-62.530	0.220	0.091
-183.085	800.000	-0.102	-0.290
-182.071	255.071	-0.035	-0.060
-181.056	-79.152	-0.145	-0.049
-180.042	-92.322	0.260	-0.073
-179.027	-68.743	0.171	-0.066
-178.012	-39.862	-0.186	-0.097
-176.998	-200.000	0.010	-0.121
-175.983	-114.683	-0.211	0.040
-174.969	0.134	0.085	0.061
-173.954	-200.000	-0.007	-0.263
-172.939	-63.073	-0.398	0.164
-171.925	800.000	-0.050	-0.147
-170.910	-200.000	-0.047	-0.271
-169.896	39.822	-0.035	0.032
-168.881	-23.299	0.109	0.066
-167.866	16.568	0.473	0.374
-166.852	-12.290	0.292	-0.191
-165.837	457.419	-0.092	-0.205
-164.823	326.098	0.021	-0.041
-163.808	115.536	0.226	0.276
-162.793	21.949	-0.222	0.181
-161.779	-145.414	-0.418	-0.038
-160.764	430.933	-0.086	0.187
-159.750	-112.889	-0.231	0.046
-158.735	65.972	0.028	0.028
-157.720	3.254	0.378	0.275
-156.706	800.000	0.031	-0.097
-155.691	-200.000	-0.015	0.099
-154.677	157.792	-0.184	-0.255
-153.662	114.733	-0.192	-0.234
-152.647	34.002	-0.213	0.185
-151.633	-7.832	-0.156	0.105
-150.618	-70.842	0.233	-0.088
-149.604	10.134	0.185	-0.141
-148.589	-200.000	-0.004	0.218
-147.574	467.170	-0.144	0.323
-146.560	-200.000	0.013	-0.432
-145.545	800.000	0.105	-0.298
-144.531	113.602	0.173	-0.209
-143.516	-200.000	-0.036	-0.317
-142.502	-89.799	0.068	-0.020
-141.487	169.322	0.072	0.103
-140.472	471.466	0.131	-0.295
-139.458	19.886	-0.243	0.195
-138.443	800.000	-0.032	0.091
-137.429	-125.551	-0.131	-0.020
-136.414	105.511	0.138	0.163
-135.399	28.457	-0.264	-0.223
-134.385	467.571	-0.099	0.222
-133.370	-107.484	-0.029	0.006
-132.356	800.000	-0.048	0.150
-131.341	-90.632	0.043	-0.012
-130.326	-200.000	-0.004	0.218
-129.312	-34.917	0.248	-0.135
-128.297	800.000	0.089	0.279
-127.283	-112.050	-0.116	0.023
-126.268	4.894	-0.372	-0.273
-125.253	-148.309	0.492	0.040
-124.239	-200.000	0.009	-0.066
-123.224	-45.682	0.192	-0.095
-122.210	-105.698	0.347	0.078
-121.195	-200.000	-0.012	0.071
-120.180	-200.000	0.022	-0.227
-119.166	22.001	0.301	-0.245
-118.151	543.581	0.084	0.200
-117.137	800.000	-0.115	0.325
-116.122	67.530	-0.320	-0.326
-115.107	291.037	-0.158	0.287
-114.093	0.302	-0.223	0.159
-113.078	-28.283	0.223	0.128
-112.064	711.003	-0.079	0.208
-111.049	-200.000	0.051	0.282
-110.034	-43.147	0.165	-0.083
-109.020	86.847	-0.067	-0.074
-108.005	-143.428	-0.071	-0.007
-106.991	22.892	0.221	0.181
-105.976	-103.295	0.178	-0.042
-104.962	236.909	0.117	0.193
-103.947	328.892	0.078	-0.149
-102.932	-48.522	0.232	-0.111
-101.918	126.345	-0.022	-0.028
-100.903	-20.606	-0.044	0.027
-99.889	295.478	0.099	0.180
-98.874	-51.453	0.272	-0.127
-97.859	-40.951	0.137	-0.071
-96.845	-100.289	0.188	-0.046
-95.830	-154.598	0.263	-0.017
-94.816	34.801	0.165	0.144
-93.801	127.483	-0.171	0.216
-92.786	-121.702	-0.071	0.012
-91.772	740.199	-0.170	-0.455
-90.757	352.534	0.075	-0.149
-89.743	800.000	-0.068	-0.266
-88.728	199.424	0.065	0.099
-87.713	-100.829	0.045	0.011
-86.699	17.001	-0.190	-0.150
-85.684	-200.000	-0.079	0.390
-84.670	-200.000	0.015	-0.103
-83.655	740.372	-0.063	-0.170
-82.640	-200.000	0.030	-0.185
-81.626	-114.880	0.196	0.037
-80.611	-116.045	-0.264	-0.049
-79.597	187.825	0.153	0.228
-78.582	-115.754	0.284	-0.053
-77.567	-134.767	0.373	-0.045
-76.553	11.873	0.127	0.097
-75.538	-200.000	-0.021	-0.278
-74.524	375.235	0.088	-0.178
-73.509	21.179	0.048	0.038
-72.494	-106.982	0.113	0.025
-71.480	-85.256	0.111	-0.034
-70.465	68.330	0.050	0.051
-69.451	-200.000	-0.059	-0.398
-68.436	647.549	0.117	-0.296
-67.422	135.062	-0.088	0.114
-66.407	-42.574	0.331	0.168
-65.392	304.139	-0.083	-0.153
-64.378	270.195	-0.049	0.086
-63.363	-155.810	0.073	0.005
-62.349	-136.229	0.096	-0.011
-61.334	172.000	-0.703	-1.004
-60.319	2.717	0.214	0.154
-59.305	800.000	-0.301	-1.053
-58.290	417.939	0.354	0.753
-57.276	137.355	0.838	1.091
-56.261	-200.000	86.259	502.174
-55.246	537.402	1378.533	3256.701
-54.232	178.676	2634.110	3827.250
-53.217	109.878	2398.178	2860.524
-52.203	43.901	2138.469	1947.910
-51.188	39.358	2045.960	1821.647
-50.173	37.786	2025.779	1789.184
-49.159	50.809	2070.566	1949.833
-48.144	53.899	2090.311	1997.041
-47.130	40.108	2050.661	1832.495
-46.115	37.630	2039.508	1799.587
-45.100	37.536	2036.878	1796.323
-44.086	37.430	2034.934	1793.561
-43.071	37.503	2031.764	1791.370
-42.057	37.466	2030.199	1789.577
-41.042	37.507	2027.813	1787.780
-40.027	37.442	2025.917	1785.438
-39.013	37.503	2023.529	1783.820
-37.998	37.542	2021.922	1782.691
-36.984	37.511	2020.448	1781.035
-35.969	37.471	2018.810	1779.158
-34.954	37.565	2016.208	1777.650
-33.940	37.551	2015.191	1776.556
-32.925	37.545	2013.645	1775.071
-31.911	37.606	2011.631	1773.785
-30.896	37.643	2009.697	1772.345
-29.881	37.577	2008.430	1770.550
-28.867	37.639	2007.070	1769.851
-27.852	37.661	2005.294	1768.412
-26.838	37.616	2003.617	1766.457
-25.823	37.602	2001.681	1764.549
-24.809	37.548	2000.095	1762.591
-23.794	37.674	1997.465	1761.348
-22.779	37.646	1995.656	1759.426
-21.765	37.609	1994.356	1757.878
-20.750	37.583	1992.388	1755.836
-19.736	37.515	1991.461	1754.340
-18.721	37.566	1989.982	1753.427
-17.706	37.577	1987.798	1751.535
-16.692	37.663	1985.838	1750.503
-15.677	37.537	1984.780	1748.371
-14.663	37.564	1983.130	1747.092
-13.648	37.589	1981.748	1746.032
-12.633	37.551	1980.868	1744.840
-11.619	37.640	1978.627	1743.602
-10.604	37.511	1978.371	1742.151
-9.590	37.492	1976.546	1740.303
-8.575	37.601	1974.711	1739.589
-7.560	37.501	1973.647	1737.694
-6.546	37.443	1972.508	1736.105
-5.531	37.519	1971.129	1735.496
-4.517	37.607	1969.662	1734.919
-3.502	37.602	1968.614	1733.884
-2.487	37.561	1967.222	1732.224
-1.473	37.577	1966.355	1731.533
-0.458	37.701	1961.573	1728.356
0.556	34.993	1941.509	1699.245
1.571	30.429	1920.064	1640.127
2.586	25.779	1941.386	1616.571
3.600	24.349	1978.340	1634.105
4.615	23.537	1974.603	1623.439
5.629	17.962	1869.849	1488.727
6.644	6.682	1742.109	1294.803
7.659	0.395	1698.292	1211.718
8.673	-0.205	1694.010	1203.751
9.688	-0.277	1692.838	1202.235
10.702	-0.370	1691.807	1200.653
11.717	-0.509	1688.740	1197.260
12.731	-0.201	1687.675	1198.851
13.746	6.408	1704.617	1263.958
14.761	15.284	1724.236	1350.164
15.775	17.695	1726.571	1371.288
16.790	17.121	1724.091	1364.586
17.804	17.146	1723.641	1364.305
18.819	17.152	1722.793	1363.565
19.834	17.260	1722.401	1364.003
20.848	17.360	1721.498	1363.964
21.863	17.430	1720.343	1363.495
22.877	17.378	1719.500	1362.289
23.892	17.470	1718.019	1361.727
24.907	17.437	1718.002	1361.327
25.921	17.506	1716.228	1360.352
26.936	17.369	1715.464	1358.532
27.950	17.389	1714.413	1357.745
28.965	17.427	1714.082	1357.661
29.980	17.438	1712.588	1356.451
30.994	17.388	1711.542	1355.098
32.009	17.453	1709.611	1353.969
33.023	17.353	1708.785	1352.399
34.038	17.361	1707.820	1351.582
35.053	17.429	1706.520	1350.972
36.067	17.394	1705.781	1349.987
37.082	17.499	1704.367	1349.580
38.096	17.463	1703.626	1348.595
39.111	17.461	1702.646	1347.682
40.126	17.389	1701.907	1346.404
41.140	17.438	1700.662	1345.689
42.155	17.451	1699.371	1344.654
43.169	17.436	1698.321	1343.587
44.184	17.451	1697.503	1342.937
45.199	17.384	1695.943	1341.054
46.213	17.415	1695.035	1340.462
47.228	17.426	1693.823	1339.477
48.242	17.431	1692.363	1338.239
49.257	17.435	1691.036	1337.106
50.271	17.341	1690.451	1335.781
51.286	17.472	1689.011	1335.557
52.301	17.430	1687.396	1333.834
53.315	17.424	1685.765	1332.373
54.330	17.418	1684.813	1331.456
55.344	17.362	1683.386	1329.777
56.359	17.476	1681.849	1329.336
57.374	17.387	1681.033	1327.875
58.388	17.365	1679.885	1326.679
59.403	17.404	1678.340	1325.646
60.417	17.364	1677.037	1324.192
61.432	17.442	1675.706	1323.632
62.447	17.470	1674.467	1322.748
63.461	17.474	1673.358	1321.791
64.476	17.471	1672.480	1320.954
65.490	17.418	1671.242	1319.450
66.505	17.414	1669.908	1318.251
67.520	17.509	1669.131	1318.252
68.534	17.367	1668.251	1316.346
69.549	17.443	1666.858	1315.715
70.563	17.440	1665.229	1314.292
71.578	17.454	1663.818	1313.168
72.593	17.459	1663.286	1312.668
73.607	17.440	1662.590	1311.855
74.622	17.490	1661.058	1310.921
75.636	17.403	1660.310	1309.543
76.651	17.481	1658.860	1308.884
77.666	17.487	1658.207	1308.295
78.680	17.425	1657.483	1307.138
79.695	17.476	1656.083	1306.304
80.709	17.403	1655.572	1305.225
81.724	17.468	1654.208	1304.531
82.739	17.493	1652.932	1303.608
83.753	17.476	1652.429	1302.960
84.768	17.472	1651.081	1301.750
85.782	17.437	1650.346	1300.789
86.797	17.473	1649.063	1299.938
87.812	17.498	1647.824	1299.040
88.826	17.520	1646.496	1298.045
89.841	17.473	1645.625	1296.884
90.855	17.483	1644.377	1295.864
91.870	17.424	1643.666	1294.743
92.884	17.370	1642.894	1293.605
93.899	17.486	1641.393	1293.188
94.914	17.524	1639.994	1292.260
95.928	17.411	1638.792	1290.344
96.943	17.520	1637.059	1289.694
97.957	17.528	1635.252	1288.214
98.972	17.406	1634.431	1286.530
99.987	17.529	1633.175	1286.360
101.001	17.563	1631.071	1284.845
102.016	17.443	1629.696	1282.740
103.030	17.454	1627.599	1281.063
104.045	17.509	1626.160	1280.225
105.060	17.436	1625.013	1278.666
106.074	17.516	1623.664	1278.090
107.089	17.469	1622.011	1276.321
108.103	17.467	1620.586	1275.072
109.118	17.462	1619.748	1274.268
110.133	17.469	1617.905	1272.752
111.147	17.542	1616.521	1272.094
112.162	17.492	1615.774	1271.024
113.176	17.615	1613.600	1270.121
114.191	17.555	1612.754	1268.895
115.206	17.529	1611.273	1267.420
116.220	17.507	1610.105	1266.230
117.235	17.584	1608.792	1265.655
118.249	17.489	1607.417	1263.757
119.264	17.483	1606.480	1262.861
120.279	17.620	1604.041	1261.851
121.293	17.521	1602.982	1260.174
122.308	17.575	1601.657	1259.418
123.322	17.574	1599.822	1257.857
124.337	17.603	1598.331	1256.785
125.352	17.595	1597.094	1255.646
126.366	17.573	1596.108	1254.594
127.381	17.562	1595.142	1253.641
128.395	17.604	1594.155	1253.067
129.410	17.663	1592.266	1251.908
130.424	17.582	1591.652	1250.713
131.439	17.618	1589.633	1249.283
132.454	17.607	1588.074	1247.870
133.468	17.595	1586.330	1246.295
134.483	17.595	1585.111	1245.230
135.497	17.583	1584.030	1244.183
136.512	17.632	1582.438	1243.183
137.527	17.527	1581.324	1241.430
138.541	17.648	1579.579	1240.829
139.556	17.613	1578.312	1239.473
140.570	17.616	1576.912	1238.280
141.585	17.684	1575.108	1237.251
142.600	17.614	1574.022	1235.783
143.614	17.668	1572.712	1235.033
144.629	17.681	1571.813	1234.316
145.643	17.561	1570.208	1232.080
146.658	17.552	1569.343	1231.224
147.673	17.479	1567.708	1229.308
148.687	17.487	1566.355	1228.190
149.702	17.597	1564.658	1227.548
150.716	17.542	1563.277	1225.957
151.731	17.538	1562.340	1225.088
152.746	17.666	1560.721	1224.629
153.760	17.612	1559.525	1223.196
154.775	17.545	1558.219	1221.578
155.789	17.728	1556.583	1221.501
156.804	17.666	1555.642	1220.211
157.819	17.600	1554.125	1218.437
158.833	17.582	1553.579	1217.776
159.848	17.600	1552.312	1216.802
160.862	17.658	1550.842	1215.955
161.877	17.709	1549.508	1215.169
162.892	17.672	1548.728	1214.186
163.906	17.698	1547.521	1213.319
164.921	17.623	1546.680	1212.015
165.935	17.615	1545.814	1211.169
166.950	17.682	1544.882	1210.811
167.964	17.621	1543.790	1209.414
168.979	17.701	1542.201	1208.629
169.994	17.641	1541.513	1207.556
171.008	17.641	1540.740	1206.844
172.023	17.687	1539.567	1206.148
173.037	17.717	1538.318	1205.270
174.052	17.637	1537.560	1204.009
175.067	17.566	1536.121	1202.276
176.081	17.702	1535.259	1202.455
177.096	17.727	1534.215	1201.702
178.110	17.758	1532.634	1200.578
179.125	17.679	1532.203	1199.577
180.140	17.775	1530.583	1198.881
181.154	17.743	1530.197	1198.248
182.169	17.861	1528.824	1197.889
183.183	17.657	1528.210	1195.870
184.198	17.671	1527.090	1194.986
185.213	17.788	1526.097	1194.924
186.227	17.807	1525.211	1194.257
187.242	17.756	1524.204	1193.011
188.256	17.814	1523.429	1192.701
189.271	17.765	1522.360	1191.416
190.286	17.798	1521.242	1190.667
191.300	17.749	1520.671	1189.771
192.315	17.770	1519.884	1189.196
193.329	17.760	1518.937	1188.286
194.344	17.721	1517.850	1187.056
195.359	17.821	1516.792	1186.822
196.373	17.841	1515.632	1185.949
197.388	17.783	1514.790	1184.777
198.402	17.728	1513.682	1183.425
199.417	17.706	1512.605	1182.325
200.432	17.728	1511.652	1181.629
201.446	17.802	1511.198	1181.681
202.461	17.797	1509.654	1180.334
203.475	17.833	1508.249	1179.383
204.490	17.707	1507.931	1178.157
205.504	17.742	1507.360	1177.848
206.519	17.763	1505.712	1176.606
207.534	17.839	1504.882	1176.377
208.548	17.827	1504.054	1175.541
209.563	17.785	1503.417	1174.645
210.577	17.810	1502.264	1173.819
211.592	17.788	1501.303	1172.807
212.607	17.795	1500.307	1171.976
213.621	17.798	1499.824	1171.515
214.636	17.956	1498.606	1171.543
215.650	17.842	1498.356	1170.461
216.665	17.906	1497.392	1170.048
217.680	17.947	1496.739	1169.716
218.694	17.911	1495.726	1168.569
219.709	17.959	1494.610	1167.924
220.723	17.942	1493.927	1167.171
221.738	17.889	1493.071	1166.037
222.753	17.890	1492.027	1165.124
223.767	17.781	1491.322	1163.726
224.782	17.869	1489.931	1163.136
225.796	17.864	1489.207	1162.435
226.811	17.885	1488.736	1162.107
227.826	17.820	1487.912	1160.922
228.840	17.903	1487.022	1160.685
229.855	17.802	1486.377	1159.396
230.869	17.884	1485.426	1159.111
231.884	17.954	1483.891	1158.280
232.899	17.975	1482.563	1157.287
233.913	17.897	1482.098	1156.289
234.928	17.808	1481.130	1154.829
235.942	17.906	1479.806	1154.362
236.957	17.954	1478.900	1153.879
237.972	18.099	1477.579	1153.725
238.986	17.967	1476.405	1151.814
240.001	17.935	1475.844	1151.058
241.015	18.029	1474.597	1150.613
242.030	18.004	1473.946	1149.835
243.045	18.073	1472.841	1149.340
244.059	18.095	1472.055	1148.768
245.074	18.089	1471.097	1147.880
246.088	18.094	1470.603	1147.430
247.103	18.186	1469.519	1147.096
248.117	18.099	1469.189	1146.153
249.132	18.061	1468.080	1144.932
250.147	18.107	1467.222	1144.470
251.161	18.132	1466.674	1144.110
252.176	18.132	1465.840	1143.359
253.190	18.112	1465.328	1142.726
254.205	18.092	1464.199	1141.611
255.220	18.198	1463.430	1141.615
256.234	18.123	1462.748	1140.484
257.249	18.093	1462.051	1139.639
258.263	18.211	1460.717	1139.287
259.278	18.081	1460.323	1138.008
260.293	18.224	1459.205	1137.990
261.307	18.279	1458.437	1137.654
262.322	18.235	1457.861	1136.810
263.336	18.217	1457.680	1136.450
264.351	18.284	1455.717	1135.267
265.366	18.299	1454.931	1134.648
266.380	18.224	1454.299	1133.558
267.395	18.139	1453.454	1132.236
268.409	18.309	1452.457	1132.483
269.424	18.305	1451.511	1131.625
270.439	18.216	1450.994	1130.530
271.453	18.324	1449.520	1129.998
272.468	18.294	1448.735	1129.084
273.482	18.217	1448.559	1128.341
274.497	18.273	1447.475	1127.768
275.512	18.333	1446.313	1127.152
276.526	18.369	1445.455	1126.626
277.541	18.427	1444.445	1126.115
278.555	18.309	1443.929	1124.842
279.570	18.320	1442.953	1124.053
280.585	18.377	1442.398	1123.893
281.599	18.364	1441.142	1122.735
282.614	18.450	1440.269	1122.518
283.628	18.383	1439.034	1121.016
284.643	18.326	1438.625	1120.224
285.657	18.409	1437.442	1119.748
286.672	18.329	1436.921	1118.718
287.687	18.340	1435.553	1117.625
288.701	18.322	1434.905	1116.905
289.716	18.362	1434.129	1116.462
290.730	18.414	1433.516	1116.230
291.745	18.394	1432.271	1115.031
292.760	18.464	1431.569	1114.843
293.774	18.461	1430.365	1113.783
294.789	18.537	1429.337	1113.378
295.803	18.482	1428.648	1112.384
296.818	18.583	1427.513	1112.059
297.833	18.486	1426.583	1110.606
298.847	18.465	1425.859	1109.808
299.862	18.496	1425.341	1109.509
300.876	18.574	1424.033	1108.895
301.891	18.410	1423.569	1107.374
302.906	18.488	1422.756	1107.148
303.920	18.543	1422.356	1107.093
304.935	18.584	1421.642	1106.708
305.949	18.596	1420.227	1105.584
306.964	18.563	1419.674	1104.846
307.979	18.640	1418.230	1104.117
308.993	18.585	1417.885	1103.396
310.008	18.587	1416.872	1102.528
311.022	18.621	1415.471	1101.554
312.037	18.630	1414.751	1100.953
313.052	18.703	1414.026	1100.763
314.066	18.577	1413.210	1099.220
315.081	18.669	1411.521	1098.402
316.095	18.642	1410.993	1097.717
317.110	18.634	1410.363	1097.084
318.125	18.636	1409.321	1096.188
319.139	18.679	1408.477	1095.709
320.154	18.737	1407.198	1094.984
321.168	18.691	1406.130	1093.764
322.183	18.687	1405.620	1093.246
323.197	18.764	1404.967	1093.129
324.212	18.724	1403.761	1091.842
325.227	18.701	1403.271	1091.219
326.241	18.748	1401.799	1090.277
327.256	18.810	1401.242	1090.136
328.270	18.795	1400.253	1089.176
329.285	18.721	1400.188	1088.559
330.300	18.826	1398.982	1088.192
331.314	18.781	1398.009	1087.052
332.329	18.804	1397.517	1086.723
333.343	18.787	1396.249	1085.531
334.358	18.815	1395.475	1085.011
335.373	18.883	1394.955	1084.938
336.387	18.802	1394.269	1083.800
337.402	18.846	1393.344	1083.264
338.416	18.893	1392.797	1083.035
339.431	18.853	1392.522	1082.477
340.446	18.836	1391.676	1081.614
341.460	18.886	1390.451	1080.883
342.475	18.859	1389.667	1080.004
343.489	18.971	1388.487	1079.694
344.504	18.862	1387.836	1078.412
345.519	19.006	1386.714	1078.348
346.533	18.978	1385.679	1077.272
347.548	19.036	1384.650	1076.736
348.562	19.022	1383.631	1075.766
349.577	18.882	1383.731	1074.869
350.592	19.066	1382.646	1075.084
351.606	19.009	1381.970	1074.104
352.621	18.951	1380.703	1072.664
353.635	18.932	1379.552	1071.555
354.650	18.991	1378.804	1071.247
355.665	19.047	1378.201	1071.034
356.679	19.038	1377.324	1070.198
357.694	18.980	1376.103	1068.797
358.708	18.948	1375.133	1067.751
359.723	19.006	1374.207	1067.298
360.738	18.966	1372.844	1065.894
361.752	18.979	1371.902	1065.149
362.767	18.990	1370.884	1064.337
363.781	19.046	1369.585	1063.576
364.796	19.026	1369.156	1063.027
365.810	19.150	1368.393	1063.105
366.825	19.095	1367.944	1062.323
367.840	19.034	1367.091	1061.192
368.854	19.099	1366.132	1060.750
369.869	19.110	1365.771	1060.447
370.883	19.245	1364.715	1060.365
371.898	19.091	1364.558	1059.199
372.913	19.165	1363.548	1058.775
373.927	19.160	1362.870	1058.125
374.942	19.276	1361.966	1058.042
375.956	19.201	1361.280	1056.958
376.971	19.220	1360.497	1056.374
377.986	19.221	1359.652	1055.629
379.000	19.283	1358.306	1054.871
380.015	19.204	1357.726	1053.845
381.029	19.279	1357.057	1053.687
382.044	19.312	1356.147	1053.088
383.059	19.286	1356.003	1052.726
384.073	19.219	1355.776	1052.048
385.088	19.323	1354.848	1051.872
386.102	19.315	1353.722	1050.855
387.117	19.355	1352.932	1050.394
388.132	19.311	1352.668	1049.826
389.146	19.373	1351.502	1049.205
390.161	19.384	1350.601	1048.479
391.175	19.388	1350.486	1048.323
392.190	19.240	1349.852	1046.839
393.205	19.423	1348.574	1046.864
394.219	19.338	1347.417	1045.358
395.234	19.413	1345.962	1044.592
396.248	19.431	1345.167	1043.993
397.263	19.413	1343.682	1042.639
398.278	19.460	1343.090	1042.372
399.292	19.539	1341.312	1041.376
400.307	19.596	1340.462	1040.967
401.321	19.494	1339.940	1039.852
402.336	19.479	1338.773	1038.765
403.350	19.501	1337.952	1038.171
404.365	19.533	1336.813	1037.384
405.380	19.579	1335.922	1036.877
406.394	19.491	1335.530	1035.952
407.409	19.563	1334.747	1035.687
408.423	19.579	1333.962	1035.082
409.438	19.630	1333.232	1034.727
410.453	19.597	1332.475	1033.853
411.467	19.582	1331.430	1032.862
412.482	19.528	1331.557	1032.546
413.496	19.613	1330.571	1032.198
414.511	19.578	1329.594	1031.136
415.526	19.623	1328.438	1030.419
416.540	19.644	1327.815	1029.972
417.555	19.681	1327.175	1029.601
418.569	19.653	1326.667	1028.952
419.584	19.651	1326.216	1028.496
420.599	19.661	1325.888	1028.210
421.613	134.563	1423.763	1779.882
422.628	131.309	1438.011	1780.023
