DTS Sentinel unit serial number:	SN413079Multiplexer serial number:	ORYXHardware model number:	OX4-SRSoftware version number:	ORYX F/W v4.00 Oryx Data Collector v3.7.2.0data status	okinstallation	princeton_trtdifferential loss correction	single-endedforward channel	channel 3reverse channel	N/Adate	2019/09/17time	11:28:35forward acquisition time	60.00reverse acquisition time	0.00gamma	496.2192k internal	0.2322k external	0.2322temperature offset calibration	0.9955default loss term (dB/km)	0.3790temperature slope calibration	1.0000multiplexer offset coefficient	1.0000multiplexer slope coefficient	1.0000fibre end	0.00T internal ref (°C)	30.64T ext. ref 1 (°C)	0.34T ext. ref 2 (°C)	26.42length (m)	temperature (°C)	Stokes	anti-Stokes-747.200	621.659	-0.055	0.139
-746.185	-133.977	-0.347	-0.043
-745.171	-29.705	-0.176	-0.102
-744.156	19.500	-0.053	0.043
-743.142	-200.000	0.014	-0.138
-742.127	-93.792	0.145	0.040
-741.112	800.000	0.096	-0.277
-740.098	66.444	-0.172	-0.176
-739.083	-200.000	0.036	0.177
-738.069	793.844	-0.020	-0.056
-737.054	800.000	0.020	-0.060
-736.039	-96.032	-0.115	0.031
-735.025	-18.460	-0.011	-0.007
-734.010	73.082	-0.227	-0.239
-732.996	-32.741	0.168	-0.094
-731.981	-200.000	0.006	-0.199
-730.966	760.518	-0.090	-0.245
-729.952	38.618	-0.120	0.108
-728.937	-97.280	-0.217	-0.057
-727.923	272.735	0.182	-0.324
-726.908	-200.000	-0.021	-0.196
-725.894	284.053	0.090	-0.163
-724.879	101.456	-0.208	-0.245
-723.864	-71.105	0.154	-0.059
-722.850	-16.379	-0.197	-0.126
-721.835	-103.722	0.057	-0.013
-720.821	113.792	-0.235	0.289
-719.806	-88.745	-0.274	-0.082
-718.791	-62.463	-0.309	-0.130
-717.777	-122.659	-0.224	-0.037
-716.762	-200.000	-0.006	-0.213
-715.748	-40.184	-0.254	0.134
-714.733	-74.755	0.022	-0.008
-713.718	-128.029	-0.219	0.032
-712.704	-132.614	0.210	0.027
-711.689	-56.075	0.311	-0.140
-710.675	800.000	0.073	-0.243
-709.660	-96.767	-0.381	-0.101
-708.645	-144.487	-0.249	-0.023
-707.631	351.929	-0.105	-0.209
-706.616	-200.000	-0.004	-0.224
-705.602	-59.804	-0.101	-0.044
-704.587	1.241	-0.153	-0.111
-703.572	344.986	0.013	0.025
-702.558	177.917	0.035	-0.052
-701.543	186.411	-0.109	-0.164
-700.529	-200.000	-0.023	-0.116
-699.514	60.932	-0.170	0.170
-698.499	-200.000	0.026	-0.254
-697.485	-200.000	-0.036	-0.315
-696.470	3.149	-0.281	-0.206
-695.456	800.000	-0.041	0.148
-694.441	139.626	0.244	-0.324
-693.426	-46.395	0.169	-0.084
-692.412	-27.965	0.092	-0.054
-691.397	316.222	0.042	0.081
-690.383	247.670	0.131	-0.223
-689.368	-56.815	0.084	-0.038
-688.354	255.835	-0.139	-0.240
-687.339	-112.482	0.183	-0.037
-686.324	37.252	-0.151	-0.135
-685.310	-131.238	-0.079	0.011
-684.295	257.184	-0.094	0.163
-683.281	2.465	0.278	-0.203
-682.266	542.149	-0.079	-0.190
-681.251	25.071	-0.129	0.108
-680.237	-79.935	-0.279	-0.094
-679.222	-71.827	0.159	0.060
-678.208	153.390	-0.090	0.125
-677.193	-200.000	-0.029	-0.215
-676.178	-68.301	0.116	0.046
-675.164	-47.737	0.115	-0.056
-674.149	96.415	-0.149	-0.172
-673.135	379.004	0.077	-0.159
-672.120	-200.000	-0.009	-0.093
-671.105	-32.373	-0.116	-0.065
-670.091	143.308	0.109	-0.147
-669.076	218.465	0.105	0.169
-668.062	-200.000	0.008	-0.049
-667.047	89.226	0.064	0.071
-666.032	-200.000	-0.047	-0.331
-665.018	-114.274	-0.185	-0.036
-664.003	175.057	0.222	-0.324
-662.989	-200.000	-0.008	-0.252
-661.974	800.000	-0.050	-0.150
-660.959	-63.744	0.199	0.082
-659.945	-200.000	-0.063	0.360
-658.930	321.236	0.126	0.241
-657.916	-105.723	0.109	-0.025
-656.901	-44.271	-0.180	-0.091
-655.886	-26.430	-0.044	-0.026
-654.872	271.175	0.013	-0.023
-653.857	236.631	0.092	0.153
-652.843	114.132	-0.053	0.064
-651.828	-9.894	-0.214	-0.143
-650.814	48.145	-0.152	-0.143
-649.799	-200.000	0.000	0.180
-648.784	-200.000	-0.013	-0.191
-647.770	174.057	0.083	0.121
-646.755	-200.000	0.011	0.228
-645.741	550.998	-0.053	0.128
-644.726	15.202	0.356	-0.281
-643.711	100.894	0.080	-0.094
-642.697	158.618	-0.209	-0.291
-641.682	-200.000	0.007	0.386
-640.668	59.877	-0.034	0.034
-639.653	-115.091	-0.283	0.054
-638.638	-200.000	0.008	-0.387
-637.624	-200.000	0.057	-0.311
-636.609	-90.898	0.126	-0.036
-635.595	263.676	-0.107	0.186
-634.580	-110.304	-0.272	0.057
-633.565	20.670	0.156	-0.127
-632.551	-82.110	0.251	-0.082
-631.536	-71.544	-0.186	0.070
-630.522	84.403	-0.172	0.189
-629.507	615.375	0.028	-0.071
-628.492	-113.763	0.215	0.042
-627.478	800.000	-0.031	0.112
-626.463	-136.604	0.299	-0.035
-625.449	354.701	0.091	-0.181
-624.434	-200.000	-0.007	-0.111
-623.419	-200.000	0.010	0.115
-622.405	739.989	-0.032	0.086
-621.390	612.677	-0.039	0.098
-620.376	-200.000	-0.051	0.244
-619.361	742.427	0.047	0.126
-618.346	527.395	-0.142	-0.337
-617.332	800.000	0.069	-0.237
-616.317	-102.148	-0.577	0.139
-615.303	-39.227	-0.329	-0.174
-614.288	148.992	-0.256	-0.347
-613.273	37.126	0.094	-0.084
-612.259	800.000	0.051	0.223
-611.244	64.135	0.238	-0.241
-610.230	-200.000	-0.013	-0.182
-609.215	-52.420	0.342	-0.159
-608.201	-200.000	-0.019	-0.171
-607.186	-137.916	0.162	-0.018
-606.171	132.814	0.171	0.222
-605.157	-8.625	0.090	-0.061
-604.142	469.066	0.062	-0.141
-603.128	-144.607	-0.175	-0.016
-602.113	800.000	0.121	-0.358
-601.098	800.000	-0.055	0.170
-600.084	-200.000	0.013	0.155
-599.069	106.460	-0.265	0.315
-598.055	-168.963	-0.266	0.010
-597.040	-3.906	0.128	0.089
-596.025	46.822	-0.041	0.038
-595.011	800.000	0.070	-0.200
-593.996	50.102	-0.241	-0.228
-592.982	-117.773	-0.153	-0.028
-591.967	-200.000	0.050	0.281
-590.952	-12.472	-0.109	0.072
-589.938	334.090	0.103	-0.201
-588.923	800.000	-0.065	0.182
-587.909	94.707	0.078	0.089
-586.894	-124.731	0.305	-0.047
-585.879	100.177	-0.094	0.109
-584.865	-200.000	0.011	-0.258
-583.850	186.243	0.046	-0.069
-582.836	643.244	0.092	0.237
-581.821	-200.000	-0.000	0.045
-580.806	-126.461	0.213	-0.032
-579.792	61.632	-0.178	-0.178
-578.777	212.466	0.048	-0.075
-577.763	-20.516	-0.114	0.070
-576.748	-19.157	0.267	0.166
-575.733	-52.420	0.152	0.071
-574.719	-200.000	-0.001	-0.106
-573.704	-22.250	-0.132	0.080
-572.690	-29.132	-0.080	0.046
-571.675	-200.000	0.001	-0.224
-570.661	800.000	0.124	-0.348
-569.646	-200.000	-0.059	-0.350
-568.631	-146.557	-0.426	0.037
-567.617	20.409	-0.135	-0.110
-566.602	-200.000	-0.008	-0.128
-565.588	-41.315	0.197	0.102
-564.573	-200.000	0.012	-0.151
-563.558	22.323	-0.236	0.193
-562.544	3.166	-0.027	0.020
-561.529	3.667	-0.279	-0.204
-560.515	-200.000	-0.010	0.095
-559.500	-109.405	0.236	0.050
-558.485	256.818	0.238	-0.409
-557.471	-200.000	0.048	0.235
-556.456	-200.000	-0.024	0.114
-555.442	81.118	0.297	0.321
-554.427	2.935	-0.416	-0.303
-553.412	-127.066	-0.227	0.033
-552.398	288.425	-0.048	-0.088
-551.383	-105.571	-0.369	-0.084
-550.369	-200.000	-0.030	0.226
-549.354	-121.547	0.145	0.024
-548.339	421.000	-0.108	-0.233
-547.325	261.203	-0.185	-0.320
-546.310	800.000	0.076	0.257
-545.296	-114.529	0.183	-0.035
-544.281	321.870	0.038	-0.073
-543.266	-73.821	-0.146	0.053
-542.252	-93.948	-0.396	0.109
-541.237	331.042	0.125	-0.241
-540.223	301.813	-0.082	0.151
-539.208	-64.801	-0.402	-0.163
-538.193	-200.000	-0.095	0.000
-537.179	-200.000	0.050	-0.250
-536.164	-48.045	0.154	-0.075
-535.150	213.946	-0.238	0.378
-534.135	713.755	-0.130	0.346
-533.121	-86.230	-0.208	0.064
-532.106	-64.723	0.071	0.029
-531.091	-107.719	0.175	0.038
-530.077	-33.187	-0.247	-0.137
-529.062	305.549	-0.066	-0.123
-528.048	-69.552	0.160	-0.062
-527.033	64.251	0.113	0.114
-526.018	385.943	-0.161	0.333
-525.004	800.000	-0.042	0.180
-523.989	445.181	0.062	0.136
-522.975	-67.713	0.081	0.032
-521.960	79.952	-0.100	0.107
-520.945	380.602	-0.200	-0.411
-519.931	-13.102	-0.126	-0.082
-518.916	-44.941	-0.235	0.117
-517.902	50.794	-0.301	-0.285
-516.887	-37.517	0.250	0.134
-515.872	-200.000	0.022	0.195
-514.858	-81.835	-0.141	0.046
-513.843	-71.569	-0.154	0.058
-512.829	-200.000	-0.022	-0.323
-511.814	61.485	0.272	-0.271
-510.799	153.919	0.103	-0.142
-509.785	-153.913	-0.242	0.017
-508.770	-48.518	-0.129	0.062
-507.756	800.000	-0.121	0.505
-506.741	-200.000	-0.006	0.164
-505.726	59.230	-0.039	-0.038
-504.712	-107.240	0.318	-0.070
-503.697	-130.220	-0.220	0.030
-502.683	44.172	-0.006	-0.006
-501.668	800.000	0.067	0.266
-500.653	-200.000	0.010	-0.156
-499.639	321.263	-0.055	0.105
-498.624	-6.392	0.075	-0.051
-497.610	-18.996	0.191	0.119
-496.595	-131.895	-0.090	-0.012
-495.581	540.014	-0.059	-0.141
-494.566	115.535	0.075	-0.092
-493.551	-31.318	-0.130	-0.073
-492.537	173.612	-0.122	0.176
-491.522	800.000	-0.077	-0.328
-490.508	-52.408	-0.147	-0.068
-489.493	-200.000	0.013	-0.282
-488.478	428.928	0.118	-0.255
-487.464	-93.867	0.054	-0.015
-486.449	-30.575	-0.107	0.061
-485.435	23.110	-0.082	-0.067
-484.420	161.392	0.087	0.121
-483.405	-140.685	-0.054	0.006
-482.391	-200.000	-0.074	0.361
-481.376	-112.092	-0.424	-0.085
-480.362	-103.892	0.102	0.024
-479.347	195.395	0.101	0.154
-478.332	6.463	-0.264	-0.196
-477.318	-200.000	-0.030	-0.215
-476.303	800.000	-0.083	-0.233
-475.289	-3.205	0.193	-0.134
-474.274	-200.000	0.026	0.169
-473.259	-130.156	0.032	-0.004
-472.245	-121.780	0.276	-0.046
-471.230	-116.109	-0.253	-0.047
-470.216	56.081	-0.102	0.098
-469.201	-45.289	0.126	-0.062
-468.186	-29.213	-0.127	-0.073
-467.172	232.546	-0.078	0.128
-466.157	489.790	0.085	0.193
-465.143	-168.700	-0.249	0.009
-464.128	90.159	0.139	0.155
-463.113	239.283	-0.081	-0.134
-462.099	800.000	0.035	0.118
-461.084	-187.842	0.177	-0.002
-460.070	-200.000	-0.021	-0.243
-459.055	-75.002	-0.106	0.038
-458.040	-25.015	-0.160	0.095
-457.026	800.000	-0.049	-0.176
-456.011	-200.000	0.020	-0.154
-454.997	-9.680	-0.263	-0.175
-453.982	-21.781	-0.238	0.144
-452.968	-200.000	0.024	0.193
-451.953	56.612	0.113	-0.110
-450.938	-134.984	0.153	-0.018
-449.924	-36.870	-0.137	0.073
-448.909	498.723	0.015	-0.034
-447.895	-20.296	0.193	0.119
-446.880	800.000	-0.095	-0.392
-445.865	-200.000	-0.031	0.301
-444.851	170.015	0.101	0.144
-443.836	-200.000	0.044	-0.200
-442.822	-200.000	-0.053	0.233
-441.807	-200.000	-0.019	0.304
-440.792	800.000	-0.074	-0.210
-439.778	-58.742	0.258	-0.112
-438.763	-35.315	-0.150	-0.081
-437.749	-48.116	0.037	-0.018
-436.734	-200.000	-0.041	0.251
-435.719	-178.047	0.141	-0.003
-434.705	800.000	0.040	0.120
-433.690	-93.000	-0.085	0.024
-432.676	408.338	0.182	0.384
-431.661	-95.318	0.140	0.038
-430.646	-49.461	-0.120	0.057
-429.632	1.534	-0.106	0.076
-428.617	116.478	-0.069	-0.085
-427.603	177.520	-0.067	-0.097
-426.588	19.944	0.113	0.091
-425.573	-200.000	0.044	0.243
-424.559	227.159	0.145	0.234
-423.544	-32.898	-0.062	-0.034
-422.530	-181.836	0.144	-0.003
-421.515	-123.830	0.069	-0.011
-420.500	-124.008	-0.147	-0.023
-419.486	672.480	0.083	0.216
-418.471	-7.790	-0.337	0.227
-417.457	123.107	-0.082	0.102
-416.442	-106.948	0.345	0.076
-415.428	356.522	-0.107	0.212
-414.413	178.918	0.178	0.259
-413.398	35.193	0.088	0.077
-412.384	-103.691	0.108	-0.025
-411.369	-64.878	-0.153	-0.062
-410.355	-13.134	0.147	-0.095
-409.340	331.183	-0.084	-0.162
-408.325	281.878	0.103	0.184
-407.311	42.925	0.074	-0.067
-406.296	704.759	0.065	0.171
-405.282	-153.401	-0.188	-0.013
-404.267	193.804	0.196	-0.296
-403.252	-48.552	-0.241	-0.115
-402.238	-5.719	0.092	0.063
-401.223	304.906	-0.122	0.226
-400.209	800.000	-0.026	-0.084
-399.194	-88.725	0.583	0.173
-398.179	-185.100	-0.386	-0.006
-397.165	-110.482	0.329	0.068
-396.150	-80.343	0.268	-0.089
-395.136	-200.000	-0.020	0.149
-394.121	-200.000	-0.024	0.322
-393.106	-35.793	0.152	-0.082
-392.092	168.194	0.131	-0.185
-391.077	-105.657	-0.098	-0.022
-390.063	-79.774	-0.146	0.049
-389.048	-154.620	0.359	0.024
-388.033	-200.000	-0.016	-0.140
-387.019	351.271	0.103	0.203
-386.004	80.592	-0.239	-0.257
-384.990	19.685	-0.218	-0.175
-383.975	233.243	-0.066	-0.108
-382.960	800.000	-0.127	0.396
-381.946	-200.000	0.022	0.217
-380.931	800.000	0.033	-0.100
-379.917	-130.109	-0.094	0.013
-378.902	-200.000	0.000	0.158
-377.888	332.838	0.111	0.213
-376.873	2.945	-0.087	0.063
-375.858	-119.742	0.268	-0.046
-374.844	-200.000	-0.007	-0.093
-373.829	-200.000	0.024	-0.175
-372.815	-95.196	-0.194	0.052
-371.800	-56.984	0.157	0.069
-370.785	-200.000	-0.023	0.147
-369.771	110.687	0.049	0.058
-368.756	800.000	0.124	0.422
-367.742	-200.000	-0.021	-0.203
-366.727	-200.000	0.025	-0.342
-365.712	-161.166	0.382	-0.020
-364.698	-87.962	0.270	0.081
-363.683	11.908	0.143	-0.110
-362.669	-77.208	0.148	0.051
-361.654	2.764	-0.184	0.133
-360.639	56.220	-0.206	0.199
-359.625	416.398	0.091	-0.193
-358.610	3.532	-0.062	0.045
-357.596	-200.000	-0.010	-0.046
-356.581	-200.000	0.040	-0.286
-355.566	-180.952	-0.500	-0.010
-354.552	-77.613	-0.112	0.039
-353.537	750.667	-0.109	0.293
-352.523	-21.107	-0.062	-0.038
-351.508	196.417	0.184	0.279
-350.493	21.063	0.259	-0.209
-349.479	62.032	-0.335	-0.332
-348.464	127.166	0.195	0.246
-347.450	78.596	-0.141	-0.150
-346.435	-95.421	0.093	0.025
-345.420	-32.671	-0.301	-0.167
-344.406	-81.575	0.074	0.024
-343.391	143.063	-0.078	0.104
-342.377	800.000	-0.024	0.105
-341.362	-200.000	0.125	-0.000
-340.348	-200.000	-0.025	0.388
-339.333	148.094	0.147	0.198
-338.318	-121.477	0.298	0.049
-337.304	800.000	0.060	-0.195
-336.289	-91.728	-0.157	-0.044
-335.275	-5.648	0.057	0.039
-334.260	55.103	-0.216	0.208
-333.245	-200.000	0.002	0.114
-332.231	28.874	0.075	0.063
-331.216	407.482	0.154	-0.323
-330.202	-60.017	-0.066	0.028
-329.187	-112.959	0.179	0.035
-328.172	664.962	0.073	-0.187
-327.158	-169.934	0.182	0.006
-326.143	-83.641	0.382	-0.121
-325.129	55.544	0.201	-0.193
-324.114	-36.504	0.198	-0.106
-323.099	193.607	0.022	-0.034
-322.085	182.393	0.053	-0.077
-321.070	165.595	0.140	-0.197
-320.056	-200.000	0.008	-0.057
-319.041	-200.000	0.279	-0.000
-318.026	-133.179	0.158	-0.020
-317.012	-200.000	0.110	0.000
-315.997	-57.811	0.100	0.043
-314.983	-116.064	-0.147	-0.027
-313.968	-36.416	-0.070	-0.038
-312.953	-200.000	-0.002	0.323
-311.939	-200.000	0.000	-0.186
-310.924	-65.338	-0.098	0.039
-309.910	189.289	-0.124	0.184
-308.895	-56.226	0.273	-0.121
-307.880	-113.424	0.186	-0.036
-306.866	73.468	0.074	0.077
-305.851	-200.000	0.001	0.147
-304.837	113.737	-0.147	0.178
-303.822	527.626	-0.123	-0.288
-302.807	29.119	0.224	-0.189
-301.793	108.299	0.140	0.166
-300.778	800.000	-0.059	0.165
-299.764	-200.000	-0.007	0.233
-298.749	-124.493	0.115	0.018
-297.735	-200.000	0.001	-0.126
-296.720	-134.794	0.227	0.027
-295.705	-200.000	0.005	0.103
-294.691	-200.000	0.061	0.449
-293.676	4.074	0.199	-0.144
-292.662	-25.966	0.169	-0.099
-291.647	34.087	-0.060	0.052
-290.632	-6.486	0.217	-0.146
-289.618	355.836	-0.196	0.387
-288.603	-86.268	0.387	-0.118
-287.589	252.784	-0.293	-0.495
-286.574	-47.275	0.198	0.096
-285.559	227.120	-0.093	-0.150
-284.545	-200.000	-0.014	-0.269
-283.530	36.814	0.280	-0.246
-282.516	-200.000	0.014	-0.179
-281.501	288.737	0.147	0.264
-280.486	451.231	0.093	-0.205
-279.472	516.721	-0.200	0.463
-278.457	-200.000	0.012	-0.061
-277.443	-96.059	0.168	-0.044
-276.428	495.168	-0.087	-0.198
-275.413	-111.927	0.340	-0.068
-274.399	460.538	-0.166	0.368
-273.384	435.841	-0.113	-0.245
-272.370	356.347	0.276	-0.545
-271.355	-13.871	-0.199	0.128
-270.340	-102.009	0.335	-0.080
-269.326	-200.000	0.026	-0.132
-268.311	472.674	-0.056	-0.126
-267.297	-16.402	0.141	-0.088
-266.282	11.707	0.011	-0.008
-265.267	-134.224	0.296	-0.036
-264.253	-3.996	0.280	0.193
-263.238	781.858	-0.152	-0.411
-262.224	-13.172	-0.245	0.158
-261.209	-200.000	-0.075	0.408
-260.195	-75.773	-0.327	-0.115
-259.180	-109.258	-0.175	-0.037
-258.165	-200.000	-0.041	0.217
-257.151	-68.985	0.332	0.127
-256.136	-84.075	-0.287	0.090
-255.122	-200.000	-0.065	0.291
-254.107	-65.554	-0.121	0.048
-253.092	-200.000	0.033	-0.206
-252.078	-140.885	0.125	0.013
-251.063	-200.000	-0.001	-0.111
-250.049	-200.000	-0.037	-0.233
-249.034	-33.198	0.137	-0.075
-248.019	147.152	-0.152	-0.202
-247.005	519.187	0.096	-0.222
-245.990	270.330	-0.034	-0.059
-244.976	389.478	-0.199	0.409
-243.961	30.439	0.091	0.077
-242.946	-60.474	0.447	-0.188
-241.932	51.019	-0.131	-0.123
-240.917	294.933	-0.089	-0.162
-239.903	75.582	-0.169	0.176
-238.888	-84.009	-0.276	-0.087
-237.873	38.376	-0.142	0.126
-236.859	-43.574	0.046	0.023
-235.844	266.185	0.011	-0.020
-234.830	9.138	-0.469	-0.351
-233.815	-57.930	0.277	-0.120
-232.800	119.423	-0.216	-0.264
-231.786	202.478	0.118	-0.181
-230.771	-200.000	-0.011	-0.058
-229.757	-200.000	0.019	0.194
-228.742	-54.754	0.299	-0.134
-227.727	-137.861	0.179	-0.020
-226.713	395.635	-0.060	0.125
-225.698	-200.000	0.002	0.173
-224.684	800.000	-0.055	-0.161
-223.669	245.334	0.150	0.250
-222.655	-126.434	-0.114	0.017
-221.640	-53.130	-0.145	-0.066
-220.625	-4.352	0.214	0.146
-219.611	-152.419	0.358	0.025
-218.596	1.432	-0.147	-0.105
-217.582	-191.236	-0.169	-0.002
-216.567	800.000	0.041	0.158
-215.552	446.244	-0.052	-0.112
-214.538	-42.995	0.154	-0.077
-213.523	-184.420	-0.069	-0.001
-212.509	121.869	-0.176	-0.217
-211.494	395.547	0.077	0.159
-210.479	-102.407	0.128	-0.030
-209.465	-200.000	0.000	-0.068
-208.450	41.297	0.158	-0.142
-207.436	317.168	0.043	0.081
-206.421	3.512	0.268	0.193
-205.406	659.354	0.072	-0.182
-204.392	-128.944	0.205	-0.028
-203.377	265.803	0.154	0.265
-202.363	-39.966	-0.246	0.127
-201.348	338.596	-0.112	0.215
-200.333	-126.852	-0.109	0.016
-199.319	484.868	0.086	-0.194
-198.304	800.000	-0.084	0.234
-197.290	-69.444	-0.205	0.078
-196.275	222.805	-0.111	-0.176
-195.260	-3.729	-0.071	-0.049
-194.246	-75.427	0.209	-0.074
-193.231	-57.097	0.117	0.051
-192.217	89.975	0.079	-0.087
-191.202	498.079	0.134	0.305
-190.187	-53.565	0.116	0.053
-189.173	52.311	0.130	-0.123
-188.158	-200.000	0.004	-0.191
-187.144	800.000	0.127	-0.381
-186.129	-27.583	0.200	0.115
-185.114	800.000	-0.044	0.139
-184.100	70.810	-0.075	-0.076
-183.085	-4.086	-0.131	-0.090
-182.071	-101.499	-0.117	0.028
-181.056	80.435	-0.200	-0.213
-180.042	-117.631	-0.068	-0.012
-179.027	-200.000	0.011	0.128
-178.012	-129.935	-0.156	0.021
-176.998	-89.448	-0.169	0.049
-175.983	305.633	-0.190	-0.349
-174.969	108.498	0.094	-0.111
-173.954	-47.118	0.131	-0.063
-172.939	142.068	-0.242	0.317
-171.925	-200.000	0.012	0.130
-170.910	800.000	0.100	0.325
-169.896	-78.501	-0.121	-0.041
-168.881	-103.172	-0.154	-0.036
-167.866	68.693	-0.039	0.039
-166.852	448.621	-0.041	0.090
-165.837	-200.000	0.037	0.240
-164.823	800.000	0.025	-0.075
-163.808	15.236	-0.031	0.024
-162.793	-175.435	0.262	-0.007
-161.779	322.726	0.057	0.108
-160.764	103.229	-0.266	-0.308
-159.750	164.939	-0.194	0.270
-158.735	-36.122	-0.069	-0.037
-157.720	779.530	0.109	0.293
-156.706	-10.785	-0.373	0.244
-155.691	-200.000	-0.002	-0.013
-154.677	-26.108	0.189	-0.110
-153.662	-118.710	-0.019	0.003
-152.647	-80.441	-0.260	0.086
-151.633	-71.016	-0.114	0.042
-150.618	-42.814	0.207	0.104
-149.604	74.932	0.190	-0.198
-148.589	4.374	-0.265	0.192
-147.574	-200.000	0.035	0.331
-146.560	527.484	0.079	0.184
-145.545	58.648	0.065	-0.063
-144.531	66.032	0.401	0.402
-143.516	89.913	0.360	0.396
-142.502	-200.000	0.043	-0.293
-141.487	-200.000	-0.011	-0.116
-140.472	-102.636	-0.157	0.037
-139.458	800.000	-0.082	0.327
-138.443	99.279	-0.151	-0.173
-137.429	-6.200	0.338	-0.228
-136.414	171.244	0.139	0.196
-135.399	-26.907	0.176	-0.101
-134.385	800.000	0.108	-0.390
-133.370	375.277	0.061	0.123
-132.356	6.551	-0.042	-0.031
-131.341	104.049	0.169	0.196
-130.326	74.540	0.216	0.224
-129.312	211.195	-0.106	0.165
-128.297	617.908	-0.066	-0.164
-127.283	171.719	-0.212	-0.300
-126.268	28.661	0.210	0.175
-125.253	77.594	-0.205	0.215
-124.239	-200.000	0.026	-0.122
-123.224	-200.000	0.001	0.035
-122.210	274.457	-0.135	0.235
-121.195	-56.663	-0.231	0.101
-120.180	-89.329	-0.377	-0.109
-119.166	-200.000	0.018	0.250
-118.151	504.180	-0.092	-0.209
-117.137	-110.644	0.123	-0.025
-116.122	171.444	-0.124	0.176
-115.107	-95.087	0.224	-0.060
-114.093	-200.000	0.411	0.000
-113.078	35.667	-0.166	-0.144
-112.064	-200.000	-0.003	0.179
-111.049	-200.000	-0.033	0.288
-110.034	-132.642	-0.133	0.017
-109.020	20.799	0.130	0.104
-108.005	-134.680	0.058	0.007
-106.991	18.690	0.072	0.057
-105.976	800.000	0.059	-0.214
-104.962	-55.549	0.278	-0.123
-103.947	101.182	0.120	-0.138
-102.932	19.612	0.330	0.261
-101.918	127.432	-0.078	-0.098
-100.903	12.147	-0.384	-0.291
-99.889	207.942	0.164	0.252
-98.874	-4.951	0.236	0.160
-97.859	-200.000	-0.021	-0.165
-96.845	194.704	0.090	-0.134
-95.830	-132.970	-0.044	0.006
-94.816	58.732	-0.285	0.276
-93.801	20.586	0.010	0.008
-92.786	224.607	-0.181	-0.288
-91.772	139.542	-0.159	0.207
-90.757	-82.375	0.145	0.046
-89.743	324.658	0.056	0.105
-88.728	84.404	-0.252	-0.272
-87.713	800.000	0.034	-0.134
-86.699	-73.682	0.133	-0.048
-85.684	-83.203	0.164	0.052
-84.670	3.822	0.133	0.096
-83.655	33.095	-0.147	0.125
-82.640	-128.961	0.325	0.045
-81.626	-200.000	-0.019	0.157
-80.611	-132.007	0.171	-0.022
-79.597	-200.000	-0.023	0.229
-78.582	29.790	0.099	0.083
-77.567	-85.444	0.161	0.050
-76.553	-200.000	0.063	0.381
-75.538	-180.222	0.355	0.007
-74.524	31.170	-0.242	-0.204
-73.509	800.000	0.080	0.280
-72.494	-200.000	-0.020	0.463
-71.480	-30.794	0.123	0.068
-70.465	-40.895	0.355	0.180
-69.451	-61.200	-0.302	0.125
-68.436	-200.000	-0.056	0.349
-67.422	-200.000	0.074	0.452
-66.407	79.309	0.075	-0.079
-65.392	800.000	-0.048	0.177
-64.378	-8.295	0.237	0.157
-63.363	122.918	0.155	0.190
-62.349	-200.000	-0.026	-0.159
-61.334	50.071	-0.817	-0.758
-60.319	-99.047	0.732	0.182
-59.305	204.827	-0.509	-0.776
-58.290	184.099	0.569	0.829
-57.276	800.000	0.480	1.500
-56.261	-200.000	101.534	583.852
-55.246	486.194	1436.795	3220.306
-54.232	152.039	2619.994	3513.533
-53.217	109.425	2184.220	2571.977
-52.203	41.422	1709.930	1521.100
-51.188	33.775	1518.141	1298.391
-50.173	31.397	1491.212	1259.317
-49.159	51.621	1543.111	1442.246
-48.144	52.755	1560.232	1465.962
-47.130	34.038	1518.926	1300.659
-46.115	30.939	1503.876	1266.697
-45.100	30.761	1500.331	1262.452
-44.086	30.790	1498.655	1261.187
-43.071	30.663	1496.675	1258.615
-42.057	30.592	1494.963	1256.641
-41.042	30.569	1493.623	1255.314
-40.027	30.704	1491.652	1254.512
-39.013	30.486	1490.972	1252.425
-37.998	30.607	1489.851	1252.245
-36.984	30.632	1487.862	1250.692
-35.969	30.657	1486.312	1249.510
-34.954	30.690	1484.859	1248.463
-33.940	30.580	1484.489	1247.359
-32.925	30.600	1482.872	1246.088
-31.911	30.727	1481.055	1245.359
-30.896	30.693	1479.952	1244.155
-29.881	30.810	1478.722	1243.856
-28.867	30.737	1477.119	1241.969
-27.852	30.671	1475.943	1240.491
-26.838	30.716	1474.164	1239.246
-25.823	30.859	1472.593	1238.832
-24.809	30.692	1471.275	1236.560
-23.794	30.722	1470.052	1235.685
-22.779	30.717	1468.856	1234.598
-21.765	30.683	1467.738	1233.383
-20.750	30.690	1466.516	1232.354
-19.736	30.690	1465.284	1231.269
-18.721	30.727	1464.194	1230.545
-17.706	30.521	1463.481	1228.536
-16.692	30.642	1462.426	1228.400
-15.677	30.604	1460.916	1226.834
-14.663	30.599	1460.281	1226.221
-13.648	30.695	1459.208	1225.904
-12.633	30.498	1458.581	1224.030
-11.619	30.647	1457.270	1223.861
-10.604	30.583	1456.209	1222.504
-9.590	30.520	1455.971	1221.839
-8.575	30.657	1454.826	1221.728
-7.560	30.494	1454.306	1220.171
-6.546	30.624	1453.250	1220.095
-5.531	30.549	1452.604	1219.011
-4.517	30.546	1451.548	1218.054
-3.502	30.610	1450.445	1217.502
-2.487	30.577	1449.599	1216.530
-1.473	30.434	1448.682	1214.771
-0.458	30.635	1447.153	1214.756
0.556	29.086	1438.106	1204.358
1.571	26.285	1412.678	1164.924
2.586	23.020	1351.204	1093.968
3.600	21.151	1269.240	1016.642
4.615	20.032	1225.192	974.975
5.629	17.391	1169.774	916.583
6.644	8.948	1083.527	806.625
7.659	1.693	1042.162	740.566
8.673	0.594	1036.512	731.167
9.688	0.365	1033.892	728.148
10.702	0.233	1032.457	726.435
11.717	0.188	1030.403	724.712
12.731	2.951	1033.631	740.242
13.746	11.415	1045.091	789.478
14.761	17.274	1051.772	822.898
15.775	17.566	1051.031	823.659
16.790	16.508	1049.452	817.240
17.804	15.554	1046.882	810.565
18.819	14.591	1045.149	804.508
19.834	14.271	1043.703	801.783
20.848	14.009	1042.885	799.825
21.863	13.699	1042.202	797.737
22.877	13.492	1041.290	795.972
23.892	13.318	1040.207	794.238
24.907	13.133	1039.795	792.969
25.921	13.231	1038.854	792.652
26.936	13.292	1037.824	792.087
27.950	13.322	1037.569	791.963
28.965	13.343	1036.851	791.446
29.980	13.399	1035.675	790.747
30.994	13.486	1034.727	790.368
32.009	13.455	1033.912	789.527
33.023	13.404	1033.304	788.752
34.038	13.515	1032.238	788.397
35.053	13.420	1031.663	787.433
36.067	13.480	1030.464	786.737
37.082	13.483	1029.546	785.981
38.096	13.340	1029.124	784.910
39.111	13.516	1027.987	784.806
40.126	13.456	1027.489	784.073
41.140	13.503	1026.311	783.324
42.155	13.391	1025.477	782.091
43.169	13.259	1024.634	780.756
44.184	13.295	1023.515	780.004
45.199	13.233	1022.533	778.893
46.213	13.217	1021.571	778.019
47.228	13.202	1020.751	777.256
48.242	13.422	1019.351	777.151
49.257	13.417	1018.509	776.418
50.271	13.370	1017.749	775.549
51.286	13.316	1016.889	774.573
52.301	13.322	1016.431	774.182
53.315	13.346	1015.495	773.516
54.330	13.435	1014.224	772.893
55.344	13.250	1013.902	771.718
56.359	13.272	1012.814	770.921
57.374	13.340	1011.805	770.402
58.388	13.308	1010.960	769.541
59.403	13.245	1009.953	768.414
60.417	13.158	1009.254	767.409
61.432	13.156	1008.758	766.955
62.447	13.260	1007.854	766.682
63.461	13.202	1007.030	765.718
64.476	13.054	1005.952	764.146
65.490	13.136	1005.213	763.899
66.505	13.146	1004.563	763.380
67.520	13.161	1003.513	762.585
68.534	13.201	1002.781	762.145
69.549	13.148	1002.034	761.266
70.563	13.142	1001.424	760.707
71.578	13.245	1000.687	760.558
72.593	13.217	999.779	759.669
73.607	13.093	998.942	758.395
74.622	13.066	998.040	757.521
75.636	13.135	997.167	757.107
76.651	13.071	996.326	756.110
77.666	13.327	995.470	756.565
78.680	13.093	995.125	755.164
79.695	13.156	994.697	755.063
80.709	13.154	993.709	754.235
81.724	13.305	992.366	753.837
82.739	13.181	992.002	752.932
83.753	13.148	991.591	752.401
84.768	13.249	990.352	751.854
85.782	13.235	990.061	751.502
86.797	13.421	988.818	751.338
87.812	13.353	988.268	750.543
88.826	13.354	987.374	749.804
89.841	13.265	986.448	748.632
90.855	13.473	985.215	748.569
91.870	13.264	985.531	747.797
92.884	13.434	984.298	747.565
93.899	13.393	984.059	747.129
94.914	13.309	983.444	746.218
95.928	13.501	982.113	746.007
96.943	13.454	981.710	745.426
97.957	13.385	980.733	744.307
98.972	13.402	979.870	743.661
99.987	13.348	979.461	743.042
101.001	13.393	978.734	742.630
102.016	13.400	977.465	741.629
103.030	13.370	977.191	741.221
104.045	13.506	975.586	740.547
105.060	13.494	974.474	739.587
106.074	13.370	973.658	738.348
107.089	13.341	973.303	737.884
108.103	13.227	972.071	736.376
109.118	13.291	970.899	735.705
110.133	13.241	970.183	734.876
111.147	13.361	969.281	734.664
112.162	13.243	968.658	733.603
113.176	13.259	967.915	733.043
114.191	13.281	966.798	732.229
115.206	13.359	966.033	731.933
116.220	13.338	965.417	731.308
117.235	13.211	965.002	730.367
118.249	13.354	963.728	729.967
119.264	13.398	962.744	729.352
120.279	13.261	962.290	728.343
121.293	13.282	961.365	727.670
122.308	13.341	960.171	726.961
123.322	13.230	959.472	725.880
124.337	13.332	958.337	725.403
125.352	13.097	958.103	724.132
126.366	13.258	956.596	723.633
127.381	13.141	955.654	722.348
128.395	13.329	954.366	722.131
129.410	13.145	953.445	720.565
130.424	13.325	952.362	720.470
131.439	13.299	951.916	719.952
132.454	13.310	951.116	719.335
133.468	13.322	950.125	718.573
134.483	13.343	949.793	718.347
135.497	13.383	949.227	718.029
136.512	13.448	948.178	717.456
137.527	13.366	947.480	716.506
138.541	13.371	946.832	715.977
139.556	13.317	946.095	715.122
140.570	13.310	945.549	714.617
141.585	13.427	944.307	714.118
142.600	13.352	943.934	713.452
143.614	13.403	943.326	713.146
144.629	13.384	942.780	712.589
145.643	13.575	941.304	712.233
146.658	13.537	940.912	711.710
147.673	13.542	939.820	710.844
148.687	13.367	939.346	709.671
149.702	13.347	938.322	708.746
150.716	13.439	937.489	708.451
151.731	13.536	936.761	708.251
152.746	13.479	935.955	707.337
153.760	13.488	935.118	706.681
154.775	13.453	934.763	706.199
155.789	13.498	933.836	705.629
156.804	13.475	933.300	705.063
157.819	13.728	932.131	705.191
158.833	13.547	931.864	704.162
159.848	13.560	931.104	703.577
160.862	13.656	930.481	703.453
161.877	13.722	929.496	702.925
162.892	13.527	928.802	701.511
163.906	13.430	927.931	700.383
164.921	13.469	927.481	700.145
165.935	13.516	926.063	699.214
166.950	13.489	925.134	698.333
167.964	13.734	924.155	698.567
168.979	13.670	923.130	697.459
169.994	13.535	922.470	696.330
171.008	13.572	921.149	695.430
172.023	13.546	920.730	694.944
173.037	13.553	919.629	694.079
174.052	13.728	918.732	694.072
175.067	13.688	918.102	693.367
176.081	13.707	917.506	692.936
177.096	13.685	916.484	692.010
178.110	13.584	916.310	691.397
179.125	13.512	915.351	690.310
180.140	13.648	914.673	690.305
181.154	13.695	913.890	689.849
182.169	13.734	913.535	689.681
183.183	13.813	912.461	689.137
184.198	13.727	911.939	688.328
185.213	13.736	911.842	688.228
186.227	13.836	910.747	687.756
187.242	13.739	910.320	686.972
188.256	13.810	909.761	686.785
189.271	13.873	908.824	686.275
190.286	13.892	908.191	685.817
191.300	13.801	907.154	684.597
192.315	13.718	906.785	683.916
193.329	13.591	906.057	682.783
194.344	13.718	904.952	682.412
195.359	13.680	904.384	681.768
196.373	13.836	904.199	682.208
197.388	13.946	903.727	682.244
198.402	13.952	902.574	681.338
199.417	13.982	902.662	681.468
200.432	14.015	902.172	681.170
201.446	14.057	901.452	680.738
202.461	14.023	901.181	680.337
203.475	14.137	900.747	680.415
204.490	14.284	899.891	680.308
205.504	14.216	898.884	679.207
206.519	14.049	898.245	677.986
207.534	13.997	897.915	677.465
208.548	13.995	896.896	676.626
209.563	14.026	896.317	676.255
210.577	14.075	895.352	675.668
211.592	13.965	894.992	674.889
212.607	14.214	894.219	675.256
213.621	14.252	893.745	674.992
214.636	14.220	893.164	674.367
215.650	14.220	892.798	674.031
216.665	14.307	891.787	673.557
217.680	14.218	891.645	673.032
218.694	14.294	890.883	672.703
219.709	14.241	890.580	672.203
220.723	14.384	889.833	672.157
221.738	14.358	888.663	671.108
222.753	14.271	888.483	670.563
223.767	14.135	887.994	669.585
224.782	14.416	887.134	670.008
225.796	14.439	886.191	669.327
226.811	14.441	885.587	668.819
227.826	14.407	885.284	668.397
228.840	14.463	884.430	667.916
229.855	14.413	883.722	667.124
230.869	14.372	883.026	666.375
231.884	14.247	882.508	665.427
232.899	14.382	881.726	665.318
233.913	14.370	881.237	664.840
234.928	14.319	880.386	663.936
235.942	14.398	879.537	663.552
236.957	14.393	878.902	662.994
237.972	14.379	878.292	662.418
238.986	14.434	877.510	661.990
240.001	14.478	877.117	661.810
241.015	14.453	876.316	661.049
242.030	14.292	876.278	660.322
243.045	14.483	875.212	660.218
244.059	14.645	874.636	660.365
245.074	14.626	873.695	659.520
246.088	14.489	873.298	658.620
247.103	14.632	872.903	658.831
248.117	14.497	872.152	657.672
249.132	14.782	871.231	658.041
250.147	14.792	870.954	657.814
251.161	14.822	870.546	657.567
252.176	14.769	869.885	656.798
253.190	14.903	868.764	656.420
254.205	14.787	868.284	655.545
255.220	14.929	867.817	655.692
256.234	14.878	867.237	654.997
257.249	15.009	866.134	654.619
258.263	14.818	866.401	654.015
259.278	14.960	865.825	654.078
260.293	14.900	864.922	653.103
261.307	15.083	864.179	653.195
262.322	14.995	863.506	652.286
263.336	15.128	862.955	652.331
264.351	15.054	862.189	651.406
265.366	15.205	861.581	651.478
266.380	15.062	861.210	650.581
267.395	14.991	860.828	649.960
268.409	15.201	860.194	650.242
269.424	15.030	859.529	649.017
270.439	15.180	858.746	648.949
271.453	15.202	857.946	648.373
272.468	14.996	857.301	647.030
273.482	15.133	856.544	646.933
274.497	15.215	856.039	646.810
275.512	15.242	855.123	646.165
276.526	15.177	854.230	645.180
277.541	15.182	853.825	644.837
278.555	15.200	853.067	644.280
279.570	15.226	852.494	643.888
280.585	15.327	852.030	643.869
281.599	15.339	851.740	643.640
282.614	15.359	850.936	643.050
283.628	15.401	850.449	642.788
284.643	15.290	849.875	641.872
285.657	15.259	849.438	641.367
286.672	15.343	848.687	641.061
287.687	15.328	848.669	640.936
288.701	15.324	847.761	640.179
289.716	15.496	847.114	640.290
290.730	15.565	846.366	639.929
291.745	15.497	845.892	639.256
292.760	15.345	845.236	638.126
293.774	15.495	844.605	638.161
294.789	15.546	844.460	638.189
295.803	15.510	843.631	637.372
296.818	15.515	843.243	637.038
297.833	15.454	842.270	636.017
298.847	15.537	841.814	635.931
299.862	15.587	840.945	635.405
300.876	15.530	840.207	634.576
301.891	15.481	839.586	633.867
302.906	15.613	838.891	633.786
303.920	15.617	838.472	633.426
304.935	15.701	837.659	633.072
305.949	15.868	837.078	633.205
306.964	15.762	836.579	632.372
307.979	15.668	836.072	631.582
308.993	15.712	835.637	631.361
310.008	15.790	834.887	631.032
311.022	15.703	834.632	630.457
312.037	15.807	833.616	630.025
313.052	15.938	833.144	630.101
314.066	15.791	832.875	629.294
315.081	15.665	832.434	628.434
316.095	15.729	831.687	628.051
317.110	15.703	831.436	627.709
318.125	15.819	830.507	627.386
319.139	15.922	829.777	627.162
320.154	15.689	829.714	626.193
321.168	15.774	829.214	626.076
322.183	15.775	828.234	625.283
323.197	15.745	828.197	625.088
324.212	15.840	827.902	625.164
325.227	15.971	826.870	624.816
326.241	15.896	826.325	624.070
327.256	15.746	826.219	623.379
328.270	15.889	825.411	623.244
329.285	15.828	824.944	622.610
330.300	15.842	824.023	621.913
331.314	15.838	823.661	621.568
332.329	15.974	822.891	621.433
333.343	15.907	822.184	620.599
334.358	15.940	821.993	620.521
335.373	16.060	821.491	620.528
336.387	16.141	820.488	620.014
337.402	16.066	820.265	619.515
338.416	16.095	819.609	619.072
339.431	16.117	819.189	618.781
340.446	16.143	818.556	618.341
341.460	16.305	817.881	618.371
342.475	16.285	817.357	617.846
343.489	16.295	816.564	617.229
344.504	16.307	816.400	617.094
345.519	16.297	815.871	616.605
346.533	16.338	815.390	616.335
347.548	16.299	815.026	615.864
348.562	16.422	814.312	615.720
349.577	16.232	813.788	614.576
350.592	16.220	813.478	614.243
351.606	16.305	812.797	613.983
352.621	16.271	812.663	613.703
353.635	16.311	811.922	613.235
354.650	16.426	811.383	613.191
355.665	16.332	811.121	612.596
356.679	16.452	810.468	612.486
357.694	16.391	810.113	611.942
358.708	16.375	808.989	610.983
359.723	16.431	808.822	611.005
360.738	16.317	808.707	610.451
361.752	16.390	807.931	610.073
362.767	16.547	807.787	610.479
363.781	16.530	807.118	609.857
364.796	16.374	807.274	609.359
365.810	16.647	806.329	609.577
366.825	16.490	806.258	608.901
367.840	16.623	805.847	609.015
368.854	16.680	805.407	608.836
369.869	16.673	804.567	608.123
370.883	16.693	804.096	607.785
371.898	16.620	803.555	607.059
372.913	16.803	802.911	607.175
373.927	16.657	802.548	606.322
374.942	16.726	801.686	605.865
375.956	16.587	801.567	605.226
376.971	16.613	800.739	604.638
377.986	16.723	800.412	604.732
379.000	16.920	799.783	604.903
380.015	16.751	799.632	604.136
381.029	16.891	798.824	603.971
382.044	16.873	798.340	603.485
383.059	16.859	797.867	603.026
384.073	16.925	797.268	602.752
385.088	17.018	796.433	602.399
386.102	16.877	795.857	601.412
387.117	16.822	795.300	600.740
388.132	16.834	795.181	600.640
389.146	16.928	794.972	600.762
390.161	17.008	794.249	600.447
391.175	16.973	794.016	600.094
392.190	17.043	793.415	599.834
393.205	16.996	793.143	599.408
394.219	16.934	792.916	598.966
395.234	16.891	792.163	598.190
396.248	16.889	791.414	597.566
397.263	16.862	791.357	597.375
398.278	16.739	791.208	596.776
399.292	16.904	790.416	596.708
400.307	16.967	789.638	596.286
401.321	16.970	789.012	595.772
402.336	17.018	789.044	595.912
403.350	16.988	788.707	595.501
404.365	16.931	788.451	595.055
405.380	17.015	787.795	594.801
406.394	17.252	787.229	595.151
407.409	17.240	787.012	594.891
408.423	17.298	786.642	594.763
409.438	17.134	786.216	593.816
410.453	17.183	785.809	593.627
411.467	17.212	785.290	593.283
412.482	17.334	784.397	592.983
413.496	17.371	784.220	592.925
414.511	17.226	784.073	592.254
415.526	17.356	783.666	592.349
416.540	17.384	783.152	592.005
417.555	17.174	783.403	591.410
418.569	17.356	782.364	591.208
419.584	17.439	781.721	590.955
420.599	17.574	780.836	590.703
421.613	109.021	1287.835	1465.562
422.628	93.321	1361.705	1465.653
