DTS Sentinel unit serial number:	SN413079Multiplexer serial number:	ORYXHardware model number:	OX4-SRSoftware version number:	ORYX F/W v4.00 Oryx Data Collector v3.7.2.0data status	okinstallation	princeton_trtdifferential loss correction	single-endedforward channel	channel 3reverse channel	N/Adate	2019/09/14time	05:16:34forward acquisition time	60.00reverse acquisition time	0.00gamma	496.2192k internal	0.2337k external	0.2337temperature offset calibration	1.0053default loss term (dB/km)	0.3790temperature slope calibration	1.0000multiplexer offset coefficient	1.0000multiplexer slope coefficient	1.0000fibre end	0.00T internal ref (°C)	26.94T ext. ref 1 (°C)	3.39T ext. ref 2 (°C)	21.99length (m)	temperature (°C)	Stokes	anti-Stokes-747.200	-200.000	0.024	0.147
-746.185	-75.657	-0.212	-0.076
-745.171	445.868	-0.100	0.221
-744.156	800.000	0.032	-0.138
-743.142	-200.000	0.043	-0.266
-742.127	-200.000	0.028	0.326
-741.112	-119.522	-0.218	0.038
-740.098	-200.000	-0.032	0.301
-739.083	800.000	-0.097	-0.271
-738.069	-79.000	-0.371	0.127
-737.054	-26.172	-0.156	-0.092
-736.039	800.000	-0.123	-0.521
-735.025	-200.000	0.024	-0.144
-734.010	-51.153	-0.341	0.160
-732.996	567.434	0.084	-0.205
-731.981	-113.539	-0.529	-0.104
-730.966	413.589	0.084	0.180
-729.952	127.175	-0.214	-0.272
-728.937	-63.916	-0.081	-0.033
-727.923	-81.389	-0.038	-0.012
-726.908	123.155	-0.139	0.174
-725.894	476.348	-0.192	-0.436
-724.879	171.944	-0.087	0.126
-723.864	-106.251	-0.619	0.139
-722.850	198.577	0.059	0.091
-721.835	5.837	0.160	0.118
-720.821	-200.000	0.008	-0.058
-719.806	31.035	-0.082	0.070
-718.791	-200.000	0.006	-0.201
-717.777	62.472	-0.116	-0.116
-716.762	-30.457	0.116	-0.066
-715.748	231.636	-0.082	-0.135
-714.733	800.000	-0.073	0.261
-713.718	800.000	0.051	0.149
-712.704	-173.313	-0.123	0.004
-711.689	-98.616	0.087	0.022
-710.675	180.850	-0.155	-0.228
-709.660	93.518	-0.160	0.182
-708.645	800.000	-0.136	-0.429
-707.631	-8.315	-0.265	-0.178
-706.616	144.021	-0.005	0.007
-705.602	197.342	-0.112	0.172
-704.587	-120.901	-0.129	0.022
-703.572	794.989	-0.075	-0.208
-702.558	342.498	0.112	-0.220
-701.543	23.454	-0.023	-0.019
-700.529	-52.452	-0.122	-0.056
-699.514	622.597	0.130	0.329
-698.499	-93.625	0.165	0.046
-697.485	321.708	0.081	-0.155
-696.470	55.251	-0.109	0.106
-695.456	-200.000	-0.019	0.148
-694.441	-24.996	-0.080	-0.047
-693.426	14.969	0.084	0.066
-692.412	-0.259	0.427	-0.304
-691.397	-25.405	-0.160	-0.095
-690.383	248.354	-0.060	-0.101
-689.368	87.036	-0.183	0.203
-688.354	-138.586	-0.027	-0.003
-687.339	-23.382	0.097	-0.058
-686.324	61.588	0.098	-0.098
-685.310	97.967	-0.066	0.076
-684.295	-83.880	-0.602	0.192
-683.281	121.285	-0.190	-0.237
-682.266	-200.000	0.001	0.035
-681.251	-200.000	-0.049	-0.325
-680.237	-192.484	0.154	-0.001
-679.222	406.621	0.064	-0.136
-678.208	1.608	0.099	0.071
-677.193	30.973	0.195	0.167
-676.178	50.485	-0.078	0.074
-675.164	-200.000	-0.028	0.266
-674.149	70.997	0.045	0.047
-673.135	79.155	0.101	0.109
-672.120	-200.000	0.033	0.179
-671.105	-29.378	0.168	-0.096
-670.091	-128.498	0.150	-0.021
-669.076	-47.579	0.478	-0.232
-668.062	800.000	0.032	-0.137
-667.047	-38.956	-0.065	0.034
-666.032	-200.000	0.010	0.100
-665.018	-94.642	-0.193	0.053
-664.003	32.568	0.360	-0.311
-662.989	112.050	0.281	-0.340
-661.974	800.000	0.026	-0.108
-660.959	800.000	-0.086	-0.259
-659.945	-86.733	0.279	-0.086
-658.930	-89.890	-0.162	-0.047
-657.916	169.556	0.069	-0.099
-656.901	-200.000	-0.019	0.092
-655.886	284.797	0.056	-0.101
-654.872	30.476	-0.241	-0.206
-653.857	-68.958	0.181	-0.070
-652.843	520.029	-0.070	-0.164
-651.828	-93.377	-0.519	0.144
-650.814	120.753	-0.091	0.113
-649.799	-35.754	0.261	0.142
-648.784	-176.899	0.186	0.005
-647.770	800.000	-0.041	-0.122
-646.755	460.332	0.033	0.074
-645.741	248.130	-0.058	-0.099
-644.726	176.321	-0.091	0.132
-643.711	26.139	0.126	0.105
-642.697	49.505	-0.311	0.292
-641.682	-23.646	0.079	0.048
-640.668	167.981	-0.121	-0.171
-639.653	-158.902	-0.196	0.011
-638.638	177.603	-0.138	0.200
-637.624	-159.330	0.109	0.006
-636.609	-111.975	0.201	0.040
-635.595	215.376	-0.131	0.208
-634.580	-82.500	0.086	-0.028
-633.565	-200.000	0.014	-0.262
-632.551	689.463	-0.170	-0.445
-631.536	29.518	-0.167	-0.142
-630.522	-185.142	-0.278	-0.004
-629.507	214.742	0.063	0.100
-628.492	42.999	0.190	0.173
-627.478	-200.000	-0.053	-0.349
-626.463	-114.202	0.424	-0.082
-625.449	325.067	-0.018	0.035
-624.434	668.329	0.099	-0.256
-623.419	-13.667	0.154	0.100
-622.405	-49.372	0.289	-0.138
-621.390	-114.045	0.356	-0.069
-620.376	-200.000	0.003	-0.020
-619.361	-200.000	-0.030	-0.221
-618.346	-200.000	-0.022	-0.280
-617.332	800.000	-0.046	-0.199
-616.317	-54.673	0.234	0.106
-615.303	-154.278	-0.149	-0.010
-614.288	800.000	0.089	0.265
-613.273	-172.377	-0.236	-0.008
-612.259	68.692	0.178	-0.183
-611.244	-200.000	0.014	-0.190
-610.230	44.520	0.173	-0.159
-609.215	225.475	-0.026	-0.042
-608.201	-0.097	-0.208	-0.148
-607.186	-37.053	0.263	0.141
-606.171	-133.545	-0.304	-0.038
-605.157	13.802	0.231	-0.179
-604.142	-53.167	-0.238	0.109
-603.128	-68.834	0.141	0.054
-602.113	-200.000	-0.011	-0.214
-601.098	44.049	0.020	-0.018
-600.084	-98.140	0.190	-0.049
-599.069	-119.546	-0.079	-0.014
-598.055	-37.510	-0.292	0.155
-597.040	-32.219	-0.164	0.091
-596.025	-64.017	0.110	-0.045
-595.011	195.550	-0.053	0.080
-593.996	136.485	-0.204	0.265
-592.982	800.000	-0.033	-0.112
-591.967	-140.481	0.112	-0.012
-590.952	-18.495	-0.244	-0.152
-589.938	-200.000	-0.032	-0.290
-588.923	15.584	-0.234	-0.184
-587.909	201.427	-0.095	0.146
-586.894	92.212	-0.133	0.149
-585.879	-200.000	0.025	-0.305
-584.865	800.000	-0.062	0.248
-583.850	517.924	-0.036	0.085
-582.836	-200.000	-0.031	0.170
-581.821	800.000	-0.047	0.139
-580.806	-97.046	-0.140	0.037
-579.792	340.150	0.163	-0.318
-578.777	-3.734	-0.300	-0.208
-577.763	-111.942	-0.146	0.029
-576.748	-85.706	-0.290	0.090
-575.733	8.357	0.113	0.085
-574.719	-95.235	0.245	0.066
-573.704	-110.766	-0.440	0.090
-572.690	-200.000	-0.014	0.088
-571.675	421.542	-0.055	-0.118
-570.661	-156.047	0.441	-0.028
-569.646	800.000	0.055	0.206
-568.631	-190.052	0.395	-0.004
-567.617	-111.827	-0.169	0.034
-566.602	554.939	0.043	-0.104
-565.588	-66.584	0.210	0.083
-564.573	-105.091	-0.342	0.078
-563.558	317.262	0.139	0.261
-562.544	800.000	0.033	0.094
-561.529	90.287	-0.110	-0.123
-560.515	281.184	-0.106	-0.188
-559.500	-74.535	0.170	-0.061
-558.485	131.101	-0.183	0.234
-557.471	-87.847	0.146	-0.044
-556.456	-87.097	-0.422	0.128
-555.442	487.734	-0.071	0.161
-554.427	-45.090	-0.077	0.038
-553.412	446.272	0.064	-0.141
-552.398	77.186	-0.345	-0.365
-551.383	-200.000	0.013	0.164
-550.369	113.911	-0.139	-0.169
-549.354	168.967	-0.035	0.049
-548.339	-65.852	-0.213	0.085
-547.325	-172.174	-0.158	-0.005
-546.310	105.735	-0.230	-0.271
-545.296	-10.337	0.312	-0.206
-544.281	-35.718	-0.025	0.014
-543.266	-48.544	-0.274	0.132
-542.252	-200.000	0.003	0.148
-541.237	-162.382	-0.118	-0.006
-540.223	-14.407	0.246	0.158
-539.208	290.126	0.078	-0.142
-538.193	-6.127	-0.142	0.097
-537.179	-173.396	-0.225	0.007
-536.164	49.819	0.117	-0.110
-535.150	-13.747	-0.335	0.216
-534.135	285.119	-0.113	-0.203
-533.121	800.000	0.025	0.096
-532.106	-67.470	0.262	0.103
-531.091	-148.489	0.371	0.030
-530.077	-200.000	0.031	-0.210
-529.062	-61.846	0.221	-0.092
-528.048	429.822	-0.124	-0.267
-527.033	651.368	-0.091	-0.232
-526.018	-200.000	0.072	-0.378
-525.004	-200.000	-0.031	-0.394
-523.989	7.682	-0.077	0.058
-522.975	-200.000	-0.023	-0.208
-521.960	30.573	-0.229	-0.195
-520.945	800.000	0.039	-0.159
-519.931	8.998	0.318	-0.239
-518.916	-143.476	0.303	0.029
-517.902	-161.681	0.234	0.012
-516.887	-18.484	0.121	-0.075
-515.872	70.988	-0.070	-0.072
-514.858	136.129	0.114	-0.148
-513.843	800.000	0.058	0.186
-512.829	-71.420	0.189	0.071
-511.814	-200.000	-0.045	-0.398
-510.799	-122.740	0.081	-0.013
-509.785	-200.000	0.026	0.120
-508.770	-38.060	-0.287	-0.152
-507.756	-200.000	0.027	0.145
-506.741	-197.755	-0.289	0.002
-505.726	227.690	0.186	0.301
-504.712	160.942	0.036	0.049
-503.697	-33.614	-0.327	-0.180
-502.683	-200.000	0.004	0.036
-501.668	-94.919	-0.092	-0.025
-500.653	233.534	0.114	0.187
-499.639	-86.059	0.313	0.096
-498.624	227.135	-0.099	-0.159
-497.610	-39.375	0.225	-0.117
-496.595	-73.942	-0.348	-0.126
-495.581	24.673	-0.110	0.090
-494.566	-50.461	-0.054	-0.025
-493.551	-200.000	-0.018	-0.269
-492.537	-21.940	0.155	0.094
-491.522	800.000	-0.014	-0.059
-490.508	-82.514	-0.129	-0.042
-489.493	111.229	0.141	0.168
-488.478	-200.000	-0.056	0.284
-487.464	59.629	0.057	0.056
-486.449	34.212	-0.194	-0.168
-485.435	21.609	0.226	-0.183
-484.420	800.000	-0.170	0.485
-483.405	83.898	0.190	0.206
-482.391	-16.612	-0.101	0.063
-481.376	800.000	0.050	-0.207
-480.362	-164.422	-0.137	0.006
-479.347	126.148	0.117	-0.147
-478.332	-184.814	-0.073	0.001
-477.318	206.351	-0.151	-0.234
-476.303	-161.850	-0.101	-0.005
-475.289	100.320	0.031	0.035
-474.274	-191.265	0.310	-0.003
-473.259	-65.183	0.206	0.083
-472.245	-200.000	0.027	-0.142
-471.230	463.676	-0.070	0.156
-470.216	652.441	0.155	0.395
-469.201	34.151	0.148	0.128
-468.186	80.433	-0.140	-0.149
-467.172	54.299	0.153	-0.146
-466.157	-143.837	-0.117	0.011
-465.143	-8.051	0.058	0.039
-464.128	59.476	0.094	0.092
-463.113	-101.132	0.347	0.084
-462.099	-200.000	-0.015	-0.296
-461.084	-118.845	-0.391	0.068
-460.070	800.000	-0.026	-0.099
-459.055	511.303	-0.175	0.403
-458.040	-176.084	0.064	-0.002
-457.026	-200.000	0.018	-0.136
-456.011	14.737	-0.165	0.128
-454.997	-136.577	-0.171	0.020
-453.982	527.286	-0.075	0.176
-452.968	-112.412	-0.284	-0.056
-451.953	-24.390	0.169	-0.100
-450.938	-0.955	-0.065	-0.045
-449.924	6.095	-0.186	-0.137
-448.909	-200.000	-0.068	-0.397
-447.895	61.005	0.393	-0.387
-446.880	-26.051	-0.232	-0.136
-445.865	-163.321	-0.168	0.008
-444.851	-132.379	0.217	0.028
-443.836	-60.669	-0.051	-0.021
-442.822	-108.614	0.061	0.013
-441.807	800.000	-0.098	-0.359
-440.792	-22.535	-0.150	-0.090
-439.778	507.583	0.056	0.129
-438.763	347.211	-0.102	0.198
-437.749	800.000	-0.031	0.124
-436.734	-16.320	0.094	-0.059
-435.719	-154.013	0.073	-0.005
-434.705	12.061	0.098	-0.075
-433.690	-29.116	0.134	-0.076
-432.676	-102.806	0.374	-0.088
-431.661	800.000	0.031	-0.111
-430.646	800.000	-0.016	-0.063
-429.632	-98.796	-0.128	-0.032
-428.617	-146.555	0.209	0.018
-427.603	631.283	0.082	-0.207
-426.588	-113.912	0.158	-0.030
-425.573	69.980	-0.155	0.158
-424.559	-70.023	-0.124	0.047
-423.544	-155.878	0.326	0.021
-422.530	-200.000	0.004	0.104
-421.515	-39.325	0.217	-0.113
-420.500	239.751	0.069	-0.114
-419.486	-200.000	-0.033	0.162
-418.471	170.277	-0.187	0.266
-417.457	62.651	0.203	0.202
-416.442	-98.702	-0.059	0.015
-415.428	-200.000	0.016	0.178
-414.413	-27.426	0.035	-0.020
-413.398	369.061	0.094	0.188
-412.384	-200.000	-0.047	0.245
-411.369	343.958	-0.018	0.034
-410.355	-130.245	-0.109	-0.015
-409.340	22.503	0.271	0.220
-408.325	25.881	0.069	0.057
-407.311	-17.479	-0.147	-0.092
-406.296	187.938	-0.184	0.272
-405.282	-98.594	-0.140	-0.035
-404.267	-164.015	0.337	-0.016
-403.252	-200.000	-0.033	0.355
-402.238	-70.795	0.060	-0.022
-401.223	-200.000	0.107	0.000
-400.209	-58.635	-0.377	-0.162
-399.194	466.052	-0.017	0.038
-398.179	472.557	0.166	0.370
-397.165	800.000	-0.092	0.273
-396.150	50.730	-0.141	-0.133
-395.136	31.051	0.058	-0.049
-394.121	800.000	0.041	-0.132
-393.106	-51.948	-0.298	0.137
-392.092	-148.258	-0.666	-0.054
-391.077	-200.000	0.017	-0.092
-390.063	37.821	-0.196	0.172
-389.048	599.159	-0.036	-0.089
-388.033	-91.429	0.078	-0.022
-387.019	-90.480	0.162	-0.046
-386.004	-155.270	0.087	-0.006
-384.990	133.371	0.020	0.025
-383.975	385.109	-0.023	-0.047
-382.960	175.004	0.228	-0.327
-381.946	16.343	-0.066	0.052
-380.931	800.000	0.068	0.187
-379.917	-63.270	-0.242	-0.099
-378.902	30.055	-0.270	-0.228
-377.888	15.702	-0.145	-0.113
-376.873	-200.000	0.036	0.187
-375.858	-200.000	-0.010	0.096
-374.844	-180.011	0.287	0.006
-373.829	144.743	-0.084	0.111
-372.815	-200.000	-0.022	0.130
-371.800	-82.512	0.124	-0.040
-370.785	469.171	0.167	-0.371
-369.771	72.597	0.160	0.165
-368.756	-200.000	0.010	0.159
-367.742	-121.928	0.207	-0.034
-366.727	153.256	-0.105	-0.143
-365.712	49.241	-0.165	0.153
-364.698	-191.343	0.165	-0.002
-363.683	139.771	0.117	-0.152
-362.669	344.770	0.227	0.441
-361.654	260.734	0.137	-0.235
-360.639	53.909	0.091	0.087
-359.625	62.767	-0.089	-0.088
-358.610	45.538	-0.240	-0.219
-357.596	292.818	0.018	0.032
-356.581	-22.079	0.110	-0.066
-355.566	800.000	0.018	-0.049
-354.552	118.599	0.072	0.088
-353.537	800.000	-0.050	0.150
-352.523	39.695	0.168	-0.149
-351.508	800.000	-0.023	-0.096
-350.493	800.000	-0.061	0.191
-349.479	172.605	0.114	0.163
-348.464	-51.547	0.215	0.099
-347.450	303.451	0.115	-0.210
-346.435	-45.299	-0.193	-0.095
-345.420	603.653	-0.037	-0.091
-344.406	27.122	-0.076	-0.063
-343.391	-83.240	0.265	-0.084
-342.377	-50.449	0.325	0.151
-341.362	-58.974	0.030	0.013
-340.348	103.732	0.107	-0.124
-339.333	58.388	-0.171	-0.166
-338.318	-60.968	0.262	-0.109
-337.304	-126.635	-0.174	0.025
-336.289	800.000	-0.150	-0.421
-335.275	-200.000	-0.003	-0.503
-334.260	-165.712	-0.083	0.004
-333.245	-156.161	0.232	0.014
-332.231	113.809	0.115	-0.138
-331.216	-200.000	0.007	-0.151
-330.202	36.756	0.243	0.212
-329.187	322.273	0.152	0.287
-328.172	-200.000	-0.094	0.462
-327.158	152.416	-0.095	0.129
-326.143	-39.177	0.075	0.039
-325.129	92.237	0.090	-0.101
-324.114	-200.000	0.000	0.297
-323.099	-200.000	-0.045	-0.217
-322.085	757.332	-0.122	-0.327
-321.070	36.203	0.084	0.073
-320.056	39.825	-0.129	-0.114
-319.041	-120.020	-0.184	-0.031
-318.026	405.759	0.073	-0.152
-317.012	-200.000	0.028	0.289
-315.997	-200.000	0.013	-0.163
-314.983	-5.797	-0.103	0.070
-313.968	184.253	-0.441	-0.644
-312.953	-200.000	0.038	0.190
-311.939	72.706	0.190	0.195
-310.924	-93.069	0.252	-0.069
-309.910	-6.373	-0.262	0.176
-308.895	-183.181	0.091	-0.002
-307.880	-153.381	-0.083	-0.006
-306.866	278.986	0.191	-0.337
-305.851	-200.000	-0.035	-0.290
-304.837	-200.000	0.017	0.171
-303.822	98.175	0.179	-0.204
-302.807	-200.000	-0.010	-0.070
-301.793	322.472	-0.131	-0.246
-300.778	-200.000	-0.019	0.159
-299.764	800.000	0.083	0.351
-298.749	218.944	-0.171	0.270
-297.735	429.351	-0.050	-0.106
-296.720	281.883	0.082	-0.145
-295.705	-47.800	0.134	0.064
-294.691	-1.249	-0.193	-0.134
-293.676	-173.982	-0.221	-0.006
-292.662	-155.651	-0.179	0.011
-291.647	330.573	0.080	-0.152
-290.632	-26.650	-0.194	0.112
-289.618	496.999	0.049	0.112
-288.603	-57.787	0.111	-0.048
-287.589	9.141	-0.168	-0.125
-286.574	-120.797	0.491	0.082
-285.559	-123.303	-0.245	-0.039
-284.545	800.000	0.077	-0.263
-283.530	-200.000	0.036	-0.304
-282.516	-37.385	0.077	-0.040
-281.501	800.000	0.028	0.090
-280.486	76.051	-0.203	0.212
-279.472	-200.000	-0.055	0.381
-278.457	7.489	-0.090	0.066
-277.443	-42.954	-0.420	0.210
-276.428	36.699	0.285	0.248
-275.413	-56.263	0.257	0.113
-274.399	272.353	0.111	0.193
-273.384	800.000	-0.067	0.184
-272.370	215.837	0.166	0.259
-271.355	-100.038	0.217	0.053
-270.340	-93.223	-0.327	-0.090
-269.326	-36.286	0.189	0.101
-268.311	-132.726	-0.059	0.007
-267.297	-97.087	-0.417	0.107
-266.282	800.000	-0.053	-0.172
-265.267	-81.894	0.139	-0.045
-264.253	1.654	0.070	-0.049
-263.238	4.621	-0.191	0.138
-262.224	-200.000	0.009	0.269
-261.209	-73.157	-0.098	-0.035
-260.195	-8.863	0.191	0.126
-259.180	-103.240	-0.325	-0.076
-258.165	493.501	-0.071	0.160
-257.151	355.769	-0.029	0.058
-256.136	-200.000	-0.023	0.323
-255.122	27.145	-0.157	-0.130
-254.107	369.496	0.121	-0.242
-253.092	-64.317	-0.114	-0.046
-252.078	148.287	0.054	-0.072
-251.063	-15.596	-0.193	0.121
-250.049	-151.920	0.273	0.020
-249.034	800.000	-0.036	-0.099
-248.019	800.000	-0.007	0.028
-247.005	501.288	0.051	-0.116
-245.990	-108.676	0.068	0.014
-244.976	-60.832	-0.275	0.115
-243.961	-10.562	0.076	0.050
-242.946	-141.203	0.311	0.031
-241.932	148.158	-0.222	-0.296
-240.917	362.867	0.094	0.186
-239.903	661.939	-0.100	-0.253
-238.888	-200.000	0.037	0.198
-237.873	-200.000	0.024	0.414
-236.859	80.262	0.089	0.094
-235.844	73.319	-0.191	0.196
-234.830	-149.852	-0.087	-0.007
-233.815	-161.128	0.031	-0.002
-232.800	800.000	0.081	0.229
-231.786	263.104	-0.090	-0.154
-230.771	176.269	0.100	-0.143
-229.757	-28.897	-0.283	0.160
-228.742	-41.059	0.254	-0.129
-227.727	312.040	0.126	-0.234
-226.713	-200.000	-0.021	0.410
-225.698	353.386	0.207	0.404
-224.684	94.590	-0.206	-0.231
-223.669	-126.399	0.200	-0.029
-222.655	-91.552	0.446	0.125
-221.640	237.971	-0.041	-0.068
-220.625	10.571	-0.055	-0.042
-219.611	717.499	0.085	-0.222
-218.596	37.630	-0.128	0.112
-217.582	-168.569	-0.141	-0.005
-216.567	-77.985	0.159	0.054
-215.552	631.330	0.082	0.205
-214.538	800.000	0.059	0.232
-213.523	-101.967	0.039	-0.009
-212.509	-23.429	0.272	-0.160
-211.494	383.845	0.058	0.118
-210.479	339.257	0.051	0.097
-209.465	-2.907	-0.228	-0.157
-208.450	56.625	-0.135	-0.129
-207.436	-98.540	0.043	0.011
-206.421	123.784	-0.074	-0.091
-205.406	-126.171	0.296	-0.044
-204.392	800.000	0.026	0.071
-203.377	301.568	0.048	-0.088
-202.363	71.236	-0.206	0.210
-201.348	14.692	-0.089	-0.068
-200.333	-200.000	0.012	-0.233
-199.319	58.061	0.072	-0.069
-198.304	585.178	-0.126	0.304
-197.290	230.968	-0.063	-0.102
-196.275	-63.337	0.261	-0.106
-195.260	-108.408	-0.046	0.010
-194.246	-200.000	0.021	0.119
-193.231	-18.437	0.341	0.209
-192.217	126.326	-0.246	0.306
-191.202	226.067	0.237	0.378
-190.187	-81.708	-0.229	-0.074
-189.173	-35.019	0.163	-0.087
-188.158	144.850	-0.129	-0.169
-187.144	-200.000	0.029	-0.259
-186.129	234.012	-0.127	0.206
-185.114	789.795	-0.053	0.142
-184.100	-200.000	-0.321	0.001
-183.085	220.580	0.019	-0.029
-182.071	747.684	-0.096	0.254
-181.056	384.148	-0.059	0.120
-180.042	-96.543	0.320	0.083
-179.027	800.000	0.212	0.617
-178.012	-194.754	0.294	-0.002
-176.998	-200.000	-0.010	0.171
-175.983	-81.506	0.138	0.045
-174.969	707.356	-0.051	0.134
-173.954	-67.339	-0.109	-0.042
-172.939	166.760	-0.041	0.056
-171.925	72.918	-0.131	-0.134
-170.910	353.604	-0.113	0.220
-169.896	83.125	-0.129	-0.138
-168.881	6.200	-0.026	-0.019
-167.866	287.628	0.090	-0.160
-166.852	-85.151	-0.008	0.002
-165.837	-97.724	0.400	-0.102
-164.823	-22.710	-0.264	-0.157
-163.808	800.000	-0.028	-0.106
-162.793	-141.168	-0.206	0.021
-161.779	-73.712	-0.016	0.006
-160.764	-200.000	0.008	-0.099
-159.750	41.086	0.149	0.132
-158.735	93.913	0.066	-0.073
-157.720	153.574	-0.085	0.115
-156.706	-123.163	0.172	-0.027
-155.691	77.334	-0.189	-0.197
-154.677	5.040	-0.191	0.138
-153.662	623.120	0.045	-0.112
-152.647	-26.640	-0.149	0.086
-151.633	-73.936	0.175	-0.062
-150.618	-107.734	0.323	-0.069
-149.604	204.011	0.162	0.246
-148.589	71.359	-0.234	0.238
-147.574	33.908	-0.155	-0.132
-146.560	59.977	0.120	-0.116
-145.545	-103.017	-0.031	0.007
-144.531	62.095	-0.140	0.137
-143.516	-200.000	0.011	-0.092
-142.502	-200.000	-0.001	-0.332
-141.487	-168.647	0.417	0.016
-140.472	-200.000	0.008	-0.196
-139.458	-200.000	-0.042	0.248
-138.443	316.987	0.043	-0.080
-137.429	-143.311	-0.310	0.029
-136.414	-57.822	0.075	0.032
-135.399	-83.055	-0.085	-0.027
-134.385	-200.000	-0.018	-0.136
-133.370	-30.892	-0.262	-0.145
-132.356	-169.410	0.122	-0.004
-131.341	-0.910	-0.097	0.068
-130.326	-24.530	0.081	0.048
-129.312	232.182	-0.037	0.060
-128.297	418.689	0.068	-0.142
-127.283	-124.975	-0.252	-0.038
-126.268	-8.069	0.078	0.052
-125.253	-116.574	0.041	-0.007
-124.239	-108.999	0.298	-0.062
-123.224	186.443	0.209	0.305
-122.210	-200.000	-0.058	0.454
-121.195	98.764	-0.200	-0.226
-120.180	444.759	0.019	-0.040
-119.166	206.170	-0.040	-0.061
-118.151	-200.000	-0.056	-0.307
-117.137	506.706	-0.079	0.179
-116.122	526.994	-0.122	-0.281
-115.107	-200.000	-0.083	0.496
-114.093	249.582	0.117	0.195
-113.078	-142.695	0.072	-0.007
-112.064	-200.000	-0.030	-0.157
-111.049	91.113	-0.103	-0.113
-110.034	538.648	-0.074	-0.172
-109.020	57.152	0.146	-0.139
-108.005	-200.000	-0.002	-0.031
-106.991	16.429	0.214	-0.165
-105.976	202.323	-0.114	-0.173
-104.962	800.000	-0.064	-0.267
-103.947	-147.601	0.062	-0.005
-102.932	489.412	-0.136	-0.304
-101.918	800.000	0.042	0.124
-100.903	45.036	0.202	-0.183
-99.889	325.052	0.093	-0.175
-98.874	800.000	0.061	0.229
-97.859	16.753	-0.313	-0.242
-96.845	-110.109	0.600	-0.123
-95.830	-200.000	0.025	0.137
-94.816	-11.787	-0.209	-0.134
-93.801	-1.968	0.130	0.089
-92.786	8.656	-0.076	0.056
-91.772	800.000	0.035	0.101
-90.757	7.369	-0.067	0.049
-89.743	-200.000	-0.031	0.152
-88.728	68.946	0.085	-0.085
-87.713	82.994	-0.275	-0.293
-86.699	195.960	0.177	0.264
-85.684	800.000	0.070	-0.273
-84.670	-2.918	0.171	0.117
-83.655	-72.998	0.235	0.084
-82.640	-38.947	-0.185	0.095
-81.626	-125.709	-0.135	0.020
-80.611	-97.705	-0.125	0.032
-79.597	-41.966	0.317	-0.159
-78.582	-55.369	-0.055	-0.024
-77.567	-124.694	0.143	0.022
-76.553	-22.260	-0.352	-0.209
-75.538	-31.502	-0.165	0.091
-74.524	27.896	-0.078	0.064
-73.509	-100.541	0.344	-0.083
-72.494	800.000	-0.177	0.492
-71.480	-27.769	-0.272	0.154
-70.465	119.618	0.052	0.063
-69.451	800.000	0.080	-0.219
-68.436	-200.000	-0.040	-0.443
-67.422	800.000	-0.102	0.344
-66.407	57.525	-0.206	0.196
-65.392	18.734	0.059	-0.047
-64.378	-6.187	-0.255	-0.170
-63.363	800.000	-0.070	-0.236
-62.349	30.795	0.358	0.300
-61.334	95.622	-0.971	-1.083
-60.319	-30.331	0.738	0.409
-59.305	350.504	-0.557	-1.076
-58.290	226.754	0.780	1.237
-57.276	-200.000	0.339	1.461
-56.261	-200.000	116.279	662.505
-55.246	532.789	1532.784	3545.947
-54.232	176.473	2706.199	3843.157
-53.217	108.415	2183.147	2546.261
-52.203	37.909	1701.409	1477.722
-51.188	30.039	1517.688	1264.639
-50.173	27.783	1492.483	1228.419
-49.159	52.406	1552.527	1447.515
-48.144	50.327	1567.666	1447.322
-47.130	30.201	1523.254	1270.185
-46.115	27.159	1507.480	1236.325
-45.100	27.044	1504.030	1232.661
-44.086	26.946	1502.200	1230.455
-43.071	26.955	1499.929	1228.604
-42.057	26.903	1498.804	1227.282
-41.042	26.969	1497.090	1226.277
-40.027	26.878	1495.637	1224.420
-39.013	26.889	1494.471	1223.491
-37.998	26.994	1492.943	1222.899
-36.984	26.867	1492.216	1221.400
-35.969	26.945	1490.520	1220.488
-34.954	26.893	1489.306	1219.099
-33.940	26.839	1487.942	1217.575
-32.925	26.922	1486.410	1216.822
-31.911	26.891	1485.733	1216.016
-30.896	27.012	1484.262	1215.571
-29.881	26.919	1483.147	1213.988
-28.867	26.972	1481.298	1212.783
-27.852	26.934	1480.532	1211.853
-26.838	26.986	1478.735	1210.678
-25.823	26.957	1477.619	1209.526
-24.809	27.056	1475.117	1208.092
-23.794	26.949	1474.629	1206.930
-22.779	26.901	1473.584	1205.707
-21.765	27.041	1471.960	1205.261
-20.750	27.004	1470.438	1203.723
-19.736	26.996	1469.681	1202.998
-18.721	27.021	1468.825	1202.417
-17.706	26.957	1467.907	1201.195
-16.692	26.913	1466.761	1199.917
-15.677	26.963	1465.229	1198.946
-14.663	26.915	1464.888	1198.304
-13.648	26.981	1463.520	1197.572
-12.633	26.958	1462.665	1196.675
-11.619	26.930	1461.938	1195.847
-10.604	26.844	1461.660	1195.004
-9.590	26.888	1460.132	1193.999
-8.575	26.932	1459.498	1193.720
-7.560	27.036	1458.419	1193.475
-6.546	26.945	1457.803	1192.328
-5.531	26.849	1456.657	1190.714
-4.517	26.936	1455.789	1190.526
-3.502	26.797	1455.065	1188.975
-2.487	26.921	1453.199	1188.215
-1.473	26.724	1453.259	1186.928
-0.458	27.061	1450.979	1187.222
0.556	27.186	1442.098	1176.363
1.571	24.207	1416.846	1136.688
2.586	20.827	1355.526	1066.735
3.600	19.228	1272.632	992.209
4.615	18.087	1227.806	950.835
5.629	15.506	1171.228	893.225
6.644	8.886	1089.586	798.031
7.659	4.012	1053.044	747.700
8.673	3.407	1048.045	741.176
9.688	3.400	1044.258	738.397
10.702	3.295	1043.329	737.177
11.717	3.479	1040.653	736.095
12.731	5.096	1042.284	744.910
13.746	11.895	1050.469	783.315
14.761	17.907	1059.059	818.562
15.775	19.619	1060.363	827.711
16.790	18.967	1059.220	823.623
17.804	18.095	1056.766	817.471
18.819	17.180	1055.105	811.746
19.834	16.743	1054.086	808.803
20.848	16.697	1052.560	807.341
21.863	16.504	1051.984	805.907
22.877	16.181	1051.598	804.000
23.892	16.116	1050.661	802.905
24.907	15.983	1050.144	801.805
25.921	15.996	1049.032	800.949
26.936	16.041	1048.329	800.553
27.950	16.030	1046.953	799.379
28.965	16.083	1046.338	799.091
29.980	16.068	1045.421	798.249
30.994	16.243	1044.058	797.963
32.009	16.354	1043.241	797.793
33.023	16.394	1042.490	797.339
34.038	16.299	1041.786	796.284
35.053	16.321	1040.548	795.367
36.067	16.227	1039.569	794.109
37.082	16.082	1039.309	793.156
38.096	16.178	1038.681	793.057
39.111	16.299	1037.446	792.615
40.126	16.273	1036.553	791.741
41.140	16.086	1036.082	790.431
42.155	16.006	1033.989	788.393
43.169	15.905	1033.511	787.483
44.184	15.961	1031.878	786.430
45.199	15.874	1031.245	785.473
46.213	15.882	1030.073	784.550
47.228	15.913	1029.175	783.940
48.242	16.080	1028.157	783.873
49.257	16.170	1027.275	783.549
50.271	16.191	1026.425	782.928
51.286	16.196	1025.406	782.106
52.301	16.166	1024.772	781.412
53.315	16.142	1024.001	780.646
54.330	16.043	1023.276	779.564
55.344	15.992	1022.283	778.504
56.359	15.850	1021.319	777.046
57.374	16.002	1020.731	777.232
58.388	15.917	1019.814	776.074
59.403	15.831	1018.675	774.742
60.417	15.763	1018.181	773.984
61.432	15.764	1017.541	773.434
62.447	15.836	1016.488	772.897
63.461	15.855	1015.504	772.164
64.476	15.780	1014.660	771.112
65.490	15.863	1013.576	770.601
66.505	15.656	1012.928	769.094
67.520	15.695	1012.444	768.833
68.534	15.768	1011.461	768.352
69.549	15.781	1010.952	767.961
70.563	15.828	1009.819	767.244
71.578	15.662	1009.949	766.519
72.593	15.668	1008.393	765.298
73.607	15.446	1007.608	763.622
74.622	15.625	1006.436	763.479
75.636	15.501	1006.289	762.740
76.651	15.633	1004.742	762.097
77.666	15.500	1004.624	761.337
78.680	15.685	1003.473	761.236
79.695	15.753	1002.615	760.823
80.709	15.576	1002.559	759.915
81.724	15.791	1001.839	760.275
82.739	15.881	1000.797	759.820
83.753	15.911	1000.272	759.489
84.768	16.108	999.487	759.714
85.782	16.228	998.887	759.734
86.797	16.314	997.945	759.335
87.812	16.310	997.200	758.681
88.826	16.207	996.351	757.506
89.841	16.066	995.741	756.344
90.855	16.265	994.683	756.366
91.870	16.408	993.997	756.419
92.884	16.353	993.695	755.876
93.899	16.340	992.896	755.141
94.914	16.481	991.810	754.880
95.928	16.303	991.436	753.733
96.943	16.348	990.743	753.338
97.957	16.341	989.507	752.301
98.972	16.236	988.681	751.139
99.987	16.088	988.459	750.247
101.001	16.334	987.434	750.496
102.016	16.318	986.486	749.638
103.030	16.394	985.272	748.988
104.045	16.293	984.418	747.823
105.060	16.404	983.497	747.548
106.074	16.388	982.628	746.749
107.089	16.016	981.660	744.308
108.103	15.815	981.187	742.994
109.118	15.714	979.664	741.329
110.133	15.933	978.912	741.661
111.147	15.888	978.143	740.816
112.162	15.909	977.155	740.092
113.176	15.928	976.652	739.731
114.191	15.864	976.168	739.016
115.206	15.963	974.890	738.417
116.220	15.841	974.242	737.326
117.235	15.933	973.231	736.899
118.249	15.814	973.010	736.146
119.264	15.913	971.687	735.514
120.279	15.755	970.906	734.165
121.293	15.860	969.561	733.542
122.308	15.820	969.636	733.360
123.322	15.794	968.305	732.175
124.337	15.643	967.454	730.809
125.352	15.762	966.111	730.248
126.366	15.790	965.091	729.534
127.381	15.686	963.921	728.134
128.395	15.674	962.741	727.128
129.410	15.754	961.994	726.843
130.424	15.727	961.470	726.266
131.439	15.840	960.347	725.842
132.454	15.782	959.994	725.259
133.468	16.165	958.323	725.582
134.483	15.913	958.494	724.561
135.497	15.971	957.763	724.197
136.512	15.996	956.704	723.438
137.527	15.971	955.625	722.451
138.541	15.900	955.293	721.834
139.556	15.979	954.317	721.370
140.570	16.037	953.518	720.952
141.585	16.179	953.199	721.253
142.600	16.265	952.493	721.021
143.614	16.264	951.884	720.492
144.629	16.293	950.919	719.822
145.643	16.386	950.308	719.691
146.658	16.410	949.762	719.315
147.673	16.132	948.830	717.367
148.687	16.075	947.554	716.095
149.702	16.119	946.616	715.510
150.716	15.965	946.042	714.360
151.731	15.991	945.049	713.656
152.746	15.942	944.111	712.677
153.760	15.965	943.361	712.146
154.775	16.156	942.636	712.341
155.789	16.307	941.865	712.331
156.804	16.252	941.447	711.721
157.819	16.131	940.830	710.682
158.833	16.368	939.776	710.822
159.848	16.270	939.468	710.111
160.862	16.417	938.826	710.180
161.877	16.458	937.491	709.281
162.892	16.256	936.710	707.783
163.906	16.171	935.411	706.381
164.921	16.043	935.187	705.613
165.935	16.135	934.010	705.049
166.950	16.203	933.188	704.649
167.964	16.159	932.737	704.064
168.979	16.196	931.393	703.141
169.994	16.231	930.305	702.402
171.008	16.211	929.498	701.647
172.023	16.291	928.788	701.381
173.037	16.486	927.884	701.445
174.052	16.537	927.119	701.018
175.067	16.391	926.583	699.946
176.081	16.247	925.946	698.807
177.096	16.123	925.133	697.618
178.110	16.201	923.862	696.921
179.125	16.152	923.565	696.430
180.140	16.356	922.263	696.228
181.154	16.365	921.625	695.723
182.169	16.320	921.729	695.553
183.183	16.370	921.181	695.287
184.198	16.434	920.610	695.056
185.213	16.408	919.823	694.292
186.227	16.496	918.590	693.665
187.242	16.445	918.714	693.487
188.256	16.597	917.891	693.425
189.271	16.560	917.478	692.902
190.286	16.811	916.159	692.869
191.300	16.378	915.698	690.689
192.315	16.259	914.418	689.180
193.329	15.969	914.548	688.032
194.344	16.047	913.066	687.174
195.359	16.201	913.212	687.851
196.373	16.303	912.436	687.621
197.388	16.416	912.245	687.876
198.402	16.542	911.265	687.588
199.417	16.718	910.749	687.852
200.432	16.873	910.709	688.391
201.446	16.962	910.058	688.199
202.461	16.991	909.540	687.865
203.475	17.060	909.253	687.864
204.490	16.936	908.922	687.053
205.504	16.744	907.619	685.230
206.519	16.669	906.612	684.105
207.534	16.600	905.919	683.242
208.548	16.612	905.399	682.839
209.563	16.769	904.388	682.647
210.577	16.850	903.644	682.351
211.592	16.806	903.314	681.866
212.607	16.901	902.575	681.629
213.621	16.920	902.379	681.499
214.636	16.952	901.452	680.866
215.650	16.821	900.995	679.934
216.665	16.997	900.129	679.925
217.680	16.997	899.878	679.677
218.694	17.084	899.547	679.715
219.709	17.084	899.240	679.425
220.723	17.095	898.183	678.610
221.738	17.061	897.620	677.989
222.753	16.893	897.073	676.845
223.767	17.042	896.325	676.812
224.782	17.048	895.426	676.101
225.796	17.151	894.929	676.072
226.811	17.260	894.059	675.789
227.826	17.122	893.847	675.022
228.840	16.949	892.769	673.460
229.855	16.850	892.581	672.868
230.869	16.982	891.297	672.363
231.884	16.959	890.745	671.797
232.899	16.949	889.941	671.089
233.913	16.989	889.085	670.542
234.928	16.998	888.531	670.102
235.942	16.828	888.411	669.282
236.957	16.825	887.453	668.486
237.972	16.765	886.882	667.761
238.986	16.821	886.310	667.493
240.001	16.909	885.580	667.231
241.015	16.913	884.974	666.731
242.030	16.995	883.931	666.208
243.045	17.086	883.625	666.274
244.059	17.071	883.035	665.712
245.074	17.032	882.257	664.913
246.088	17.195	881.706	665.076
247.103	17.229	881.026	664.638
248.117	17.241	880.666	664.355
249.132	17.377	880.408	664.635
250.147	17.490	879.957	664.677
251.161	17.717	879.409	665.091
252.176	17.575	878.782	664.004
253.190	17.661	877.756	663.502
254.205	17.643	877.732	663.356
255.220	17.730	877.116	663.168
256.234	17.902	876.117	663.024
257.249	17.794	875.384	661.991
258.263	17.739	875.407	661.736
259.278	17.917	874.052	661.346
260.293	17.871	873.841	660.946
261.307	17.917	873.052	660.472
262.322	17.862	873.172	660.289
263.336	17.906	872.397	659.814
264.351	17.900	871.640	659.162
265.366	18.037	870.904	659.074
266.380	17.976	870.465	658.448
267.395	17.946	869.404	657.474
268.409	17.896	868.757	656.734
269.424	17.925	867.917	656.151
270.439	17.940	867.152	655.572
271.453	17.883	866.720	654.969
272.468	17.818	865.921	654.057
273.482	17.670	865.827	653.364
274.497	17.644	865.215	652.743
275.512	17.785	864.046	652.344
276.526	17.726	863.563	651.694
277.541	17.779	862.589	651.103
278.555	17.611	862.547	650.374
279.570	17.940	861.924	651.102
280.585	17.981	861.274	650.708
281.599	18.070	860.428	650.352
282.614	17.965	860.181	649.708
283.628	18.085	858.979	649.197
284.643	17.858	859.078	648.354
285.657	17.877	858.567	647.983
286.672	17.963	857.730	647.618
287.687	17.964	857.150	647.127
288.701	17.999	857.015	647.101
289.716	17.963	856.193	646.288
290.730	17.998	855.683	645.979
291.745	18.148	854.764	645.794
292.760	18.111	854.454	645.361
293.774	18.184	854.022	645.254
294.789	18.156	853.292	644.541
295.803	18.143	852.804	644.064
296.818	18.069	851.918	643.061
297.833	17.902	851.570	642.113
298.847	18.222	850.571	642.505
299.862	18.111	849.802	641.449
300.876	18.153	849.212	641.104
301.891	18.245	848.664	640.978
302.906	18.301	848.197	640.782
303.920	18.443	847.339	640.605
304.935	18.436	846.838	640.143
305.949	18.469	846.717	640.121
306.964	18.583	845.884	639.857
307.979	18.384	845.132	638.492
308.993	18.291	845.182	638.127
310.008	18.403	844.093	637.664
311.022	18.539	843.783	637.880
312.037	18.394	843.014	636.701
313.052	18.380	842.627	636.304
314.066	18.423	841.780	635.765
315.081	18.202	841.301	634.530
316.095	18.293	840.646	634.315
317.110	18.273	840.177	633.831
318.125	18.355	839.357	633.460
319.139	18.315	839.019	633.003
320.154	18.203	838.583	632.202
321.168	18.224	838.213	631.945
322.183	18.413	837.816	632.287
323.197	18.361	837.195	631.572
324.212	18.276	836.840	630.935
325.227	18.363	835.901	630.492
326.241	18.376	835.770	630.385
327.256	18.303	835.323	629.723
328.270	18.363	834.482	629.252
329.285	18.334	833.685	628.489
330.300	18.224	833.412	627.825
331.314	18.354	832.724	627.727
332.329	18.495	831.836	627.520
333.343	18.397	831.502	626.852
334.358	18.534	830.915	626.855
335.373	18.417	830.757	626.252
336.387	18.694	829.319	626.125
337.402	18.570	829.820	625.996
338.416	18.584	828.717	625.159
339.431	18.847	828.339	625.776
340.446	18.814	828.172	625.473
341.460	18.870	827.412	625.050
342.475	19.086	826.821	625.333
343.489	19.080	826.258	624.830
344.504	18.890	826.065	623.938
345.519	19.004	825.415	623.807
346.533	19.151	825.031	623.992
347.548	19.179	824.007	623.262
348.562	18.950	824.013	622.383
349.577	18.801	823.340	621.281
350.592	18.877	822.301	620.716
351.606	18.880	821.945	620.406
352.621	18.759	821.541	619.609
353.635	18.669	821.092	618.889
354.650	18.864	820.765	619.293
355.665	18.873	820.143	618.800
356.679	18.949	819.458	618.503
357.694	18.969	819.660	618.672
358.708	18.966	818.859	618.003
359.723	18.882	818.245	617.182
360.738	18.933	817.701	616.900
361.752	18.744	817.484	616.006
362.767	18.991	817.001	616.470
363.781	19.115	816.279	616.316
364.796	19.157	815.938	616.154
365.810	19.146	815.911	616.038
366.825	19.287	815.412	616.111
367.840	19.370	815.201	616.197
368.854	19.341	814.553	615.546
369.869	19.472	813.550	615.202
370.883	19.197	813.641	614.237
371.898	19.467	812.572	614.336
372.913	19.240	812.170	613.169
373.927	19.474	811.816	613.681
374.942	19.438	811.006	612.885
375.956	19.282	810.606	611.977
376.971	19.467	809.669	611.869
377.986	19.534	809.517	611.938
379.000	19.623	808.948	611.770
380.015	19.590	808.508	611.266
381.029	19.705	807.711	611.015
382.044	19.587	807.405	610.313
383.059	19.659	806.647	609.940
384.073	19.755	806.231	609.910
385.088	19.573	805.893	608.960
386.102	19.430	805.276	607.934
387.117	19.314	804.401	606.814
388.132	19.380	804.279	606.898
389.146	19.310	803.886	606.303
390.161	19.269	803.583	605.875
391.175	19.532	802.862	606.202
392.190	19.572	802.783	606.230
393.205	19.613	802.370	606.008
394.219	19.347	801.709	604.524
395.234	19.378	801.117	604.132
396.248	19.485	800.365	603.887
397.263	19.378	799.809	603.040
398.278	19.237	799.391	602.178
399.292	19.334	799.322	602.410
400.307	19.456	798.575	602.220
401.321	19.242	798.377	601.270
402.336	19.454	797.679	601.431
403.350	19.657	797.302	601.801
404.365	19.390	797.156	600.707
405.380	19.630	796.529	601.018
406.394	19.688	795.983	600.753
407.409	19.826	795.526	600.834
408.423	19.830	795.444	600.734
409.438	19.923	794.894	600.587
410.453	19.984	794.538	600.477
411.467	19.905	794.222	599.912
412.482	20.074	793.658	600.017
413.496	20.176	793.095	599.891
414.511	20.152	793.184	599.824
415.526	20.166	792.697	599.449
416.540	20.009	792.427	598.649
417.555	20.010	791.986	598.267
418.569	20.025	791.551	597.937
419.584	20.006	790.842	597.284
420.599	20.166	789.955	597.113
421.613	161.570	1371.315	1796.961
422.628	139.935	1456.022	1797.081
