DTS Sentinel unit serial number:	SN413079Multiplexer serial number:	ORYXHardware model number:	OX4-SRSoftware version number:	ORYX F/W v4.00 Oryx Data Collector v3.7.2.0data status	okinstallation	princeton_trtdifferential loss correction	single-endedforward channel	channel 3reverse channel	N/Adate	2019/09/16time	16:56:35forward acquisition time	60.00reverse acquisition time	0.00gamma	496.2192k internal	0.2296k external	0.2296temperature offset calibration	0.9942default loss term (dB/km)	0.3790temperature slope calibration	1.0000multiplexer offset coefficient	1.0000multiplexer slope coefficient	1.0000fibre end	0.00T internal ref (°C)	39.42T ext. ref 1 (°C)	15.26T ext. ref 2 (°C)	33.70length (m)	temperature (°C)	Stokes	anti-Stokes-747.200	113.180	-0.179	0.221
-746.185	432.232	0.194	0.430
-745.171	32.703	-0.171	-0.151
-744.156	-73.173	-0.191	0.072
-743.142	-84.826	0.304	-0.098
-742.127	-39.156	-0.166	0.089
-741.112	-26.843	-0.143	-0.085
-740.098	800.000	0.089	0.254
-739.083	-28.037	-0.149	-0.088
-738.069	-21.186	0.145	0.091
-737.054	512.683	0.050	-0.119
-736.039	-200.000	0.010	-0.255
-735.025	63.413	-0.124	-0.127
-734.010	149.624	-0.254	-0.351
-732.996	800.000	-0.063	-0.226
-731.981	67.701	-0.175	-0.183
-730.966	8.964	-0.105	-0.081
-729.952	42.056	0.137	-0.127
-728.937	-71.950	0.122	-0.047
-727.923	64.582	-0.021	0.021
-726.908	-166.215	0.305	0.013
-725.894	-200.000	-0.071	-0.408
-724.879	187.071	0.082	0.124
-723.864	-147.411	0.182	-0.016
-722.850	800.000	-0.148	-0.434
-721.835	-78.366	0.095	-0.033
-720.821	-200.000	-0.017	-0.231
-719.806	800.000	0.138	0.472
-718.791	-53.007	-0.149	-0.070
-717.777	722.460	0.057	0.155
-716.762	800.000	-0.071	-0.286
-715.748	-146.412	0.353	0.031
-714.733	-129.990	0.175	-0.024
-713.718	800.000	0.018	-0.057
-712.704	800.000	0.059	-0.166
-711.689	-200.000	0.022	0.113
-710.675	695.934	-0.028	0.075
-709.660	18.504	0.253	-0.207
-708.645	619.423	-0.095	0.243
-707.631	117.930	-0.112	-0.141
-706.616	-159.070	0.245	-0.014
-705.602	-200.000	-0.036	-0.424
-704.587	-90.096	0.141	0.042
-703.572	-200.000	-0.053	0.267
-702.558	-200.000	0.020	-0.233
-701.543	-44.706	0.224	-0.114
-700.529	-76.667	-0.171	-0.061
-699.514	349.507	-0.137	0.277
-698.499	26.924	0.249	0.213
-697.485	-121.284	-0.195	-0.033
-696.470	89.012	-0.146	-0.166
-695.456	31.458	0.136	-0.119
-694.441	-149.115	0.112	0.009
-693.426	42.109	-0.163	-0.151
-692.412	-27.303	-0.170	-0.101
-691.397	-200.000	0.021	-0.131
-690.383	133.248	-0.051	0.068
-689.368	237.376	0.035	-0.059
-688.354	438.441	0.109	-0.243
-687.339	-200.000	0.036	-0.212
-686.324	800.000	-0.010	-0.034
-685.310	-32.157	0.228	-0.130
-684.295	299.175	0.074	0.138
-683.281	-46.116	-0.209	0.105
-682.266	-132.049	-0.092	0.012
-681.251	-38.327	-0.193	-0.104
-680.237	-200.000	0.005	-0.539
-679.222	-71.179	0.115	0.044
-678.208	800.000	0.026	-0.091
-677.193	-200.000	-0.002	-0.025
-676.178	-200.000	0.028	-0.135
-675.164	133.029	0.052	0.069
-674.149	46.918	-0.155	0.147
-673.135	800.000	0.039	-0.116
-672.120	56.536	-0.244	-0.242
-671.105	-200.000	-0.013	0.537
-670.091	-91.668	-0.352	0.102
-669.076	-105.657	-0.250	0.058
-668.062	-200.000	0.008	0.071
-667.047	277.682	0.125	-0.226
-666.032	-136.421	-0.099	-0.012
-665.018	-70.889	-0.209	0.080
-664.003	28.604	-0.068	-0.059
-662.989	-173.832	-0.075	-0.002
-661.974	800.000	0.102	0.433
-660.959	241.131	-0.152	-0.259
-659.945	800.000	-0.036	0.106
-658.930	-200.000	-0.008	-0.149
-657.916	-170.691	0.041	0.001
-656.901	-144.935	0.200	-0.019
-655.886	4.624	0.184	-0.137
-654.872	141.745	-0.228	0.308
-653.857	800.000	-0.102	0.320
-652.843	-191.312	0.203	-0.002
-651.828	-200.000	0.005	-0.139
-650.814	511.854	-0.117	0.277
-649.799	800.000	0.035	0.148
-648.784	-200.000	0.032	-0.166
-647.770	-200.000	-0.003	-0.102
-646.755	800.000	-0.055	0.156
-645.741	3.343	0.051	0.038
-644.726	644.949	-0.093	0.241
-643.711	353.920	-0.124	-0.250
-642.697	36.375	0.283	-0.254
-641.682	-46.901	-0.216	-0.107
-640.668	-4.650	-0.370	-0.260
-639.653	-27.663	-0.266	-0.157
-638.638	800.000	-0.088	0.277
-637.624	76.342	-0.090	0.097
-636.609	-200.000	-0.003	-0.037
-635.595	401.674	0.146	-0.313
-634.580	164.136	-0.198	0.283
-633.565	14.366	-0.124	-0.098
-632.551	255.331	-0.135	0.235
-631.536	-148.818	-0.236	-0.019
-630.522	77.643	-0.063	0.068
-629.507	45.460	0.211	0.198
-628.492	-98.269	0.269	-0.070
-627.478	-200.000	-0.043	-0.257
-626.463	800.000	0.011	-0.038
-625.449	-135.932	-0.162	0.019
-624.434	-86.346	-0.402	0.126
-623.419	-84.395	0.151	-0.048
-622.405	38.433	0.480	-0.435
-621.390	-200.000	0.034	0.253
-620.376	-200.000	-0.077	0.352
-619.361	-200.000	-0.015	0.238
-618.346	-59.466	0.270	0.118
-617.332	232.551	0.205	0.343
-616.317	-63.510	0.111	0.046
-615.303	-0.416	0.235	-0.170
-614.288	76.148	0.170	0.183
-613.273	800.000	0.116	0.327
-612.259	-200.000	-0.041	0.327
-611.244	58.853	-0.302	-0.302
-610.230	-131.012	0.214	-0.029
-609.215	-55.841	-0.173	-0.079
-608.201	-64.826	-0.174	-0.071
-607.186	-83.850	-0.229	-0.074
-606.171	579.421	-0.089	-0.222
-605.157	800.000	0.023	0.101
-604.142	-1.996	-0.095	-0.068
-603.128	800.000	0.032	0.114
-602.113	-200.000	0.041	0.190
-601.098	-68.190	-0.234	-0.093
-600.084	-130.148	0.221	0.031
-599.069	-50.133	0.256	-0.123
-598.055	655.360	-0.068	0.178
-597.040	-142.965	-0.521	-0.051
-596.025	100.503	-0.101	0.119
-595.011	-17.753	-0.135	-0.086
-593.996	370.511	0.214	-0.441
-592.982	-31.971	-0.047	0.027
-591.967	-200.000	0.013	0.289
-590.952	17.883	0.221	0.179
-589.938	218.263	0.152	-0.247
-588.923	476.900	-0.100	-0.229
-587.909	-60.004	-0.180	0.078
-586.894	302.781	0.141	0.266
-585.879	-47.432	-0.051	-0.025
-584.865	-200.000	0.012	0.354
-583.850	164.764	0.179	-0.256
-582.836	-123.556	0.188	0.030
-581.821	-200.000	0.000	0.107
-580.806	-108.697	0.283	0.062
-579.792	800.000	0.010	0.032
-578.777	-106.857	-0.063	0.014
-577.763	800.000	0.069	0.209
-576.748	-157.248	-0.382	-0.023
-575.733	-143.396	-0.231	0.022
-574.719	800.000	0.052	-0.209
-573.704	202.570	0.019	-0.030
-572.690	-121.445	-0.280	0.047
-571.675	155.067	-0.259	-0.362
-570.661	-80.568	-0.070	0.024
-569.646	187.073	-0.233	0.352
-568.631	-124.171	0.283	-0.045
-567.617	800.000	-0.036	-0.141
-566.602	800.000	0.097	0.275
-565.588	-36.507	0.072	-0.040
-564.573	428.037	-0.100	0.219
-563.558	-159.266	-0.109	0.006
-562.544	-52.276	-0.259	0.122
-561.529	60.988	0.116	0.117
-560.515	-103.628	0.256	0.061
-559.500	103.111	0.055	0.065
-558.485	-87.555	0.121	0.037
-557.471	-200.000	0.002	0.129
-556.456	-200.000	0.031	0.251
-555.442	-200.000	0.003	0.221
-554.427	-145.933	-0.141	-0.013
-553.412	131.747	0.049	0.064
-552.398	-95.839	-0.231	-0.062
-551.383	-139.091	0.285	0.031
-550.369	57.660	0.204	0.202
-549.354	-24.729	-0.226	0.136
-548.339	-81.563	-0.023	-0.008
-547.325	-144.844	0.154	-0.014
-546.310	-98.664	-0.277	-0.072
-545.296	-200.000	-0.016	0.116
-544.281	800.000	-0.052	0.152
-543.266	39.331	0.131	-0.119
-542.252	-113.590	-0.252	0.050
-541.237	800.000	-0.017	0.048
-540.223	-27.652	-0.129	-0.076
-539.208	-144.241	-0.270	-0.026
-538.193	-106.700	-0.299	-0.067
-537.179	-200.000	0.048	0.262
-536.164	437.168	-0.090	-0.198
-535.150	16.969	0.246	-0.197
-534.135	123.214	0.093	-0.118
-533.121	332.144	-0.051	-0.100
-532.106	-120.451	0.150	-0.026
-531.091	-56.916	0.372	-0.166
-530.077	800.000	-0.046	-0.154
-529.062	-200.000	-0.033	-0.499
-528.048	-200.000	-0.001	0.280
-527.033	17.617	0.445	-0.359
-526.018	367.429	-0.067	-0.138
-525.004	-24.044	-0.263	-0.159
-523.989	113.548	0.064	-0.079
-522.975	-90.906	-0.232	0.068
-521.960	-200.000	-0.068	0.360
-520.945	-102.445	-0.339	-0.082
-519.931	800.000	0.029	-0.117
-518.916	800.000	-0.098	0.313
-517.902	-13.072	-0.091	0.060
-516.887	-71.516	0.311	-0.118
-515.872	59.764	0.258	0.257
-514.858	-200.000	0.057	-0.267
-513.843	-20.817	-0.222	0.138
-512.829	558.346	-0.073	0.177
-511.814	800.000	0.032	-0.109
-510.799	-45.664	-0.145	-0.072
-509.785	-49.280	-0.041	0.020
-508.770	89.095	0.209	0.235
-507.756	-200.000	0.045	0.250
-506.741	39.510	0.046	0.042
-505.726	-7.284	-0.087	-0.060
-504.712	-128.847	-0.390	0.055
-503.697	-139.082	0.149	0.016
-502.683	-140.930	-0.065	-0.007
-501.668	532.568	0.114	0.272
-500.653	171.416	0.067	0.097
-499.639	800.000	0.007	0.025
-498.624	306.963	-0.111	0.209
-497.610	-200.000	-0.001	-0.127
-496.595	800.000	0.051	-0.208
-495.581	-60.895	-0.321	-0.138
-494.566	325.433	-0.026	0.051
-493.551	56.555	-0.065	0.064
-492.537	63.118	0.091	0.092
-491.522	-200.000	0.033	-0.425
-490.508	555.934	0.031	-0.076
-489.493	-26.640	0.143	0.084
-488.478	-46.867	-0.225	0.111
-487.464	-200.000	0.034	-0.251
-486.449	-110.790	0.109	-0.023
-485.435	-200.000	0.001	0.011
-484.420	-12.833	0.375	-0.247
-483.405	346.296	-0.057	-0.113
-482.391	-2.313	0.098	-0.070
-481.376	526.559	-0.093	-0.222
-480.362	-140.977	-0.233	-0.024
-479.347	442.172	0.073	-0.162
-478.332	-200.000	-0.048	-0.366
-477.318	-23.749	0.114	-0.069
-476.303	-200.000	0.028	0.275
-475.289	-30.316	0.093	0.054
-474.274	800.000	-0.061	-0.205
-473.259	268.119	0.117	-0.207
-472.245	188.648	-0.173	0.261
-471.230	235.987	0.106	-0.177
-470.216	-200.000	-0.023	-0.145
-469.201	800.000	-0.031	-0.126
-468.186	17.338	-0.040	0.032
-467.172	-200.000	-0.092	0.443
-466.157	198.599	-0.075	0.116
-465.143	800.000	0.050	-0.166
-464.128	800.000	-0.021	0.062
-463.113	-156.060	0.260	0.017
-462.099	-200.000	-0.039	-0.301
-461.084	794.111	-0.120	-0.334
-460.070	209.496	-0.122	-0.193
-459.055	118.526	0.082	0.102
-458.040	800.000	-0.052	-0.199
-457.026	84.664	0.162	0.180
-456.011	106.555	-0.127	0.152
-454.997	279.541	-0.228	0.411
-453.982	-200.000	0.001	0.083
-452.968	393.648	-0.149	-0.314
-451.953	-89.305	0.154	0.046
-450.938	53.383	-0.322	-0.312
-449.924	19.948	0.264	0.215
-448.909	710.884	-0.078	0.209
-447.895	-92.424	0.308	-0.087
-446.880	314.328	-0.105	0.200
-445.865	-158.638	0.412	-0.024
-444.851	384.705	-0.035	-0.072
-443.836	-86.258	-0.051	-0.016
-442.822	18.217	0.162	-0.131
-441.807	59.908	-0.253	-0.253
-440.792	800.000	-0.078	-0.272
-439.778	114.063	-0.046	0.057
-438.763	76.797	0.067	0.072
-437.749	800.000	-0.071	0.207
-436.734	434.235	0.034	-0.075
-435.719	92.024	0.068	0.077
-434.705	280.462	-0.122	0.219
-433.690	-44.652	0.070	-0.036
-432.676	-200.000	-0.365	-0.001
-431.661	-158.454	-0.264	0.015
-430.646	102.405	0.056	0.066
-429.632	316.390	0.127	0.241
-428.617	-29.006	-0.034	-0.020
-427.603	-80.399	-0.229	-0.077
-426.588	-200.000	-0.017	-0.268
-425.573	-49.333	0.283	0.136
-424.559	3.126	0.058	-0.043
-423.544	800.000	0.076	0.269
-422.530	-34.131	0.287	0.159
-421.515	-114.211	0.434	-0.085
-420.500	84.479	0.129	0.143
-419.486	173.653	0.072	0.105
-418.471	463.976	0.143	0.323
-417.457	-194.046	0.342	-0.003
-416.442	90.725	0.114	-0.128
-415.428	-19.247	0.043	-0.027
-414.413	-160.956	0.089	0.005
-413.398	-44.414	-0.238	0.120
-412.384	-90.459	0.274	0.080
-411.369	-200.000	-0.054	0.274
-410.355	230.934	0.122	0.202
-409.340	-105.202	0.232	-0.053
-408.325	-57.312	-0.116	-0.051
-407.311	82.168	-0.185	-0.202
-406.296	-200.000	0.002	-0.130
-405.282	-59.051	-0.126	0.055
-404.267	800.000	0.092	0.360
-403.252	-71.752	0.041	0.015
-402.238	-200.000	0.000	-0.092
-401.223	136.252	-0.066	-0.087
-400.209	-69.793	-0.244	-0.094
-399.194	-55.031	0.314	-0.143
-398.179	-91.393	-0.182	-0.052
-397.165	22.306	-0.249	-0.205
-396.150	147.414	0.127	0.172
-395.136	306.111	0.091	-0.171
-394.121	456.466	0.078	-0.176
-393.106	-6.992	-0.205	0.140
-392.092	45.699	0.018	-0.017
-391.077	-153.970	-0.164	0.011
-390.063	53.432	-0.409	-0.395
-389.048	-140.878	0.139	-0.014
-388.033	800.000	-0.080	-0.295
-387.019	800.000	0.034	0.140
-386.004	113.267	0.360	-0.440
-384.990	-41.022	0.151	-0.079
-383.975	-154.277	-0.169	-0.011
-382.960	-74.422	-0.415	-0.151
-381.946	203.989	0.026	0.041
-380.931	287.231	0.148	0.269
-379.917	-200.000	0.054	0.281
-378.902	106.754	-0.188	-0.225
-377.888	44.761	0.041	-0.038
-376.873	588.517	0.065	0.162
-375.858	16.902	-0.108	0.086
-374.844	-52.374	0.310	0.145
-373.829	-63.278	0.072	-0.030
-372.815	175.702	-0.170	-0.248
-371.800	463.711	0.060	0.135
-370.785	253.943	0.081	-0.140
-369.771	456.313	-0.051	-0.114
-368.756	-2.684	-0.147	0.103
-367.742	-78.156	0.248	0.086
-366.727	232.955	-0.032	-0.053
-365.712	340.029	-0.188	0.370
-364.698	237.933	-0.076	-0.127
-363.683	429.550	0.047	-0.103
-362.669	792.952	-0.136	0.377
-361.654	-200.000	-0.031	-0.351
-360.639	-144.664	-0.163	0.015
-359.625	-200.000	0.021	-0.120
-358.610	-98.722	-0.147	0.038
-357.596	-87.798	0.118	-0.036
-356.581	-17.282	0.264	-0.167
-355.566	318.002	0.131	0.250
-354.552	528.838	0.121	0.288
-353.537	-200.000	0.001	0.118
-352.523	38.404	-0.383	-0.344
-351.508	-200.000	-0.039	-0.294
-350.493	-13.258	0.377	-0.246
-349.479	-58.104	0.190	-0.083
-348.464	-14.938	-0.302	-0.195
-347.450	-102.433	0.211	0.051
-346.435	-116.653	-0.239	-0.044
-345.420	-48.068	0.382	-0.186
-344.406	-124.478	-0.344	-0.054
-343.391	585.760	0.097	0.240
-342.377	-82.886	0.237	0.077
-341.362	800.000	0.071	0.255
-340.348	-200.000	-0.048	-0.264
-339.333	-1.643	0.156	0.111
-338.318	-62.656	0.061	0.025
-337.304	-60.998	0.098	-0.042
-336.289	-200.000	-0.023	-0.158
-335.275	-89.074	-0.384	-0.114
-334.260	-122.327	-0.151	-0.025
-333.245	-72.342	0.388	-0.144
-332.231	-130.733	0.217	0.029
-331.216	-149.811	-0.232	-0.018
-330.202	800.000	-0.046	-0.168
-329.187	109.920	0.279	0.336
-328.172	44.997	-0.182	0.169
-327.158	-176.867	-0.252	-0.006
-326.143	-200.000	-0.005	0.169
-325.129	611.677	0.082	-0.205
-324.114	800.000	0.086	-0.241
-323.099	-73.162	0.191	0.070
-322.085	32.454	-0.305	-0.265
-321.070	-71.578	0.335	0.126
-320.056	-200.000	0.042	0.224
-319.041	468.699	0.052	-0.117
-318.026	8.607	0.011	0.009
-317.012	516.026	-0.028	-0.065
-315.997	246.803	-0.160	0.271
-314.983	-161.422	-0.211	0.011
-313.968	470.086	0.070	0.158
-312.953	26.886	0.077	0.065
-311.939	29.628	-0.208	0.178
-310.924	-200.000	0.013	0.447
-309.910	800.000	0.093	-0.292
-308.895	-41.804	0.193	-0.100
-307.880	-102.236	0.240	-0.058
-306.866	-41.404	-0.172	0.089
-305.851	69.755	-0.057	-0.059
-304.837	265.278	0.064	-0.112
-303.822	-26.261	0.375	-0.221
-302.807	-47.502	-0.063	0.031
-301.793	117.381	-0.212	0.262
-300.778	-56.412	-0.433	0.193
-299.764	10.493	0.220	-0.168
-298.749	311.737	0.122	-0.230
-297.735	94.866	0.045	-0.051
-296.720	-92.979	-0.177	0.050
-295.705	-92.546	0.183	-0.052
-294.691	339.893	0.032	0.063
-293.676	618.946	0.088	0.222
-292.662	-96.688	0.027	-0.007
-291.647	-200.000	-0.024	0.131
-290.632	800.000	-0.038	0.117
-289.618	-140.960	-0.104	-0.011
-288.603	-98.730	-0.140	0.036
-287.589	95.056	-0.181	0.207
-286.574	-19.040	-0.142	-0.089
-285.559	334.625	0.160	-0.312
-284.545	-200.000	-0.045	-0.367
-283.530	-116.792	-0.256	0.047
-282.516	30.677	-0.023	0.020
-281.501	800.000	0.075	0.314
-280.486	-80.938	0.055	-0.018
-279.472	53.503	0.153	0.147
-278.457	-106.162	0.123	0.028
-277.443	-49.129	-0.140	0.067
-276.428	-115.128	0.330	-0.063
-275.413	800.000	0.035	-0.123
-274.399	112.356	0.052	-0.063
-273.384	-37.941	-0.047	-0.025
-272.370	294.321	-0.147	0.269
-271.355	18.596	0.402	0.322
-270.340	419.633	-0.037	-0.080
-269.326	15.413	-0.086	0.068
-268.311	581.759	0.097	0.238
-267.297	-90.867	-0.049	0.014
-266.282	310.116	-0.004	-0.007
-265.267	-200.000	0.017	-0.231
-264.253	-128.845	-0.289	0.041
-263.238	-35.135	0.069	0.038
-262.224	138.018	0.113	0.149
-261.209	-17.744	-0.086	-0.054
-260.195	-75.556	0.234	0.083
-259.180	-135.609	-0.174	-0.021
-258.165	800.000	-0.034	0.129
-257.151	-200.000	0.036	-0.189
-256.136	147.505	0.073	-0.098
-255.122	35.172	-0.104	-0.092
-254.107	-31.422	0.152	0.086
-253.092	10.389	0.067	0.051
-252.078	-200.000	0.010	-0.111
-251.063	57.269	0.076	-0.075
-250.049	7.460	-0.205	0.154
-249.034	-200.000	-0.011	0.071
-248.019	800.000	0.021	0.084
-247.005	200.162	-0.073	0.113
-245.990	-21.614	0.102	0.062
-244.976	-200.000	0.006	-0.312
-243.961	-121.914	0.078	-0.013
-242.946	-175.827	0.342	0.009
-241.932	-175.775	-0.427	-0.011
-240.917	-70.161	-0.105	0.040
-239.903	-200.000	0.033	-0.242
-238.888	37.739	-0.132	0.117
-237.873	114.897	-0.190	0.232
-236.859	-154.089	-0.236	-0.016
-235.844	188.423	0.060	0.089
-234.830	-200.000	-0.000	0.112
-233.815	227.616	-0.135	0.220
-232.800	-151.063	-0.090	0.007
-231.786	-75.667	0.133	-0.047
-230.771	12.829	-0.107	0.083
-229.757	-81.345	0.138	-0.045
-228.742	-70.216	0.309	-0.117
-227.727	-28.787	0.292	0.168
-226.713	-54.254	0.097	-0.044
-225.698	42.307	0.164	-0.149
-224.684	-14.446	0.447	0.288
-223.669	15.250	-0.233	0.183
-222.655	-34.113	0.083	-0.045
-221.640	9.684	0.234	-0.178
-220.625	37.164	0.029	-0.026
-219.611	-26.822	0.351	0.205
-218.596	102.266	0.316	0.370
-217.582	-77.483	0.231	-0.080
-216.567	800.000	-0.057	0.173
-215.552	-102.980	0.229	0.054
-214.538	-187.788	-0.077	0.001
-213.523	800.000	0.028	-0.113
-212.509	-159.233	-0.205	0.012
-211.494	153.178	-0.117	0.160
-210.479	800.000	0.081	-0.322
-209.465	-200.000	0.003	-0.067
-208.450	-37.820	-0.172	0.092
-207.436	800.000	-0.089	-0.318
-206.421	-14.416	0.069	-0.044
-205.406	800.000	0.049	-0.163
-204.392	-129.476	-0.294	-0.041
-203.377	-99.163	-0.389	-0.098
-202.363	-91.254	0.075	-0.021
-201.348	-18.799	-0.330	0.206
-200.333	302.938	-0.092	0.170
-199.319	800.000	-0.111	-0.438
-198.304	-200.000	0.011	0.207
-197.290	800.000	-0.047	0.159
-196.275	-166.635	-0.278	0.012
-195.260	-200.000	-0.043	-0.232
-194.246	-115.912	0.057	-0.011
-193.231	-10.270	0.233	0.155
-192.217	115.875	-0.103	-0.125
-191.202	10.691	0.113	0.086
-190.187	92.754	-0.083	0.094
-189.173	165.547	0.134	-0.190
-188.158	434.407	-0.104	-0.226
-187.144	-111.669	0.401	-0.081
-186.129	-200.000	-0.011	-0.111
-185.114	-61.760	0.238	0.100
-184.100	133.002	-0.075	-0.097
-183.085	82.624	-0.099	0.107
-182.071	800.000	0.086	-0.242
-181.056	128.998	0.063	-0.080
-180.042	-40.895	-0.021	-0.011
-179.027	124.112	-0.125	0.157
-178.012	800.000	0.092	-0.263
-176.998	800.000	0.105	-0.456
-175.983	277.630	0.019	0.033
-174.969	-100.119	-0.142	0.035
-173.954	-200.000	0.009	-0.167
-172.939	-177.503	0.199	0.005
-171.925	23.579	0.427	0.351
-170.910	160.291	0.132	0.184
-169.896	800.000	-0.035	-0.101
-168.881	-2.698	-0.120	0.084
-167.866	202.225	-0.087	0.134
-166.852	198.426	-0.108	-0.166
-165.837	-200.000	0.015	0.123
-164.823	-93.989	0.294	-0.081
-163.808	-21.131	0.118	0.072
-162.793	735.994	-0.052	-0.139
-161.779	-200.000	-0.013	-0.486
-160.764	155.420	-0.228	-0.314
-159.750	-93.146	-0.222	-0.062
-158.735	-121.521	-0.318	0.053
-157.720	-200.000	0.035	0.275
-156.706	-103.028	-0.358	-0.085
-155.691	-56.464	-0.140	0.062
-154.677	366.973	-0.034	0.069
-153.662	477.513	-0.027	0.060
-152.647	800.000	-0.008	0.027
-151.633	529.878	0.175	-0.414
-150.618	204.939	-0.057	0.088
-149.604	-106.235	0.162	0.036
-148.589	-200.000	0.017	-0.102
-147.574	-200.000	-0.064	0.349
-146.560	42.861	-0.217	0.197
-145.545	-36.323	-0.029	-0.015
-144.531	-200.000	0.016	0.142
-143.516	-140.159	0.252	0.026
-142.502	-30.096	-0.197	0.112
-141.487	40.015	0.147	0.132
-140.472	436.785	-0.139	0.302
-139.458	719.062	-0.063	0.168
-138.443	252.478	0.111	0.189
-137.429	-24.607	-0.173	-0.103
-136.414	-200.000	0.002	0.133
-135.399	236.736	-0.153	0.253
-134.385	68.696	0.164	0.168
-133.370	191.252	-0.227	0.341
-132.356	113.536	0.053	-0.064
-131.341	-31.764	-0.052	-0.029
-130.326	45.750	0.074	0.068
-129.312	-84.638	-0.314	0.099
-128.297	-149.103	0.157	0.013
-127.283	114.548	0.188	0.229
-126.268	-200.000	0.025	0.279
-125.253	368.267	-0.054	-0.109
-124.239	800.000	-0.050	-0.142
-123.224	-52.156	0.183	-0.085
-122.210	-99.999	-0.296	0.074
-121.195	-90.994	0.261	0.075
-120.180	15.165	0.264	0.206
-119.166	207.810	-0.119	0.185
-118.151	141.313	-0.209	-0.276
-117.137	119.213	-0.208	-0.257
-116.122	321.519	-0.128	-0.243
-115.107	-200.000	-0.002	-0.191
-114.093	34.885	0.075	0.066
-113.078	-110.249	-0.376	-0.078
-112.064	624.083	0.091	-0.229
-111.049	0.728	0.278	-0.199
-110.034	16.457	-0.186	0.147
-109.020	-69.318	0.086	0.033
-108.005	-146.176	0.116	0.010
-106.991	-182.372	-0.457	0.008
-105.976	114.726	-0.099	0.120
-104.962	-200.000	0.038	0.181
-103.947	411.906	0.030	-0.063
-102.932	-200.000	-0.039	0.277
-101.918	123.281	-0.248	-0.310
-100.903	-124.809	0.226	-0.035
-99.889	243.866	-0.103	-0.173
-98.874	145.541	0.214	0.286
-97.859	-200.000	0.005	0.084
-96.845	-93.463	0.281	0.077
-95.830	-88.659	-0.291	-0.086
-94.816	80.664	-0.104	-0.111
-93.801	132.312	0.123	-0.158
-92.786	-200.000	-0.019	0.131
-91.772	447.925	0.104	0.227
-90.757	-0.053	-0.186	0.132
-89.743	14.421	0.162	0.126
-88.728	-51.809	-0.154	-0.071
-87.713	-156.492	0.248	0.015
-86.699	-103.129	-0.128	0.030
-85.684	-3.175	-0.248	-0.173
-84.670	-114.456	0.074	0.014
-83.655	-57.365	0.220	-0.096
-82.640	800.000	-0.026	0.073
-81.626	800.000	0.060	-0.198
-80.611	128.477	0.062	0.078
-79.597	-200.000	-0.013	-0.289
-78.582	28.445	-0.260	0.219
-77.567	-200.000	-0.016	0.392
-76.553	-200.000	0.074	0.421
-75.538	607.325	-0.144	0.359
-74.524	9.404	0.259	0.195
-73.509	403.052	0.093	0.195
-72.494	-54.303	0.309	-0.140
-71.480	47.271	0.111	0.103
-70.465	4.947	-0.303	0.222
-69.451	309.888	-0.108	0.201
-68.436	-36.266	0.395	-0.212
-67.422	275.945	-0.088	0.155
-66.407	7.683	0.129	-0.096
-65.392	-200.000	0.035	0.382
-64.378	31.693	0.085	-0.073
-63.363	-131.220	-0.189	0.025
-62.349	-15.815	0.139	-0.088
-61.334	50.505	-0.840	-0.790
-60.319	329.241	0.128	0.244
-59.305	-200.000	0.013	-0.406
-58.290	124.170	0.841	1.052
-57.276	242.180	0.824	1.371
-56.261	-200.000	81.067	516.244
-55.246	522.933	1329.805	3107.661
-54.232	151.369	2543.548	3444.526
-53.217	113.466	2233.512	2697.070
-52.203	49.320	1768.700	1654.473
-51.188	42.569	1573.195	1423.902
-50.173	40.074	1545.419	1381.307
-49.159	56.100	1587.159	1532.273
-48.144	60.830	1607.297	1585.128
-47.130	43.126	1567.770	1422.698
-46.115	39.793	1552.793	1385.704
-45.100	39.617	1549.363	1381.359
-44.086	39.564	1547.398	1379.177
-43.071	39.372	1545.533	1376.121
-42.057	39.339	1543.950	1374.426
-41.042	39.260	1542.844	1372.831
-40.027	39.414	1541.142	1372.337
-39.013	39.332	1539.673	1370.406
-37.998	39.348	1538.233	1369.179
-36.984	39.399	1536.548	1367.979
-35.969	39.425	1535.421	1367.105
-34.954	39.355	1534.118	1365.405
-33.940	39.560	1532.172	1365.039
-32.925	39.448	1531.214	1363.352
-31.911	39.425	1529.756	1361.842
-30.896	39.540	1528.107	1361.111
-29.881	39.497	1527.127	1359.892
-28.867	39.449	1525.848	1358.368
-27.852	39.525	1524.277	1357.439
-26.838	39.541	1522.787	1356.169
-25.823	39.633	1520.541	1354.746
-24.809	39.476	1519.198	1352.418
-23.794	39.410	1518.032	1350.870
-22.779	39.352	1517.220	1349.701
-21.765	39.486	1515.450	1348.992
-20.750	39.533	1514.356	1348.286
-19.736	39.373	1513.768	1346.610
-18.721	39.350	1512.612	1345.374
-17.706	39.433	1511.273	1344.691
-16.692	39.430	1510.172	1343.638
-15.677	39.468	1509.213	1342.991
-14.663	39.489	1507.752	1341.785
-13.648	39.339	1507.148	1340.175
-12.633	39.433	1505.925	1339.674
-11.619	39.344	1505.446	1338.588
-10.604	39.314	1504.331	1337.340
-9.590	39.433	1503.718	1337.546
-8.575	39.370	1502.500	1335.981
-7.560	39.411	1501.650	1335.450
-6.546	39.296	1501.060	1334.097
-5.531	39.368	1500.013	1333.597
-4.517	39.336	1499.365	1332.751
-3.502	39.389	1497.610	1331.497
-2.487	39.471	1496.468	1330.984
-1.473	39.350	1495.874	1329.588
-0.458	39.407	1494.293	1328.510
0.556	37.420	1485.034	1316.531
1.571	34.086	1456.743	1269.135
2.586	29.850	1391.641	1185.247
3.600	27.546	1306.092	1098.415
4.615	25.789	1257.487	1047.239
5.629	24.116	1204.474	993.671
6.644	19.996	1124.324	905.962
7.659	16.075	1083.736	853.371
8.673	15.433	1078.098	845.620
9.688	15.249	1075.578	842.647
10.702	15.141	1073.818	840.653
11.717	15.217	1072.054	839.577
12.731	16.812	1073.424	848.571
13.746	20.643	1077.628	871.040
14.761	20.934	1077.480	872.299
15.775	18.433	1072.956	856.081
16.790	16.990	1069.764	846.263
17.804	15.782	1067.487	838.374
18.819	14.866	1065.688	832.329
19.834	14.334	1064.014	828.301
20.848	13.909	1063.095	825.399
21.863	13.663	1062.072	823.312
22.877	13.503	1061.585	822.067
23.892	13.311	1060.454	820.166
24.907	13.178	1060.034	819.107
25.921	13.085	1059.021	817.793
26.936	13.126	1058.138	817.241
27.950	13.203	1057.259	816.872
28.965	13.330	1055.571	816.123
29.980	13.384	1054.459	815.457
30.994	13.402	1053.669	814.859
32.009	13.508	1052.531	814.430
33.023	13.422	1051.987	813.516
34.038	13.447	1051.292	813.028
35.053	13.369	1050.032	811.599
36.067	13.410	1049.143	811.042
37.082	13.323	1048.572	810.103
38.096	13.268	1047.680	809.070
39.111	13.490	1046.940	809.514
40.126	13.370	1045.759	807.941
41.140	13.283	1044.901	806.784
42.155	13.218	1044.213	805.867
43.169	13.161	1043.290	804.803
44.184	13.042	1042.020	803.175
45.199	13.252	1040.557	802.997
46.213	13.134	1039.918	801.858
47.228	13.154	1038.959	801.146
48.242	13.204	1037.951	800.538
49.257	13.365	1037.065	800.564
50.271	13.343	1035.817	799.425
51.286	13.319	1035.024	798.624
52.301	13.334	1034.026	797.857
53.315	13.323	1033.296	797.167
54.330	13.372	1032.670	796.854
55.344	13.291	1031.607	795.573
56.359	13.286	1030.557	794.668
57.374	13.244	1029.531	793.605
58.388	13.295	1028.817	793.227
59.403	13.117	1028.546	792.097
60.417	13.193	1027.520	791.600
61.432	13.156	1027.359	791.230
62.447	13.258	1026.349	790.869
63.461	13.146	1025.577	789.667
64.476	12.990	1024.361	787.918
65.490	13.084	1023.488	787.626
66.505	13.109	1022.268	786.734
67.520	13.230	1021.457	786.616
68.534	13.144	1021.241	785.973
69.549	13.199	1020.127	785.306
70.563	13.204	1019.547	784.815
71.578	13.067	1018.838	783.550
72.593	13.202	1017.871	783.375
73.607	12.996	1017.499	782.044
74.622	12.974	1016.614	781.190
75.636	13.066	1015.228	780.491
76.651	12.926	1014.734	779.382
77.666	13.040	1013.835	779.161
78.680	13.001	1013.148	778.380
79.695	13.004	1012.554	777.866
80.709	12.974	1012.265	777.433
81.724	13.074	1011.135	776.968
82.739	13.211	1010.131	776.774
83.753	13.166	1009.350	775.891
84.768	13.202	1009.037	775.753
85.782	13.524	1007.404	775.939
86.797	13.307	1007.330	774.794
87.812	13.229	1006.743	773.909
88.826	13.255	1005.624	773.101
89.841	13.267	1004.699	772.376
90.855	13.269	1003.893	771.698
91.870	13.254	1003.100	770.951
92.884	13.217	1002.748	770.442
93.899	13.359	1001.623	770.171
94.914	13.406	1001.131	769.944
95.928	13.307	1000.166	768.670
96.943	13.557	999.233	769.050
97.957	13.430	998.659	767.948
98.972	13.445	997.819	767.302
99.987	13.272	997.030	765.827
101.001	13.474	996.238	766.087
102.016	13.396	995.103	764.784
103.030	13.294	994.951	764.131
104.045	13.333	993.527	763.149
105.060	13.307	992.654	762.292
106.074	13.434	991.324	761.787
107.089	13.355	990.307	760.576
108.103	13.233	989.990	759.701
109.118	13.189	988.538	758.318
110.133	13.216	987.681	757.718
111.147	13.195	987.243	757.219
112.162	13.153	986.351	756.276
113.176	13.239	985.157	755.685
114.191	13.174	984.720	754.987
115.206	13.246	983.585	754.379
116.220	13.333	982.831	754.133
117.235	13.224	982.605	753.395
118.249	13.283	981.191	752.512
119.264	13.205	980.439	751.513
120.279	13.266	979.850	751.275
121.293	13.154	979.359	750.320
122.308	13.174	978.300	749.534
123.322	13.223	977.297	748.922
124.337	13.215	976.602	748.287
125.352	13.170	974.919	746.727
126.366	13.181	974.282	746.225
127.381	13.225	972.834	745.248
128.395	13.198	971.980	744.405
129.410	13.181	970.992	743.505
130.424	13.187	970.102	742.785
131.439	13.249	969.311	742.392
132.454	13.155	968.934	741.618
133.468	13.308	967.625	741.233
134.483	13.330	967.040	740.822
135.497	13.334	966.493	740.351
136.512	13.299	965.857	739.645
137.527	13.350	964.521	738.785
138.541	13.272	964.333	738.225
139.556	13.329	963.016	737.406
140.570	13.279	962.637	736.830
141.585	13.465	961.605	736.800
142.600	13.370	961.266	736.051
143.614	13.454	960.320	735.638
144.629	13.452	959.383	734.845
145.643	13.394	959.153	734.346
146.658	13.578	958.083	734.280
147.673	13.312	957.648	732.699
148.687	13.334	956.499	731.857
149.702	13.345	955.331	730.945
150.716	13.311	954.422	730.035
151.731	13.329	953.732	729.522
152.746	13.390	953.065	729.214
153.760	13.332	952.049	728.119
154.775	13.357	951.530	727.767
155.789	13.438	950.600	727.346
156.804	13.455	949.723	726.688
157.819	13.471	949.394	726.439
158.833	13.461	948.974	726.010
159.848	13.435	947.862	724.982
160.862	13.529	947.339	724.929
161.877	13.621	946.394	724.543
162.892	13.495	945.599	723.323
163.906	13.454	945.035	722.646
164.921	13.403	944.054	721.610
165.935	13.350	943.423	720.833
166.950	13.447	942.243	720.290
167.964	13.416	941.391	719.442
168.979	13.541	940.219	719.024
169.994	13.468	939.774	718.305
171.008	13.432	938.779	717.324
172.023	13.555	937.969	717.172
173.037	13.627	937.022	716.697
174.052	13.493	936.725	715.827
175.067	13.533	935.943	715.339
176.081	13.455	935.117	714.306
177.096	13.496	934.431	713.895
178.110	13.580	933.116	713.191
179.125	13.555	932.117	712.255
180.140	13.482	932.039	711.822
181.154	13.518	930.926	711.061
182.169	13.659	930.284	711.115
183.183	13.579	929.602	710.186
184.198	13.681	928.719	709.886
185.213	13.588	928.494	709.252
186.227	13.605	927.853	708.775
187.242	13.747	927.403	708.975
188.256	13.751	926.439	708.192
189.271	13.919	925.969	708.485
190.286	13.758	924.882	706.905
191.300	13.656	924.332	705.987
192.315	13.456	923.328	704.307
193.329	13.527	922.736	704.098
194.344	13.567	922.153	703.759
195.359	13.586	921.609	703.361
196.373	13.631	921.311	703.265
197.388	13.733	920.415	702.949
198.402	13.807	920.293	703.108
199.417	13.881	920.189	703.281
200.432	13.889	919.425	702.667
201.446	13.885	918.772	702.090
202.461	13.967	918.269	701.988
203.475	14.041	917.312	701.509
204.490	14.197	916.762	701.684
205.504	14.023	915.991	700.298
206.519	13.891	915.437	699.256
207.534	13.933	914.823	698.902
208.548	13.918	913.652	697.885
209.563	14.053	913.166	698.016
210.577	13.997	912.168	696.956
211.592	13.939	911.937	696.476
212.607	14.027	911.463	696.420
213.621	14.082	910.797	696.082
214.636	13.957	910.117	694.975
215.650	14.165	909.059	694.976
216.665	14.083	909.237	694.709
217.680	14.166	908.429	694.378
218.694	14.249	907.782	694.166
219.709	14.174	907.709	693.736
220.723	14.133	906.784	692.797
221.738	14.252	905.661	692.374
222.753	14.165	905.448	691.786
223.767	14.192	904.724	691.284
224.782	14.266	903.640	690.703
225.796	14.311	902.579	690.019
226.811	14.287	902.281	689.629
227.826	14.394	901.391	689.331
228.840	14.344	900.631	688.481
229.855	14.155	900.149	687.272
230.869	14.310	899.257	687.168
231.884	14.279	898.790	686.623
232.899	14.348	898.077	686.304
233.913	14.243	897.387	685.280
234.928	14.348	896.525	684.992
235.942	14.292	896.010	684.312
236.957	14.329	895.290	683.850
237.972	14.144	894.819	682.674
238.986	14.238	894.328	682.624
240.001	14.285	893.570	682.176
241.015	14.266	893.275	681.814
242.030	14.419	892.004	681.407
243.045	14.300	891.692	680.623
244.059	14.357	890.951	680.230
245.074	14.406	890.287	679.862
246.088	14.399	889.988	679.545
247.103	14.482	889.057	679.113
248.117	14.476	888.758	678.801
249.132	14.371	888.438	678.066
250.147	14.691	887.754	678.789
251.161	14.646	887.147	678.082
252.176	14.577	886.617	677.336
253.190	14.681	885.595	676.917
254.205	14.684	885.322	676.659
255.220	14.782	884.340	676.245
256.234	14.907	883.584	676.113
257.249	14.783	883.055	675.147
258.263	14.806	882.907	675.067
259.278	14.941	881.890	674.776
260.293	14.789	881.778	674.016
261.307	14.702	881.358	673.284
262.322	14.866	880.657	673.349
263.336	15.059	879.756	673.378
264.351	14.980	879.053	672.465
265.366	15.108	878.136	672.219
266.380	15.000	877.992	671.615
267.395	15.047	877.164	671.108
268.409	15.130	876.187	670.637
269.424	14.895	875.874	669.397
270.439	14.897	875.199	668.826
271.453	15.087	873.965	668.584
272.468	14.959	873.742	667.843
273.482	14.951	873.125	667.283
274.497	14.985	872.455	666.846
275.512	14.927	871.748	666.015
276.526	14.945	870.637	665.181
277.541	15.020	870.029	664.953
278.555	15.109	869.772	665.054
279.570	15.184	869.186	664.844
280.585	15.081	868.957	664.200
281.599	15.082	868.054	663.454
282.614	15.225	867.501	663.538
283.628	15.236	866.789	662.982
284.643	15.275	865.642	662.198
285.657	15.106	865.773	661.574
286.672	15.251	864.889	661.411
287.687	15.136	864.715	660.766
288.701	15.274	864.294	660.928
289.716	15.178	863.585	659.948
290.730	15.269	863.189	659.947
291.745	15.278	862.497	659.396
292.760	15.170	861.484	658.137
293.774	15.246	860.579	657.686
294.789	15.414	860.384	658.138
295.803	15.352	859.748	657.350
296.818	15.413	858.997	656.956
297.833	15.387	858.490	656.410
298.847	15.289	857.711	655.374
299.862	15.282	857.058	654.789
300.876	15.299	856.402	654.297
301.891	15.295	856.318	654.160
302.906	15.344	855.776	653.879
303.920	15.575	854.568	653.796
304.935	15.437	854.201	652.919
305.949	15.626	853.318	652.924
306.964	15.581	852.543	652.098
307.979	15.601	851.714	651.482
308.993	15.440	851.949	650.981
310.008	15.767	850.939	651.419
311.022	15.545	850.757	650.361
312.037	15.607	850.253	650.159
313.052	15.672	849.537	649.805
314.066	15.612	849.090	649.172
315.081	15.535	848.437	648.320
316.095	15.449	847.692	647.360
317.110	15.590	847.194	647.466
318.125	15.524	846.775	646.835
319.139	15.644	845.860	646.539
320.154	15.639	845.442	646.143
321.168	15.685	844.850	645.811
322.183	15.633	844.850	645.553
323.197	15.575	844.234	644.805
324.212	15.519	843.617	644.063
325.227	15.639	843.195	644.140
326.241	15.764	842.281	643.865
327.256	15.717	841.626	643.128
328.270	15.621	841.345	642.491
329.285	15.779	840.694	642.539
330.300	15.721	840.106	641.811
331.314	15.792	839.448	641.522
332.329	15.803	838.890	641.083
333.343	15.900	838.298	640.942
334.358	15.924	837.563	640.414
335.373	15.952	837.199	640.184
336.387	15.926	836.220	639.282
337.402	15.980	835.802	639.108
338.416	15.967	835.532	638.798
339.431	15.886	834.868	637.928
340.446	16.018	834.370	637.990
341.460	16.045	833.768	637.574
342.475	16.197	832.950	637.468
343.489	16.262	832.238	637.111
344.504	16.207	832.270	636.870
345.519	16.107	831.734	636.029
346.533	16.303	831.137	636.255
347.548	16.263	830.865	635.840
348.562	16.164	830.261	634.949
349.577	16.122	829.572	634.207
350.592	16.072	829.144	633.636
351.606	16.020	828.731	633.070
352.621	16.201	828.095	633.206
353.635	15.976	827.858	632.123
354.650	16.197	827.278	632.453
355.665	16.244	826.858	632.252
356.679	16.143	826.711	631.704
357.694	16.291	825.728	631.451
358.708	16.312	825.342	631.180
359.723	16.258	824.806	630.513
360.738	16.413	824.374	630.705
361.752	16.226	823.889	629.580
362.767	16.306	823.268	629.348
363.781	16.358	823.076	629.339
364.796	16.449	822.462	629.155
365.810	16.488	822.019	628.905
366.825	16.506	821.775	628.728
367.840	16.585	821.352	628.642
368.854	16.449	821.125	627.909
369.869	16.414	820.488	627.234
370.883	16.469	819.820	626.873
371.898	16.445	819.491	626.477
372.913	16.466	819.034	626.151
373.927	16.527	818.181	625.669
374.942	16.576	817.614	625.362
375.956	16.637	816.791	624.903
376.971	16.558	816.313	624.190
377.986	16.638	815.971	624.169
379.000	16.662	815.212	623.619
380.015	16.701	814.529	623.187
381.029	16.756	814.388	623.226
382.044	16.777	813.685	622.709
383.059	16.799	812.846	622.092
384.073	16.725	812.789	621.722
385.088	16.701	811.755	620.789
386.102	16.830	811.272	620.837
387.117	16.734	810.650	619.955
388.132	16.692	809.960	619.218
389.146	16.611	810.116	618.985
390.161	16.558	810.249	618.839
391.175	16.768	809.199	618.751
392.190	16.741	808.926	618.388
393.205	16.866	808.521	618.481
394.219	16.785	807.788	617.569
395.234	16.678	807.493	616.898
396.248	16.710	807.096	616.660
397.263	16.683	806.508	616.056
398.278	16.685	806.445	615.960
399.292	16.697	805.884	615.520
400.307	16.785	805.186	615.254
401.321	16.914	804.478	615.127
402.336	16.790	804.356	614.529
403.350	16.782	804.324	614.419
404.365	16.767	803.998	614.064
405.380	17.000	803.071	614.144
406.394	17.024	802.667	613.869
407.409	17.017	802.061	613.326
408.423	17.117	801.786	613.421
409.438	17.081	801.334	612.892
410.453	17.255	800.652	612.944
411.467	17.163	800.317	612.299
412.482	17.265	799.702	612.141
413.496	17.241	799.238	611.649
414.511	17.278	798.947	611.501
415.526	17.315	798.657	611.362
416.540	17.156	798.278	610.444
417.555	17.156	798.311	610.415
418.569	17.302	797.587	610.334
419.584	17.372	796.980	610.066
420.599	17.319	796.634	609.556
421.613	95.362	1271.115	1396.447
422.628	81.462	1340.263	1396.587
