DTS Sentinel unit serial number:	SN413079Multiplexer serial number:	ORYXHardware model number:	OX4-SRSoftware version number:	ORYX F/W v4.00 Oryx Data Collector v3.7.2.0data status	okinstallation	princeton_trtdifferential loss correction	single-endedforward channel	channel 3reverse channel	N/Adate	2019/09/17time	14:04:35forward acquisition time	60.00reverse acquisition time	0.00gamma	496.2192k internal	0.2300k external	0.2300temperature offset calibration	0.9958default loss term (dB/km)	0.3790temperature slope calibration	1.0000multiplexer offset coefficient	1.0000multiplexer slope coefficient	1.0000fibre end	0.00T internal ref (°C)	35.69T ext. ref 1 (°C)	0.40T ext. ref 2 (°C)	32.58length (m)	temperature (°C)	Stokes	anti-Stokes-747.200	662.038	-0.090	-0.238
-746.185	-49.917	0.388	0.188
-745.171	-122.614	0.308	0.051
-744.156	507.822	-0.127	0.300
-743.142	159.541	-0.136	-0.192
-742.127	-102.995	-0.081	-0.020
-741.112	40.715	0.056	-0.051
-740.098	731.792	-0.078	-0.211
-739.083	-92.469	0.191	0.055
-738.069	-37.879	0.124	0.067
-737.054	-200.000	0.006	-0.208
-736.039	501.065	0.066	-0.155
-735.025	31.160	0.155	0.136
-734.010	-35.204	0.117	0.065
-732.996	-43.931	-0.182	-0.093
-731.981	800.000	0.084	-0.334
-730.966	50.185	-0.194	-0.186
-729.952	800.000	-0.054	-0.212
-728.937	-138.323	-0.101	-0.011
-727.923	432.159	0.149	-0.329
-726.908	-9.063	0.074	-0.050
-725.894	284.261	-0.112	-0.206
-724.879	-133.882	-0.143	0.018
-723.864	-94.444	-0.209	-0.058
-722.850	69.541	-0.166	-0.174
-721.835	111.186	0.132	0.161
-720.821	-200.000	-0.012	0.148
-719.806	-200.000	0.003	-0.219
-718.791	351.199	0.157	-0.317
-717.777	-200.000	-0.026	-0.169
-716.762	325.053	0.047	-0.092
-715.748	152.437	-0.167	-0.232
-714.733	-41.331	-0.142	0.075
-713.718	137.024	-0.094	0.126
-712.704	-92.177	0.327	0.094
-711.689	40.223	-0.077	-0.071
-710.675	-200.000	-0.000	-0.209
-709.660	300.873	-0.064	0.120
-708.645	103.619	0.242	0.289
-707.631	57.220	-0.321	-0.319
-706.616	800.000	-0.042	-0.170
-705.602	-28.821	-0.271	-0.159
-704.587	-9.554	-0.140	-0.095
-703.572	-113.719	0.159	0.031
-702.558	34.556	0.159	0.141
-701.543	548.873	0.044	0.107
-700.529	-181.008	-0.239	-0.005
-699.514	-85.072	0.203	0.065
-698.499	319.751	0.120	0.232
-697.485	-60.888	0.192	0.083
-696.470	-53.625	-0.192	-0.089
-695.456	9.507	0.126	0.097
-694.441	94.714	-0.197	-0.228
-693.426	180.981	-0.014	0.021
-692.412	-38.851	0.076	-0.041
-691.397	-31.546	0.100	0.057
-690.383	-46.471	-0.219	0.109
-689.368	-200.000	0.097	-0.469
-688.354	-155.782	-0.384	0.025
-687.339	-200.000	-0.067	-0.301
-686.324	-93.432	-0.141	0.040
-685.310	-200.000	-0.011	-0.326
-684.295	-184.136	-0.148	-0.003
-683.281	-146.026	0.099	0.009
-682.266	569.322	-0.075	-0.186
-681.251	-200.000	-0.050	-0.383
-680.237	141.317	0.480	0.647
-679.222	117.963	-0.060	-0.076
-678.208	-200.000	-0.037	0.182
-677.193	72.070	-0.190	-0.201
-676.178	-125.635	0.405	-0.062
-675.164	27.932	-0.064	-0.055
-674.149	-60.245	-0.094	-0.041
-673.135	-58.978	-0.275	0.121
-672.120	-200.000	0.025	0.117
-671.105	-101.417	-0.055	0.014
-670.091	-93.324	0.284	0.080
-669.076	590.543	0.026	-0.064
-668.062	55.555	-0.198	0.195
-667.047	-86.070	-0.183	0.057
-666.032	382.258	-0.160	-0.334
-665.018	-140.475	0.167	0.018
-664.003	-90.218	-0.311	0.092
-662.989	250.534	0.052	0.090
-661.974	460.480	0.156	-0.353
-660.959	164.373	-0.190	-0.272
-659.945	-200.000	-0.004	-0.073
-658.930	5.332	0.037	0.028
-657.916	-173.537	-0.135	-0.004
-656.901	-103.147	0.137	0.033
-655.886	207.883	-0.078	-0.124
-654.872	-44.921	0.343	0.174
-653.857	-1.759	0.145	-0.104
-652.843	-109.689	-0.260	0.056
-651.828	-200.000	0.025	-0.191
-650.814	800.000	0.143	-0.442
-649.799	94.194	0.237	0.273
-648.784	366.995	-0.057	0.116
-647.770	67.583	-0.095	-0.099
-646.755	-200.000	0.068	-0.423
-645.741	-30.385	-0.064	-0.037
-644.726	588.010	-0.098	0.246
-643.711	48.726	-0.253	-0.241
-642.697	119.252	0.053	0.067
-641.682	800.000	-0.054	0.159
-640.668	60.073	0.276	-0.278
-639.653	800.000	0.049	-0.174
-638.638	54.410	-0.190	-0.186
-637.624	800.000	0.048	-0.149
-636.609	215.138	-0.060	0.097
-635.595	-194.726	0.296	-0.002
-634.580	-21.716	0.070	0.043
-633.565	21.170	0.044	-0.036
-632.551	-200.000	0.036	0.332
-631.536	177.886	-0.084	0.124
-630.522	219.904	0.083	-0.136
-629.507	20.826	-0.153	0.126
-628.492	165.836	0.043	0.062
-627.478	214.325	0.191	-0.308
-626.463	-200.000	-0.056	-0.256
-625.449	-200.000	0.011	0.236
-624.434	63.700	-0.147	-0.150
-623.419	-87.347	0.139	-0.043
-622.405	162.044	0.155	0.220
-621.390	125.505	0.064	0.082
-620.376	-150.891	0.060	0.005
-619.361	-200.000	-0.018	-0.193
-618.346	-9.662	0.133	0.090
-617.332	-34.314	0.152	-0.085
-616.317	212.397	-0.168	-0.269
-615.303	-46.871	-0.410	0.203
-614.288	800.000	-0.080	-0.236
-613.273	100.088	0.224	0.263
-612.259	45.401	0.253	-0.237
-611.244	-183.001	-0.081	-0.001
-610.230	-145.261	-0.433	-0.040
-609.215	237.656	-0.155	0.261
-608.201	370.693	-0.107	-0.220
-607.186	-200.000	0.087	0.472
-606.171	163.674	-0.014	-0.020
-605.157	-152.620	0.192	-0.014
-604.142	-116.748	0.380	0.071
-603.128	230.124	-0.135	-0.224
-602.113	34.502	-0.181	-0.161
-601.098	1.416	-0.288	0.210
-600.084	-107.063	0.063	0.014
-599.069	93.339	-0.174	-0.200
-598.055	-86.193	-0.180	-0.056
-597.040	757.512	-0.094	0.259
-596.025	-200.000	-0.017	0.109
-595.011	-81.994	-0.082	0.027
-593.996	-200.000	-0.169	0.000
-592.982	800.000	-0.054	0.230
-591.967	-57.616	-0.188	0.083
-590.952	-21.965	-0.152	-0.094
-589.938	800.000	-0.042	0.138
-588.923	-200.000	-0.003	0.035
-587.909	-129.051	-0.185	0.026
-586.894	699.474	-0.048	0.128
-585.879	213.836	0.170	0.272
-584.865	-77.425	-0.250	-0.088
-583.850	52.908	-0.120	-0.116
-582.836	-114.356	-0.134	0.026
-581.821	-127.860	-0.148	-0.022
-580.806	-7.889	0.156	-0.106
-579.792	-161.811	-0.240	0.012
-578.777	-126.129	0.194	-0.030
-577.763	711.764	0.081	0.217
-576.748	328.963	-0.105	-0.205
-575.733	-126.050	0.398	0.061
-574.719	103.563	0.183	-0.218
-573.704	-123.565	0.231	0.037
-572.690	718.212	-0.018	-0.049
-571.675	-138.679	0.328	0.036
-570.661	-200.000	-0.010	0.363
-569.646	44.812	-0.100	-0.093
-568.631	-80.964	0.289	-0.097
-567.617	29.243	-0.068	0.059
-566.602	-200.000	-0.038	0.301
-565.588	51.388	0.178	-0.171
-564.573	51.347	0.164	-0.158
-563.558	1.301	0.218	-0.158
-562.544	-88.649	-0.051	-0.015
-561.529	4.763	0.303	0.225
-560.515	-122.657	-0.362	0.059
-559.500	682.016	0.161	-0.426
-558.485	92.396	0.128	0.146
-557.471	-27.716	0.551	0.324
-556.456	-165.849	0.167	-0.007
-555.442	-47.729	0.090	-0.044
-554.427	528.071	0.051	-0.121
-553.412	229.409	0.060	-0.100
-552.398	-200.000	0.026	0.179
-551.383	800.000	0.016	-0.053
-550.369	599.915	-0.100	-0.250
-549.354	800.000	0.024	-0.073
-548.339	-200.000	0.007	0.160
-547.325	207.407	-0.072	0.114
-546.310	254.962	-0.173	-0.300
-545.296	188.454	0.118	0.178
-544.281	18.832	0.230	0.187
-543.266	-1.423	0.146	0.104
-542.252	-91.382	0.170	-0.049
-541.237	507.456	-0.095	-0.224
-540.223	-200.000	-0.055	-0.273
-539.208	-23.963	-0.070	-0.042
-538.193	388.059	-0.063	0.133
-537.179	-197.831	-0.299	0.002
-536.164	-90.080	0.425	0.125
-535.150	-200.000	-0.002	-0.065
-534.135	-200.000	0.043	0.206
-533.121	-200.000	0.032	-0.271
-532.106	215.461	-0.243	-0.389
-531.091	176.121	0.122	0.179
-530.077	800.000	-0.067	-0.198
-529.062	120.736	0.050	0.063
-528.048	-20.423	0.180	-0.112
-527.033	-96.189	0.169	0.045
-526.018	-36.099	0.216	-0.118
-525.004	-1.153	-0.376	-0.269
-523.989	800.000	-0.099	-0.416
-522.975	87.975	0.066	-0.074
-521.960	178.950	0.127	0.188
-520.945	241.869	-0.068	0.115
-519.931	-169.174	-0.048	0.002
-518.916	3.407	0.078	-0.058
-517.902	800.000	0.027	-0.104
-516.887	137.000	-0.202	-0.267
-515.872	-50.780	-0.086	0.041
-514.858	42.974	0.197	-0.181
-513.843	179.222	-0.156	0.230
-512.829	-142.324	0.464	-0.046
-511.814	-131.924	0.273	-0.036
-510.799	17.618	0.276	0.222
-509.785	-85.914	0.278	-0.087
-508.770	14.040	-0.218	0.172
-507.756	-139.173	-0.335	-0.036
-506.741	-92.098	-0.292	0.083
-505.726	25.605	-0.160	0.135
-504.712	-51.174	-0.117	-0.056
-503.697	-58.188	-0.417	-0.184
-502.683	-127.734	-0.081	0.012
-501.668	149.193	-0.107	-0.146
-500.653	-116.276	0.141	0.026
-499.639	-119.488	0.259	0.045
-498.624	304.742	-0.064	0.120
-497.610	-46.657	-0.231	-0.114
-496.595	-200.000	0.005	0.118
-495.581	-97.661	0.269	0.070
-494.566	80.516	-0.162	0.176
-493.551	0.413	0.065	-0.047
-492.537	586.513	0.056	0.140
-491.522	-41.885	-0.242	0.125
-490.508	101.975	0.131	0.154
-489.493	-72.733	-0.032	0.012
-488.478	-32.114	-0.313	-0.177
-487.464	-200.000	-0.036	-0.404
-486.449	-200.000	-0.032	0.172
-485.435	800.000	0.038	-0.107
-484.420	-129.820	0.213	0.030
-483.405	-164.797	0.206	0.009
-482.391	30.289	0.095	-0.082
-481.376	800.000	0.064	-0.254
-480.362	469.235	0.087	-0.198
-479.347	800.000	0.078	-0.251
-478.332	-200.000	-0.008	0.268
-477.318	-200.000	-0.024	0.355
-476.303	54.177	0.281	-0.273
-475.289	-200.000	-0.021	-0.259
-474.274	607.513	-0.198	0.499
-473.259	-189.852	-0.105	0.001
-472.245	-1.247	0.066	-0.047
-471.230	-200.000	-0.020	0.154
-470.216	-105.709	0.262	-0.060
-469.201	-4.394	0.177	-0.124
-468.186	-127.759	-0.135	0.020
-467.172	315.956	-0.045	0.086
-466.157	-200.000	0.020	0.219
-465.143	-100.485	-0.024	-0.006
-464.128	-28.509	-0.149	0.086
-463.113	-54.008	-0.061	0.028
-462.099	353.792	-0.093	-0.186
-461.084	800.000	-0.052	0.205
-460.070	-23.265	-0.040	0.025
-459.055	33.462	-0.063	0.055
-458.040	-139.769	-0.334	-0.036
-457.026	-65.512	0.071	-0.029
-456.011	-120.014	-0.136	-0.024
-454.997	-28.994	-0.435	0.252
-453.982	84.850	-0.177	-0.196
-452.968	427.232	-0.030	0.066
-451.953	-200.000	0.015	0.275
-450.938	-200.000	-0.025	-0.450
-449.924	-80.808	-0.396	0.133
-448.909	629.864	0.062	-0.157
-447.895	325.870	-0.181	-0.348
-446.880	-13.971	0.117	-0.076
-445.865	-115.767	0.279	0.053
-444.851	-200.000	0.025	-0.239
-443.836	-200.000	0.041	-0.399
-442.822	-60.239	0.187	-0.080
-441.807	800.000	-0.025	0.075
-440.792	800.000	-0.183	-0.648
-439.778	10.037	0.234	-0.179
-438.763	64.538	0.159	0.161
-437.749	800.000	0.067	0.252
-436.734	-47.486	0.195	0.096
-435.719	800.000	0.032	-0.090
-434.705	800.000	0.067	0.258
-433.690	-135.812	-0.075	0.009
-432.676	800.000	0.033	0.140
-431.661	235.094	0.123	0.204
-430.646	800.000	0.099	0.294
-429.632	-122.048	-0.252	0.042
-428.617	-112.507	-0.218	-0.044
-427.603	800.000	-0.065	0.283
-426.588	800.000	0.057	-0.161
-425.573	112.099	0.199	0.243
-424.559	-200.000	0.043	0.230
-423.544	276.949	0.158	0.284
-422.530	97.710	0.245	-0.284
-421.515	-113.801	-0.267	0.052
-420.500	-128.518	0.339	0.048
-419.486	312.468	-0.063	0.120
-418.471	800.000	0.012	0.037
-417.457	-7.155	-0.212	0.145
-416.442	-20.130	-0.246	0.153
-415.428	107.743	-0.038	-0.046
-414.413	-79.167	0.328	-0.112
-413.398	238.836	-0.199	0.334
-412.384	-200.000	0.061	0.415
-411.369	-200.000	0.053	-0.326
-410.355	155.387	0.307	0.426
-409.340	179.541	0.190	-0.279
-408.325	17.867	-0.169	0.135
-407.311	4.424	-0.147	-0.109
-406.296	-75.751	-0.033	-0.012
-405.282	-200.000	0.083	-0.467
-404.267	280.163	-0.170	0.305
-403.252	294.528	0.094	0.173
-402.238	-200.000	-0.020	-0.115
-401.223	76.747	0.198	-0.211
-400.209	290.377	0.152	-0.278
-399.194	-158.647	0.216	0.013
-398.179	104.464	0.201	-0.239
-397.165	-74.139	-0.457	0.166
-396.150	488.249	0.061	0.141
-395.136	600.225	-0.192	0.479
-394.121	-20.989	-0.279	0.172
-393.106	-200.000	-0.019	-0.190
-392.092	614.115	0.064	0.162
-391.077	36.621	0.314	-0.279
-390.063	-78.452	-0.399	0.138
-389.048	59.967	0.097	0.096
-388.033	101.605	-0.267	-0.313
-387.019	-200.000	0.031	0.143
-386.004	35.953	0.062	0.055
-384.990	20.188	0.263	0.213
-383.975	800.000	-0.033	0.093
-382.960	-200.000	0.029	-0.154
-381.946	-162.483	-0.402	-0.020
-380.931	-108.412	0.320	-0.069
-379.917	510.234	0.149	-0.349
-378.902	-200.000	-0.002	-0.053
-377.888	-120.101	-0.086	0.015
-376.873	147.367	-0.047	-0.064
-375.858	-95.304	0.238	0.064
-374.844	80.634	-0.218	-0.236
-373.829	118.261	0.114	0.141
-372.815	494.252	-0.081	0.188
-371.800	27.088	-0.059	0.050
-370.785	11.243	0.119	0.092
-369.771	-200.000	-0.029	0.192
-368.756	-110.689	-0.179	-0.037
-367.742	-200.000	-0.001	-0.103
-366.727	-200.000	-0.018	-0.109
-365.712	435.166	0.177	0.386
-364.698	-154.921	-0.218	0.014
-363.683	-200.000	0.041	0.206
-362.669	-51.146	0.076	0.036
-361.654	-14.056	0.049	0.032
-360.639	-63.787	-0.227	-0.093
-359.625	-133.224	0.347	0.044
-358.610	149.783	-0.138	-0.188
-357.596	-142.080	0.106	0.011
-356.581	-113.562	0.075	-0.015
-355.566	138.668	-0.060	-0.079
-354.552	800.000	0.050	-0.220
-353.537	793.492	-0.018	0.050
-352.523	-137.321	-0.172	0.020
-351.508	22.259	-0.122	-0.100
-350.493	-200.000	0.040	-0.176
-349.479	378.390	-0.012	-0.025
-348.464	-200.000	-0.059	0.295
-347.450	-200.000	-0.035	-0.239
-346.435	19.962	0.251	-0.203
-345.420	-200.000	-0.043	-0.497
-344.406	800.000	-0.046	-0.171
-343.391	-200.000	-0.013	0.214
-342.377	-200.000	-0.061	0.455
-341.362	-135.011	-0.142	0.017
-340.348	-63.642	-0.238	0.098
-339.333	81.547	0.250	-0.272
-338.318	-52.235	-0.102	0.048
-337.304	292.564	-0.079	-0.144
-336.289	800.000	-0.185	0.550
-335.275	800.000	0.131	0.445
-334.260	68.601	-0.140	0.144
-333.245	-62.582	-0.480	-0.200
-332.231	-200.000	-0.038	-0.182
-331.216	-132.637	-0.305	-0.039
-330.202	-200.000	0.019	0.426
-329.187	26.015	-0.071	-0.059
-328.172	188.216	-0.222	-0.332
-327.158	120.810	0.150	-0.187
-326.143	295.726	0.157	-0.289
-325.129	-127.228	-0.188	-0.028
-324.114	-156.673	-0.217	-0.013
-323.099	-51.474	0.105	-0.049
-322.085	2.820	0.086	0.063
-321.070	214.629	0.149	0.237
-320.056	9.104	-0.217	-0.164
-319.041	148.898	0.103	-0.139
-318.026	471.248	-0.115	0.259
-317.012	-45.302	0.155	-0.077
-315.997	800.000	0.095	0.286
-314.983	-14.942	0.331	0.213
-313.968	573.741	0.150	0.367
-312.953	237.759	0.110	0.184
-311.939	91.056	0.179	0.202
-310.924	-2.213	0.065	0.046
-309.910	-200.000	-0.068	0.334
-308.895	-143.590	-0.344	0.033
-307.880	11.724	-0.205	-0.158
-306.866	-200.000	-0.036	-0.264
-305.851	-122.685	-0.044	0.007
-304.837	-46.599	0.337	0.166
-303.822	-167.915	-0.278	-0.011
-302.807	132.966	-0.126	0.163
-301.793	36.232	0.281	0.248
-300.778	-131.148	0.175	0.023
-299.764	-143.270	0.164	0.016
-298.749	79.389	0.137	0.147
-297.735	201.303	-0.052	-0.080
-296.720	260.953	-0.169	-0.293
-295.705	-52.859	0.355	0.164
-294.691	-200.000	-0.009	-0.041
-293.676	-57.161	0.072	-0.032
-292.662	-123.144	-0.237	0.038
-291.647	-125.996	0.197	0.030
-290.632	-102.057	0.064	-0.016
-289.618	-102.880	-0.286	-0.068
-288.603	487.062	-0.071	0.161
-287.589	-65.852	-0.152	-0.061
-286.574	108.028	-0.252	0.301
-285.559	485.846	-0.143	-0.326
-284.545	800.000	-0.038	0.134
-283.530	-200.000	-0.012	-0.074
-282.516	-45.510	0.126	-0.063
-281.501	-115.177	-0.323	0.061
-280.486	-70.519	-0.308	0.117
-279.472	-100.414	0.231	-0.057
-278.457	-20.220	-0.262	-0.162
-277.443	-62.378	0.102	-0.043
-276.428	248.683	-0.109	0.184
-275.413	-66.059	0.230	0.092
-274.399	-72.278	-0.208	-0.077
-273.384	4.242	0.166	-0.121
-272.370	17.412	0.377	0.300
-271.355	800.000	-0.098	-0.338
-270.340	45.066	0.257	-0.237
-269.326	-200.000	0.007	-0.245
-268.311	-101.109	0.411	-0.101
-267.297	-200.000	-0.002	0.034
-266.282	-122.776	-0.232	0.038
-265.267	34.332	-0.105	-0.092
-264.253	-112.189	0.154	-0.031
-263.238	-200.000	0.016	-0.317
-262.224	-200.000	0.008	0.137
-261.209	800.000	-0.096	0.306
-260.195	-99.377	-0.380	-0.096
-259.180	56.915	0.043	0.042
-258.165	-72.468	0.100	0.037
-257.151	-35.104	0.136	-0.074
-256.136	69.372	0.183	-0.188
-255.122	317.469	-0.214	-0.404
-254.107	-17.023	0.016	0.010
-253.092	166.426	-0.172	-0.244
-252.078	-36.047	0.076	-0.041
-251.063	800.000	0.088	-0.261
-250.049	41.269	0.156	-0.141
-249.034	5.026	0.161	-0.119
-248.019	-100.595	-0.154	0.038
-247.005	-64.093	-0.067	-0.027
-245.990	-119.858	-0.306	-0.053
-244.976	-200.000	-0.010	-0.309
-243.961	60.155	-0.153	0.151
-242.946	37.883	0.084	-0.074
-241.932	52.294	0.085	-0.081
-240.917	-58.252	0.342	-0.149
-239.903	76.288	-0.297	-0.315
-238.888	148.070	-0.007	-0.009
-237.873	-200.000	-0.011	-0.067
-236.859	222.943	0.126	0.203
-235.844	-200.000	0.005	-0.063
-234.830	-200.000	0.060	-0.478
-233.815	-7.288	0.146	-0.099
-232.800	-71.155	0.313	-0.117
-231.786	-77.524	-0.447	-0.155
-230.771	189.718	-0.093	-0.140
-229.757	10.676	0.089	0.068
-228.742	22.541	-0.243	0.198
-227.727	360.465	-0.062	-0.123
-226.713	98.071	0.087	-0.100
-225.698	228.473	0.075	0.122
-224.684	-200.000	-0.051	0.353
-223.669	175.479	-0.245	0.355
-222.655	-155.618	0.020	-0.001
-221.640	129.980	0.069	-0.088
-220.625	466.070	0.092	0.206
-219.611	134.075	0.038	0.049
-218.596	-130.559	0.153	-0.021
-217.582	-200.000	0.001	-0.129
-216.567	-122.169	-0.144	0.023
-215.552	-160.593	0.209	-0.011
-214.538	-57.089	-0.280	-0.123
-213.523	800.000	0.003	-0.008
-212.509	-157.365	0.095	-0.006
-211.494	-200.000	-0.007	0.193
-210.479	-7.540	-0.076	0.052
-209.465	-52.362	0.048	-0.022
-208.450	-200.000	-0.008	0.148
-207.436	119.788	0.150	0.185
-206.421	-25.551	-0.213	-0.126
-205.406	-200.000	0.021	0.222
-204.392	41.102	-0.144	0.130
-203.377	60.347	-0.144	0.142
-202.363	-84.180	0.194	0.061
-201.348	-200.000	0.013	-0.118
-200.333	-200.000	-0.049	-0.235
-199.319	208.849	0.125	-0.195
-198.304	-200.000	0.005	0.089
-197.290	-32.606	0.097	0.054
-196.275	-50.792	0.199	0.094
-195.260	800.000	0.106	0.292
-194.246	-200.000	-0.007	-0.066
-193.231	-200.000	0.197	-0.000
-192.217	-200.000	-0.014	0.464
-191.202	54.318	0.016	0.015
-190.187	185.757	-0.187	0.277
-189.173	-200.000	-0.020	-0.154
-188.158	140.325	-0.117	0.153
-187.144	16.920	-0.195	0.154
-186.129	176.118	0.094	-0.137
-185.114	336.194	0.057	0.110
-184.100	769.273	0.140	0.379
-183.085	-200.000	-0.022	-0.146
-182.071	384.736	0.138	0.284
-181.056	131.155	-0.119	-0.153
-180.042	-0.743	0.058	-0.041
-179.027	-140.919	-0.062	0.006
-178.012	203.431	0.093	0.144
-176.998	-3.003	0.085	-0.059
-175.983	47.339	0.060	-0.056
-174.969	35.519	-0.063	0.055
-173.954	-66.820	0.131	0.052
-172.939	274.826	0.043	-0.076
-171.925	-9.536	-0.168	0.112
-170.910	501.041	0.100	0.229
-169.896	102.983	0.077	0.090
-168.881	800.000	0.048	-0.193
-167.866	800.000	-0.078	-0.313
-166.852	-26.764	-0.017	0.010
-165.837	-200.000	-0.002	-0.093
-164.823	284.822	-0.200	-0.358
-163.808	-41.056	0.229	0.118
-162.793	170.495	-0.034	-0.049
-161.779	151.049	-0.090	-0.122
-160.764	-200.000	0.015	-0.282
-159.750	-8.736	-0.303	-0.203
-158.735	800.000	-0.110	0.318
-157.720	-78.923	-0.110	0.037
-156.706	163.761	0.145	0.204
-155.691	46.270	0.066	-0.061
-154.677	13.477	0.126	-0.097
-153.662	800.000	0.021	-0.075
-152.647	-34.160	-0.102	-0.056
-151.633	800.000	0.007	0.021
-150.618	41.839	0.104	-0.094
-149.604	12.022	-0.211	-0.162
-148.589	-95.896	0.077	0.020
-147.574	-35.295	-0.148	-0.080
-146.560	-56.567	-0.057	-0.025
-145.545	630.050	0.107	-0.271
-144.531	-200.000	0.069	-0.000
-143.516	-86.665	0.116	0.036
-142.502	-113.354	0.221	-0.043
-141.487	-63.227	0.241	-0.099
-140.472	59.949	-0.283	-0.279
-139.458	-200.000	-0.021	-0.111
-138.443	-18.779	0.114	-0.071
-137.429	-62.000	-0.065	0.027
-136.414	-200.000	-0.007	-0.183
-135.399	174.590	-0.107	-0.154
-134.385	-104.114	-0.203	-0.047
-133.370	-38.300	-0.063	0.033
-132.356	72.553	-0.140	-0.145
-131.341	-200.000	-0.003	-0.183
-130.326	82.766	-0.158	-0.171
-129.312	-93.309	0.208	-0.057
-128.297	223.928	0.036	-0.058
-127.283	133.179	-0.255	0.328
-126.268	-200.000	0.015	-0.126
-125.253	-200.000	-0.017	-0.178
-124.239	101.373	0.168	-0.195
-123.224	-122.781	-0.095	-0.015
-122.210	112.794	0.227	0.274
-121.195	-200.000	-0.037	0.399
-120.180	596.229	-0.080	-0.198
-119.166	542.674	-0.023	0.054
-118.151	-200.000	-0.129	-0.001
-117.137	-49.055	-0.162	0.077
-116.122	-53.313	0.103	0.047
-115.107	230.329	0.051	-0.082
-114.093	91.209	0.253	-0.283
-113.078	-200.000	0.026	0.173
-112.064	776.467	-0.087	0.237
-111.049	-200.000	0.012	-0.218
-110.034	-131.194	0.287	0.038
-109.020	-11.323	0.333	0.218
-108.005	3.026	0.063	0.046
-106.991	-31.100	-0.033	-0.018
-105.976	800.000	0.089	-0.273
-104.962	-118.200	-0.172	0.030
-103.947	82.032	0.056	-0.061
-102.932	-170.690	-0.152	0.005
-101.918	486.179	-0.031	0.070
-100.903	101.223	-0.116	-0.134
-99.889	460.343	-0.038	-0.085
-98.874	-29.771	0.320	-0.182
-97.859	650.854	-0.034	-0.086
-96.845	-122.574	-0.253	0.041
-95.830	61.772	0.051	-0.051
-94.816	-169.684	-0.203	0.007
-93.801	-80.957	0.293	0.096
-92.786	-126.487	0.066	-0.010
-91.772	800.000	0.079	-0.292
-90.757	-200.000	0.074	-0.460
-89.743	280.021	0.170	-0.302
-88.728	60.875	0.044	0.044
-87.713	-200.000	-0.013	0.244
-86.699	33.941	-0.259	0.224
-85.684	135.114	-0.049	0.063
-84.670	249.735	0.060	0.102
-83.655	-89.571	0.191	-0.056
-82.640	123.225	0.082	-0.103
-81.626	-33.649	0.142	-0.078
-80.611	-20.481	-0.332	-0.203
-79.597	-168.613	0.236	0.009
-78.582	55.206	0.155	0.149
-77.567	-106.104	-0.276	0.062
-76.553	94.527	-0.211	-0.238
-75.538	31.197	0.073	0.062
-74.524	800.000	-0.104	0.368
-73.509	64.322	-0.154	0.154
-72.494	314.426	-0.159	0.297
-71.480	-16.342	-0.291	0.184
-70.465	4.023	0.126	0.092
-69.451	57.217	0.233	-0.225
-68.436	-128.530	0.251	-0.035
-67.422	161.088	-0.092	0.128
-66.407	-58.016	0.229	0.099
-65.392	434.162	0.166	0.359
-64.378	-57.452	0.220	-0.096
-63.363	77.201	0.098	0.104
-62.349	-82.505	0.060	-0.019
-61.334	73.797	-1.035	-1.077
-60.319	-122.514	0.553	0.089
-59.305	-200.000	-0.144	-0.726
-58.290	241.020	0.687	1.138
-57.276	-200.000	0.268	1.861
-56.261	-200.000	92.033	529.792
-55.246	463.615	1420.108	3149.711
-54.232	144.388	2626.543	3480.847
-53.217	109.427	2249.471	2674.229
-52.203	45.545	1770.245	1622.638
-51.188	38.614	1575.265	1394.735
-50.173	36.272	1547.009	1353.256
-49.159	53.100	1594.436	1514.962
-48.144	56.374	1614.141	1556.979
-47.130	39.200	1570.932	1394.835
-46.115	35.878	1555.929	1358.069
-45.100	35.747	1552.375	1353.985
-44.086	35.808	1550.125	1352.398
-43.071	35.582	1548.818	1349.617
-42.057	35.592	1547.260	1348.281
-41.042	35.544	1546.060	1346.840
-40.027	35.685	1544.141	1346.102
-39.013	35.737	1542.178	1344.705
-37.998	35.662	1540.986	1343.090
-36.984	35.627	1539.965	1341.899
-35.969	35.735	1538.642	1341.445
-34.954	35.703	1537.268	1339.975
-33.940	35.686	1536.313	1338.969
-32.925	35.686	1534.228	1337.102
-31.911	35.735	1533.304	1336.584
-30.896	35.745	1531.830	1335.315
-29.881	35.762	1530.528	1334.244
-28.867	35.746	1528.713	1332.500
-27.852	35.693	1527.523	1331.040
-26.838	35.753	1526.036	1330.103
-25.823	35.817	1524.117	1328.820
-24.809	35.727	1522.446	1326.690
-23.794	35.683	1521.378	1325.405
-22.779	35.724	1519.701	1324.172
-21.765	35.662	1519.047	1323.123
-20.750	35.666	1517.731	1321.953
-19.736	35.713	1516.547	1321.189
-18.721	35.767	1515.488	1320.585
-17.706	35.724	1514.550	1319.426
-16.692	35.618	1513.983	1318.147
-15.677	35.626	1512.578	1316.926
-14.663	35.668	1511.201	1315.964
-13.648	35.655	1510.207	1314.961
-12.633	35.685	1509.097	1314.143
-11.619	35.622	1508.544	1313.183
-10.604	35.572	1508.154	1312.448
-9.590	35.676	1506.802	1311.925
-8.575	35.735	1505.622	1311.255
-7.560	35.625	1504.449	1309.429
-6.546	35.703	1503.727	1309.280
-5.531	35.669	1502.853	1308.236
-4.517	35.597	1502.096	1307.036
-3.502	35.575	1501.201	1306.055
-2.487	35.731	1499.731	1305.783
-1.473	35.613	1498.906	1304.214
-0.458	35.688	1497.569	1303.504
0.556	34.360	1488.507	1294.092
1.571	31.813	1462.005	1253.926
2.586	27.999	1398.396	1174.802
3.600	25.705	1312.109	1088.359
4.615	23.621	1264.674	1036.760
5.629	20.177	1206.372	969.652
6.644	10.446	1114.937	845.549
7.659	2.006	1069.630	768.731
8.673	0.593	1063.645	757.281
9.688	0.370	1060.757	754.041
10.702	0.304	1059.492	752.745
11.717	0.343	1057.091	751.166
12.731	3.276	1060.844	768.421
13.746	12.340	1073.570	823.172
14.761	18.220	1080.313	857.836
15.775	17.886	1078.555	854.693
16.790	16.766	1076.178	847.135
17.804	15.777	1073.829	840.274
18.819	14.808	1072.393	834.239
19.834	14.345	1070.970	830.748
20.848	14.021	1069.808	828.162
21.863	13.779	1069.040	826.288
22.877	13.505	1068.296	824.276
23.892	13.264	1067.522	822.408
24.907	13.203	1066.671	821.378
25.921	13.131	1066.303	820.663
26.936	13.238	1065.249	820.309
27.950	13.367	1064.239	820.098
28.965	13.346	1063.794	819.578
29.980	13.383	1062.813	818.936
30.994	13.449	1061.961	818.530
32.009	13.534	1061.006	818.145
33.023	13.478	1060.321	817.265
34.038	13.504	1060.136	817.179
35.053	13.430	1058.860	815.760
36.067	13.450	1057.889	815.039
37.082	13.507	1056.613	814.264
38.096	13.414	1055.958	813.227
39.111	13.386	1055.519	812.680
40.126	13.473	1054.299	812.096
41.140	13.466	1053.189	811.133
42.155	13.403	1052.489	810.218
43.169	13.248	1051.570	808.677
44.184	13.250	1050.815	808.034
45.199	13.294	1049.025	806.803
46.213	13.235	1048.455	806.004
47.228	13.280	1047.370	805.318
48.242	13.219	1046.255	804.093
49.257	13.338	1045.457	803.988
50.271	13.299	1044.278	802.823
51.286	13.279	1043.400	801.978
52.301	13.347	1042.950	801.890
53.315	13.363	1041.940	801.122
54.330	13.308	1041.107	800.141
55.344	13.271	1039.960	799.010
56.359	13.241	1039.126	798.158
57.374	13.209	1038.485	797.439
58.388	13.235	1037.350	796.620
59.403	13.188	1036.371	795.571
60.417	13.221	1035.980	795.361
61.432	13.213	1035.024	794.519
62.447	13.206	1034.419	793.948
63.461	13.339	1032.896	793.350
64.476	13.137	1032.274	791.831
65.490	13.097	1031.664	791.101
66.505	13.132	1030.936	790.643
67.520	13.086	1030.353	789.907
68.534	13.290	1028.710	789.551
69.549	13.241	1028.473	789.065
70.563	13.312	1027.392	788.502
71.578	13.276	1026.826	787.826
72.593	13.199	1026.343	787.020
73.607	13.168	1025.331	786.028
74.622	13.123	1024.501	785.108
75.636	13.134	1023.668	784.452
76.651	13.120	1022.524	783.442
77.666	13.198	1021.593	783.028
78.680	13.199	1021.016	782.521
79.695	13.099	1020.461	781.551
80.709	13.215	1020.085	781.743
81.724	13.128	1019.427	780.759
82.739	13.343	1018.428	780.939
83.753	13.321	1017.781	780.273
84.768	13.273	1016.961	779.346
85.782	13.256	1016.038	778.490
86.797	13.418	1014.747	778.197
87.812	13.455	1014.039	777.758
88.826	13.361	1013.245	776.639
89.841	13.322	1012.716	775.981
90.855	13.341	1011.504	775.072
91.870	13.427	1010.988	775.013
92.884	13.322	1010.595	774.148
93.899	13.467	1009.355	773.809
94.914	13.546	1008.527	773.475
95.928	13.630	1007.640	773.118
96.943	13.509	1007.012	772.006
97.957	13.500	1006.419	771.438
98.972	13.461	1005.146	770.212
99.987	13.440	1004.662	769.679
101.001	13.435	1003.747	768.886
102.016	13.422	1003.018	768.199
103.030	13.221	1002.506	766.805
104.045	13.427	1001.210	766.703
105.060	13.336	1000.424	765.610
106.074	13.294	999.639	764.747
107.089	13.312	998.497	763.891
108.103	13.283	997.611	763.008
109.118	13.271	996.813	762.276
110.133	13.235	996.184	761.562
111.147	13.279	994.924	760.732
112.162	13.218	994.433	760.011
113.176	13.323	993.464	759.684
114.191	13.151	992.576	758.148
115.206	13.279	991.844	758.109
116.220	13.302	990.795	757.348
117.235	13.345	990.027	756.888
118.249	13.413	989.064	756.398
119.264	13.327	988.401	755.429
120.279	13.278	987.603	754.531
121.293	13.278	986.654	753.739
122.308	13.234	986.048	753.009
123.322	13.266	985.160	752.408
124.337	13.322	984.077	751.771
125.352	13.419	982.420	750.879
126.366	13.249	981.819	749.582
127.381	13.201	980.699	748.441
128.395	13.163	979.857	747.563
129.410	13.224	978.564	746.785
130.424	13.298	977.687	746.382
131.439	13.321	976.998	745.897
132.454	13.304	975.931	744.938
133.468	13.473	974.997	744.921
134.483	13.348	974.774	744.122
135.497	13.387	974.366	743.917
136.512	13.404	973.113	742.974
137.527	13.540	972.003	742.669
138.541	13.494	971.255	741.827
139.556	13.461	970.658	741.159
140.570	13.448	970.144	740.641
141.585	13.443	969.129	739.776
142.600	13.315	969.182	739.179
143.614	13.518	967.475	738.720
144.629	13.503	967.274	738.431
145.643	13.494	966.426	737.680
146.658	13.477	965.481	736.821
147.673	13.542	964.620	736.385
148.687	13.405	963.693	735.005
149.702	13.413	962.940	734.398
150.716	13.418	961.979	733.624
151.731	13.484	961.017	733.116
152.746	13.426	960.557	732.446
153.760	13.399	959.676	731.590
154.775	13.449	959.145	731.341
155.789	13.476	958.248	730.710
156.804	13.475	957.463	730.045
157.819	13.455	956.819	729.399
158.833	13.518	955.906	728.915
159.848	13.586	955.477	728.826
160.862	13.585	954.858	728.284
161.877	13.635	953.951	727.746
162.892	13.597	952.984	726.777
163.906	13.520	952.460	725.976
164.921	13.476	951.519	725.002
165.935	13.532	950.896	724.709
166.950	13.456	950.180	723.765
167.964	13.574	948.898	723.239
168.979	13.660	947.842	722.747
169.994	13.584	946.453	721.293
171.008	13.578	945.939	720.813
172.023	13.698	945.103	720.632
173.037	13.661	944.381	719.859
174.052	13.692	943.630	719.354
175.067	13.551	943.187	718.341
176.081	13.569	942.006	717.459
177.096	13.623	941.465	717.218
178.110	13.471	940.681	715.896
179.125	13.611	939.573	715.598
180.140	13.598	939.328	715.289
181.154	13.760	937.679	714.668
182.169	13.666	938.015	714.457
183.183	13.738	936.993	713.925
184.198	13.731	936.351	713.343
185.213	13.711	935.681	712.685
186.227	13.810	934.949	712.487
187.242	13.853	934.453	712.232
188.256	13.859	933.570	711.520
189.271	13.907	932.677	710.981
190.286	13.876	932.091	710.343
191.300	13.743	931.635	709.361
192.315	13.719	930.504	708.336
193.329	13.701	929.806	707.665
194.344	13.548	929.577	706.775
195.359	13.733	928.706	706.837
196.373	13.717	928.368	706.451
197.388	13.858	927.426	706.272
198.402	13.808	927.365	705.949
199.417	13.921	926.969	706.067
200.432	14.001	926.007	705.608
201.446	14.061	925.864	705.692
202.461	14.029	925.283	705.052
203.475	14.180	924.428	704.979
204.490	14.058	924.441	704.409
205.504	14.079	923.155	703.454
206.519	14.304	922.363	703.741
207.534	13.990	921.661	701.815
208.548	14.002	921.221	701.470
209.563	13.980	920.604	700.844
210.577	14.001	919.644	700.144
211.592	14.006	918.831	699.480
212.607	14.048	918.667	699.472
213.621	14.172	917.988	699.416
214.636	14.113	917.009	698.357
215.650	14.170	916.326	698.016
216.665	14.236	915.748	697.791
217.680	14.222	915.187	697.243
218.694	14.228	914.806	696.918
219.709	14.307	914.239	696.755
220.723	14.379	913.473	696.410
221.738	14.278	912.740	695.366
222.753	14.271	912.213	694.875
223.767	14.361	911.471	694.624
224.782	14.394	910.395	693.878
225.796	14.383	909.486	693.078
226.811	14.401	909.367	693.001
227.826	14.371	908.876	692.439
228.840	14.262	908.086	691.325
229.855	14.399	906.850	690.890
230.869	14.371	906.253	690.260
231.884	14.254	906.425	689.845
232.899	14.390	905.235	689.440
233.913	14.315	904.597	688.583
234.928	14.309	903.868	687.942
235.942	14.207	903.475	687.163
236.957	14.362	902.301	686.847
237.972	14.435	901.700	686.630
238.986	14.344	901.323	685.909
240.001	14.526	900.085	685.652
241.015	14.345	899.900	684.706
242.030	14.471	898.987	684.471
243.045	14.453	898.497	683.961
244.059	14.446	897.915	683.429
245.074	14.547	897.132	683.186
246.088	14.543	896.838	682.887
247.103	14.613	895.932	682.422
248.117	14.593	895.098	681.644
249.132	14.678	894.773	681.683
250.147	14.671	894.462	681.359
251.161	14.826	893.476	681.180
252.176	14.879	892.516	680.604
253.190	14.930	892.131	680.458
254.205	14.806	891.617	679.498
255.220	14.914	890.693	679.174
256.234	14.862	890.144	678.486
257.249	14.923	889.496	678.176
258.263	14.827	889.231	677.527
259.278	14.985	888.206	677.326
260.293	14.908	888.050	676.835
261.307	15.097	887.195	676.887
262.322	14.955	886.660	675.846
263.336	14.940	886.392	675.519
264.351	15.042	885.703	675.349
265.366	15.132	885.244	675.301
266.380	15.082	884.330	674.342
267.395	14.952	883.873	673.410
268.409	15.098	882.907	673.202
269.424	15.008	881.813	671.949
270.439	15.096	881.620	672.094
271.453	15.047	880.749	671.175
272.468	15.021	880.390	670.738
273.482	15.023	879.373	669.910
274.497	15.136	878.900	669.941
275.512	15.184	877.896	669.309
276.526	15.191	876.889	668.511
277.541	15.164	876.447	668.006
278.555	15.154	876.217	667.731
279.570	15.246	875.541	667.526
280.585	15.240	874.799	666.877
281.599	15.325	874.493	666.924
282.614	15.265	873.740	666.048
283.628	15.307	872.958	665.563
284.643	15.214	872.843	665.048
285.657	15.227	872.062	664.445
286.672	15.197	871.978	664.202
287.687	15.318	871.119	663.969
288.701	15.287	870.548	663.353
289.716	15.442	869.660	663.230
290.730	15.374	869.404	662.708
291.745	15.394	868.761	662.237
292.760	15.441	867.920	661.722
293.774	15.407	867.243	661.015
294.789	15.341	867.164	660.635
295.803	15.338	866.585	660.122
296.818	15.532	865.578	660.062
297.833	15.424	864.832	659.010
298.847	15.472	864.005	658.508
299.862	15.427	863.342	657.772
300.876	15.439	862.643	657.225
301.891	15.527	862.062	657.071
302.906	15.644	861.404	656.966
303.920	15.498	861.148	656.143
304.935	15.619	860.547	656.100
305.949	15.634	859.825	655.548
306.964	15.632	859.083	654.917
307.979	15.740	858.420	654.775
308.993	15.634	858.304	654.215
310.008	15.713	857.531	653.878
311.022	15.666	857.191	653.376
312.037	15.766	856.420	653.121
313.052	15.741	855.531	652.287
314.066	15.760	854.963	651.868
315.081	15.733	854.203	651.129
316.095	15.726	853.984	650.874
317.110	15.822	853.276	650.649
318.125	15.691	853.123	649.968
319.139	15.780	852.763	649.983
320.154	15.728	852.086	649.207
321.168	15.726	851.173	648.446
322.183	15.697	850.946	648.103
323.197	15.847	850.194	648.051
324.212	15.872	849.644	647.673
325.227	15.871	848.962	647.088
326.241	15.843	848.702	646.728
327.256	15.872	848.184	646.388
328.270	15.861	847.323	645.630
329.285	15.953	846.945	645.640
330.300	15.871	846.355	644.816
331.314	15.786	845.912	644.098
332.329	15.772	845.353	643.560
333.343	15.817	844.731	643.203
334.358	15.940	843.961	643.031
335.373	15.929	843.539	642.610
336.387	15.947	843.066	642.260
337.402	15.969	842.302	641.707
338.416	16.162	841.795	641.998
339.431	16.143	840.973	641.242
340.446	16.078	840.750	640.765
341.460	16.009	840.401	640.184
342.475	15.967	839.809	639.516
343.489	16.141	839.205	639.658
344.504	16.254	838.629	639.590
345.519	16.251	837.883	638.955
346.533	16.267	837.623	638.761
347.548	16.195	837.113	638.041
348.562	16.193	836.367	637.409
349.577	16.139	836.050	636.907
350.592	16.162	835.397	636.443
351.606	16.100	834.775	635.678
352.621	16.132	834.485	635.522
353.635	16.262	834.051	635.622
354.650	16.262	833.450	635.110
355.665	16.359	833.197	635.225
356.679	16.338	832.523	634.576
357.694	16.441	831.969	634.484
358.708	16.404	831.442	633.887
359.723	16.297	831.267	633.299
360.738	16.345	830.740	633.021
361.752	16.332	829.854	632.241
362.767	16.340	829.578	632.005
363.781	16.338	829.290	631.722
364.796	16.321	828.725	631.169
365.810	16.535	828.255	631.555
366.825	16.590	827.720	631.299
367.840	16.541	827.443	630.849
368.854	16.609	826.855	630.597
369.869	16.518	826.657	630.052
370.883	16.509	826.144	629.571
371.898	16.558	825.366	629.106
372.913	16.651	824.559	628.779
373.927	16.621	823.857	628.076
374.942	16.775	823.151	628.055
375.956	16.713	822.759	627.469
376.971	16.711	822.258	627.025
377.986	16.617	821.725	626.216
379.000	16.803	821.424	626.619
380.015	16.884	821.219	626.706
381.029	16.722	820.183	625.262
382.044	16.833	819.749	625.286
383.059	16.809	819.237	624.750
384.073	16.885	818.553	624.455
385.088	16.899	818.310	624.266
386.102	16.756	817.516	623.076
387.117	16.819	817.209	623.018
388.132	16.832	816.774	622.680
389.146	16.844	816.310	622.315
390.161	16.805	815.943	621.837
391.175	16.966	815.420	621.975
392.190	16.859	815.280	621.422
393.205	17.063	814.619	621.609
394.219	16.903	814.316	620.736
395.234	16.925	813.419	620.078
396.248	16.936	813.063	619.792
397.263	16.837	812.482	618.935
398.278	16.806	812.111	618.483
399.292	16.898	811.592	618.370
400.307	17.000	810.990	618.228
401.321	17.065	810.508	618.042
402.336	16.908	810.464	617.380
403.350	17.043	810.008	617.470
404.365	17.032	809.352	616.875
405.380	17.145	809.050	617.000
406.394	17.101	808.931	616.697
407.409	17.209	808.110	616.408
408.423	17.094	807.499	615.470
409.438	17.181	807.446	615.692
410.453	17.532	806.231	615.980
411.467	17.292	806.599	615.338
412.482	17.250	806.288	614.896
413.496	17.275	805.551	614.368
414.511	17.320	805.251	614.249
415.526	17.329	804.870	613.934
416.540	17.352	804.553	613.722
417.555	17.294	804.270	613.242
418.569	17.481	803.222	613.063
419.584	17.409	802.491	612.192
420.599	17.511	802.201	612.283
421.613	101.272	1281.438	1432.825
422.628	86.897	1351.278	1432.920
