DTS Sentinel unit serial number:	SN413079Multiplexer serial number:	ORYXHardware model number:	OX4-SRSoftware version number:	ORYX F/W v4.00 Oryx Data Collector v3.7.2.0data status	okinstallation	princeton_trtdifferential loss correction	single-endedforward channel	channel 3reverse channel	N/Adate	2019/09/10time	17:46:11forward acquisition time	60.00reverse acquisition time	0.00gamma	496.2192k internal	0.2299k external	0.2299temperature offset calibration	0.9914default loss term (dB/km)	0.3790temperature slope calibration	1.0000multiplexer offset coefficient	1.0000multiplexer slope coefficient	1.0000fibre end	0.00T internal ref (°C)	37.52T ext. ref 1 (°C)	-0.34T ext. ref 2 (°C)	30.48length (m)	temperature (°C)	Stokes	anti-Stokes-747.200	-83.928	0.309	0.100
-746.185	-200.000	-0.047	0.225
-745.171	-46.473	0.197	-0.099
-744.156	-200.000	0.070	0.360
-743.142	-49.527	-0.181	0.088
-742.127	250.622	-0.072	0.125
-741.112	69.200	0.186	-0.195
-740.098	800.000	0.051	0.203
-739.083	445.821	-0.144	-0.322
-738.069	236.484	0.186	0.314
-737.054	-42.754	-0.163	0.084
-736.039	-200.000	0.010	0.192
-735.025	270.929	0.199	-0.357
-734.010	-29.379	0.116	0.068
-732.996	291.545	-0.077	0.143
-731.981	148.444	-0.317	0.437
-730.966	800.000	-0.035	0.130
-729.952	-12.454	-0.396	-0.264
-728.937	7.252	0.051	-0.039
-727.923	-45.409	-0.242	0.122
-726.908	-37.524	-0.284	0.154
-725.894	-118.858	0.094	0.017
-724.879	-200.000	-0.058	0.394
-723.864	-38.952	-0.148	0.079
-722.850	-104.051	-0.316	0.075
-721.835	-107.009	-0.362	-0.082
-720.821	144.432	0.200	-0.273
-719.806	-73.045	-0.230	-0.086
-718.791	-200.000	0.062	-0.281
-717.777	-70.628	-0.229	0.088
-716.762	631.390	0.064	0.166
-715.748	-189.527	-0.262	-0.003
-714.733	301.002	0.090	-0.170
-713.718	445.410	0.042	0.095
-712.704	-200.000	-0.033	-0.308
-711.689	800.000	-0.067	0.247
-710.675	-168.830	-0.431	0.017
-709.660	190.767	0.117	0.179
-708.645	15.067	-0.264	0.211
-707.631	75.012	0.168	0.180
-706.616	162.517	0.193	-0.275
-705.602	-74.203	-0.186	0.069
-704.587	800.000	0.064	-0.224
-703.572	-34.365	-0.183	-0.102
-702.558	-0.055	0.118	0.086
-701.543	151.661	-0.046	-0.064
-700.529	800.000	-0.112	-0.358
-699.514	-152.734	-0.285	0.021
-698.499	-200.000	0.004	-0.320
-697.485	-200.000	-0.005	0.077
-696.470	-37.481	0.161	-0.087
-695.456	61.135	-0.051	-0.051
-694.441	62.902	-0.381	-0.388
-693.426	-200.000	0.025	-0.153
-692.412	-24.059	-0.201	-0.122
-691.397	126.443	0.100	0.129
-690.383	469.153	0.115	0.262
-689.368	-200.000	-0.104	0.000
-688.354	53.394	-0.154	-0.150
-687.339	-136.010	0.132	0.016
-686.324	-89.762	0.120	-0.036
-685.310	-126.195	-0.109	0.017
-684.295	-9.631	-0.270	-0.183
-683.281	627.742	-0.012	-0.031
-682.266	29.023	0.136	0.117
-681.251	128.099	-0.119	-0.154
-680.237	-200.000	-0.004	-0.248
-679.222	-79.002	-0.171	0.059
-678.208	-200.000	0.006	-0.036
-677.193	30.922	-0.182	0.158
-676.178	740.708	0.114	-0.311
-675.164	800.000	-0.009	-0.029
-674.149	405.129	-0.082	0.175
-673.135	-200.000	0.040	-0.306
-672.120	-92.342	-0.334	0.096
-671.105	800.000	0.075	0.286
-670.091	651.984	-0.042	0.110
-669.076	122.943	0.163	-0.208
-668.062	-200.000	-0.011	-0.138
-667.047	-61.563	-0.073	-0.031
-666.032	-117.272	0.098	-0.018
-665.018	48.716	-0.078	-0.074
-664.003	-102.659	-0.044	-0.011
-662.989	-200.000	-0.015	-0.201
-661.974	-172.620	0.076	-0.002
-660.959	-28.977	-0.068	-0.040
-659.945	89.583	-0.217	-0.246
-658.930	800.000	0.113	-0.364
-657.916	-100.698	-0.350	0.088
-656.901	-200.000	0.006	-0.075
-655.886	-200.000	-0.008	-0.090
-654.872	106.074	0.189	-0.228
-653.857	-200.000	0.001	-0.041
-652.843	-19.701	0.167	0.105
-651.828	800.000	0.038	-0.161
-650.814	693.749	-0.053	-0.142
-649.799	-34.255	-0.154	-0.086
-648.784	-55.426	-0.234	0.106
-647.770	-141.352	-0.404	-0.042
-646.755	-200.000	-0.014	-0.331
-645.741	-34.838	0.083	0.046
-644.726	-174.467	-0.357	0.010
-643.711	90.737	0.389	-0.443
-642.697	-74.337	0.122	0.045
-641.682	-105.567	-0.382	0.088
-640.668	-200.000	0.041	-0.285
-639.653	12.267	-0.211	-0.165
-638.638	262.721	0.186	-0.329
-637.624	800.000	-0.091	0.265
-636.609	800.000	-0.018	0.063
-635.595	-102.585	-0.177	0.043
-634.580	54.301	-0.116	-0.113
-633.565	-65.931	0.197	-0.080
-632.551	52.949	-0.163	0.158
-631.536	-200.000	0.045	-0.258
-630.522	-126.119	-0.303	-0.046
-629.507	111.368	0.070	0.086
-628.492	-200.000	0.023	-0.229
-627.478	14.111	-0.125	-0.099
-626.463	-61.530	-0.139	-0.059
-625.449	-20.872	-0.278	-0.173
-624.434	-200.000	0.023	-0.106
-623.419	-3.035	-0.231	-0.164
-622.405	73.775	-0.071	-0.076
-621.390	-197.162	0.124	-0.001
-620.376	259.438	-0.039	0.069
-619.361	264.627	0.157	-0.278
-618.346	89.211	-0.238	0.269
-617.332	-56.701	0.111	-0.050
-616.317	253.305	-0.113	0.196
-615.303	-59.457	-0.098	0.043
-614.288	588.405	-0.207	0.517
-613.273	19.016	0.073	0.060
-612.259	-83.233	0.148	0.048
-611.244	168.374	-0.159	-0.230
-610.230	-200.000	-0.014	0.122
-609.215	-200.000	0.025	0.111
-608.201	-200.000	0.019	0.168
-607.186	19.064	-0.066	0.054
-606.171	-7.303	-0.232	0.159
-605.157	-75.612	0.189	0.068
-604.142	86.440	-0.151	-0.169
-603.128	47.751	-0.168	-0.159
-602.113	-43.321	0.359	-0.184
-601.098	-117.240	-0.285	-0.053
-600.084	1.385	0.265	-0.193
-599.069	334.336	-0.174	-0.341
-598.055	284.458	-0.039	0.071
-597.040	-34.411	0.023	0.013
-596.025	39.540	-0.237	-0.215
-595.011	-50.049	0.190	0.091
-593.996	726.290	0.064	-0.173
-592.982	-200.000	0.012	0.130
-591.967	473.662	-0.128	-0.292
-590.952	74.381	-0.081	-0.087
-589.938	-79.868	0.249	-0.085
-588.923	-38.870	-0.088	0.047
-587.909	13.859	0.116	-0.091
-586.894	800.000	-0.086	-0.269
-585.879	166.423	-0.056	0.081
-584.865	-18.195	-0.158	0.100
-583.850	37.767	0.100	-0.090
-582.836	-34.639	0.075	-0.041
-581.821	117.921	0.185	0.231
-580.806	-111.992	-0.142	-0.029
-579.792	275.347	0.101	-0.182
-578.777	124.669	-0.177	-0.226
-577.763	-86.337	0.387	-0.121
-576.748	730.639	-0.052	-0.142
-575.733	-152.365	-0.250	0.018
-574.719	-64.784	0.198	-0.081
-573.704	29.188	-0.093	-0.080
-572.690	253.302	0.117	0.202
-571.675	800.000	-0.054	0.169
-570.661	-200.000	0.041	0.244
-569.646	-12.396	-0.102	-0.068
-568.631	20.160	0.130	0.107
-567.617	-200.000	-0.038	0.521
-566.602	331.668	-0.075	0.146
-565.588	-200.000	-0.048	0.216
-564.573	204.201	0.141	-0.221
-563.558	-60.741	-0.278	0.120
-562.544	-129.821	0.302	-0.042
-561.529	-200.000	-0.003	0.040
-560.515	-200.000	-0.062	-0.444
-559.500	800.000	-0.058	0.190
-558.485	-32.020	0.415	0.235
-557.471	-143.525	-0.109	0.011
-556.456	-200.000	-0.018	0.232
-555.442	319.459	-0.047	-0.091
-554.427	507.942	-0.034	-0.080
-553.412	20.007	-0.139	0.113
-552.398	-31.420	0.078	0.045
-551.383	77.247	0.298	-0.321
-550.369	-117.645	0.103	0.019
-549.354	-136.171	0.185	0.022
-548.339	147.762	-0.115	-0.157
-547.325	-42.128	0.259	0.134
-546.310	-143.994	-0.274	0.026
-545.296	325.317	-0.111	0.214
-544.281	-200.000	-0.128	0.000
-543.266	-46.756	0.193	0.096
-542.252	-4.602	0.296	0.207
-541.237	-200.000	-0.105	-0.479
-540.223	1.736	0.172	0.125
-539.208	-57.645	-0.142	-0.063
-538.193	-132.629	-0.224	-0.029
-537.179	-107.216	-0.484	-0.108
-536.164	97.890	0.161	0.187
-535.150	800.000	-0.112	-0.346
-534.135	260.868	-0.213	-0.372
-533.121	99.797	0.278	0.325
-532.106	674.182	0.124	-0.325
-531.091	-118.408	-0.114	-0.020
-530.077	-105.467	0.084	0.019
-529.062	-153.638	-0.119	0.008
-528.048	-79.384	-0.115	-0.039
-527.033	3.427	0.210	0.155
-526.018	-91.725	-0.274	0.079
-525.004	-112.758	0.153	0.031
-523.989	-66.929	0.303	-0.121
-522.975	-26.135	0.223	0.133
-521.960	800.000	0.106	-0.307
-520.945	195.224	0.155	-0.238
-519.931	-200.000	-0.019	-0.273
-518.916	-103.902	-0.143	0.034
-517.902	245.377	0.069	-0.117
-516.887	-42.849	-0.217	0.112
-515.872	31.773	-0.125	-0.108
-514.858	47.011	0.042	0.039
-513.843	-183.008	0.153	0.003
-512.829	-63.543	0.140	0.058
-511.814	-200.000	-0.001	0.081
-510.799	-122.014	0.101	0.017
-509.785	-123.972	0.479	0.076
-508.770	1.422	0.314	-0.228
-507.756	120.490	0.123	0.155
-506.741	-200.000	-0.017	-0.146
-505.726	800.000	0.036	0.146
-504.712	540.389	0.007	-0.016
-503.697	800.000	0.069	-0.252
-502.683	-148.867	0.162	0.013
-501.668	-127.938	0.074	0.011
-500.653	-131.418	-0.244	-0.033
-499.639	-200.000	0.053	-0.254
-498.624	-200.000	-0.021	0.103
-497.610	100.050	0.076	0.089
-496.595	-128.979	-0.201	0.028
-495.581	-102.159	-0.145	0.035
-494.566	20.441	0.275	-0.225
-493.551	-90.220	-0.322	0.095
-492.537	154.535	0.088	-0.123
-491.522	-68.863	0.225	-0.088
-490.508	-48.436	-0.075	0.036
-489.493	800.000	0.047	0.187
-488.478	53.972	0.076	0.074
-487.464	429.001	-0.139	0.304
-486.449	115.556	-0.115	0.142
-485.435	-23.293	0.088	-0.054
-484.420	800.000	-0.068	0.290
-483.405	-10.046	-0.210	0.141
-482.391	-66.532	-0.473	-0.190
-481.376	588.314	0.062	-0.155
-480.362	552.123	-0.032	0.079
-479.347	274.561	-0.037	-0.065
-478.332	-200.000	0.004	0.265
-477.318	-15.841	0.163	0.105
-476.303	-200.000	-0.005	-0.064
-475.289	-67.672	-0.106	0.042
-474.274	-200.000	0.035	0.163
-473.259	-200.000	-0.023	0.239
-472.245	-161.655	0.293	-0.015
-471.230	101.125	0.128	-0.150
-470.216	-200.000	-0.043	-0.242
-469.201	-81.281	0.246	-0.082
-468.186	328.720	-0.234	-0.454
-467.172	800.000	0.121	0.423
-466.157	99.613	-0.211	0.246
-465.143	-200.000	-0.032	0.157
-464.128	-49.871	0.268	0.129
-463.113	-152.976	0.203	-0.014
-462.099	-200.000	-0.014	-0.735
-461.084	-57.297	-0.241	0.107
-460.070	-127.636	0.126	-0.018
-459.055	467.517	-0.089	0.202
-458.040	568.341	-0.099	0.242
-457.026	89.980	-0.208	0.234
-456.011	-200.000	-0.031	0.398
-454.997	688.281	-0.068	-0.179
-453.982	-17.089	-0.119	-0.076
-452.968	208.376	0.060	-0.095
-451.953	-200.000	-0.042	0.193
-450.938	-41.825	-0.152	-0.079
-449.924	263.339	-0.081	0.142
-448.909	-83.942	0.419	-0.134
-447.895	-64.722	0.032	-0.013
-446.880	171.729	0.131	-0.190
-445.865	72.783	-0.034	0.036
-444.851	-79.056	0.305	0.105
-443.836	51.629	0.373	0.358
-442.822	-127.745	0.474	-0.069
-441.807	-115.761	0.309	-0.058
-440.792	-12.337	-0.246	0.162
-439.778	-200.000	-0.029	0.198
-438.763	800.000	-0.069	0.208
-437.749	-129.295	0.241	-0.034
-436.734	800.000	-0.049	-0.196
-435.719	-144.716	0.182	-0.017
-434.705	-118.573	-0.221	0.039
-433.690	-200.000	0.132	-0.000
-432.676	-117.309	-0.011	0.002
-431.661	14.037	0.415	-0.326
-430.646	176.991	0.086	0.126
-429.632	-200.000	-0.018	-0.112
-428.617	-189.031	0.250	-0.003
-427.603	345.885	-0.017	-0.033
-426.588	-200.000	-0.002	0.478
-425.573	-200.000	-0.035	0.420
-424.559	74.519	0.151	-0.160
-423.544	-39.238	-0.203	-0.107
-422.530	-200.000	0.018	-0.227
-421.515	-51.632	-0.241	0.113
-420.500	81.764	-0.203	0.222
-419.486	-125.741	0.446	-0.068
-418.471	-58.175	0.338	-0.148
-417.457	427.706	0.084	0.183
-416.442	119.546	0.201	0.251
-415.428	567.917	0.081	-0.197
-414.413	-200.000	-0.017	0.179
-413.398	-200.000	-0.012	0.281
-412.384	800.000	0.017	0.048
-411.369	-200.000	-0.015	-0.086
-410.355	-116.251	-0.179	-0.033
-409.340	-138.493	-0.229	-0.025
-408.325	57.268	-0.135	0.132
-407.311	1.632	-0.112	-0.081
-406.296	-200.000	-0.034	0.175
-405.282	800.000	-0.032	0.132
-404.267	8.368	0.406	0.308
-403.252	-200.000	0.030	0.182
-402.238	383.978	0.051	-0.105
-401.223	-146.889	-0.308	-0.027
-400.209	-200.000	0.032	-0.248
-399.194	-200.000	0.005	0.096
-398.179	-200.000	-0.004	0.089
-397.165	-34.289	-0.575	0.318
-396.150	-72.198	-0.264	-0.098
-395.136	-200.000	-0.021	-0.108
-394.121	-200.000	0.003	-0.138
-393.106	-94.192	-0.468	-0.129
-392.092	800.000	0.019	-0.063
-391.077	150.982	-0.086	-0.118
-390.063	800.000	-0.062	0.186
-389.048	22.029	0.184	0.151
-388.033	408.510	0.135	-0.287
-387.019	-200.000	-0.022	0.170
-386.004	93.972	-0.072	-0.082
-384.990	44.364	0.093	0.086
-383.975	19.764	0.051	-0.041
-382.960	128.807	0.053	0.068
-381.946	-86.800	0.196	-0.060
-380.931	-200.000	0.022	0.415
-379.917	40.868	0.156	0.141
-378.902	41.812	0.027	-0.025
-377.888	-106.931	-0.313	-0.070
-376.873	12.228	0.115	0.089
-375.858	-136.855	-0.368	0.042
-374.844	-24.203	-0.267	-0.160
-373.829	-79.608	0.290	0.099
-372.815	-38.543	0.332	-0.176
-371.800	-2.223	-0.293	0.207
-370.785	-55.320	0.181	-0.082
-369.771	181.970	0.201	-0.298
-368.756	267.714	-0.071	-0.125
-367.742	275.011	-0.117	0.209
-366.727	-200.000	0.028	-0.211
-365.712	349.350	-0.049	0.098
-364.698	800.000	-0.104	-0.399
-363.683	278.025	-0.087	0.156
-362.669	-200.000	0.009	-0.284
-361.654	-200.000	0.004	0.169
-360.639	123.832	0.115	-0.145
-359.625	225.059	-0.174	-0.283
-358.610	-71.404	-0.039	-0.015
-357.596	-200.000	-0.057	-0.358
-356.581	800.000	0.040	0.158
-355.566	-200.000	0.004	-0.144
-354.552	-122.357	0.395	0.065
-353.537	-85.954	0.208	0.065
-352.523	800.000	0.026	-0.087
-351.508	-23.919	-0.029	-0.017
-350.493	199.168	-0.079	0.122
-349.479	-184.276	0.516	0.009
-348.464	-76.354	-0.191	0.067
-347.450	-1.329	0.233	0.165
-346.435	-36.193	0.072	-0.039
-345.420	109.069	0.091	-0.109
-344.406	50.696	0.233	-0.221
-343.391	-67.899	-0.052	0.021
-342.377	95.357	-0.285	0.326
-341.362	481.144	0.147	-0.335
-340.348	419.107	0.008	-0.017
-339.333	-200.000	0.005	-0.152
-338.318	-200.000	-0.042	0.196
-337.304	220.870	-0.066	-0.107
-336.289	441.885	-0.103	-0.227
-335.275	800.000	0.061	0.178
-334.260	-169.284	-0.121	0.004
-333.245	800.000	-0.061	0.183
-332.231	467.897	0.132	0.297
-331.216	-200.000	-0.054	-0.291
-330.202	800.000	0.049	0.136
-329.187	-200.000	0.011	0.206
-328.172	-30.245	0.147	0.084
-327.158	-200.000	-0.037	0.315
-326.143	-83.123	-0.375	0.121
-325.129	800.000	0.101	0.327
-324.114	685.151	0.053	0.138
-323.099	385.934	-0.047	-0.098
-322.085	221.814	-0.057	-0.092
-321.070	-200.000	0.007	0.150
-320.056	-29.572	0.034	-0.020
-319.041	-200.000	-0.000	-0.031
-318.026	166.250	-0.205	0.291
-317.012	-17.081	-0.120	-0.076
-315.997	-6.787	0.099	-0.068
-314.983	-33.461	-0.289	0.160
-313.968	-200.000	0.013	-0.173
-312.953	21.033	0.026	-0.022
-311.939	-200.000	0.039	-0.175
-310.924	28.742	-0.262	-0.222
-309.910	-19.035	0.201	-0.126
-308.895	-139.838	0.107	0.011
-307.880	-70.240	-0.445	-0.169
-306.866	-200.000	0.002	0.031
-305.851	32.759	0.335	0.291
-304.837	-140.656	0.376	-0.039
-303.822	59.365	0.171	0.169
-302.807	230.456	0.037	0.061
-301.793	-128.130	0.373	0.054
-300.778	-5.126	-0.281	0.194
-299.764	800.000	0.019	0.055
-298.749	-56.055	0.311	0.139
-297.735	38.289	0.034	0.031
-296.720	-200.000	-0.014	0.116
-295.705	32.765	0.188	-0.163
-294.691	11.554	-0.122	0.094
-293.676	800.000	0.043	-0.135
-292.662	-105.682	0.119	0.027
-291.647	109.888	0.035	0.042
-290.632	800.000	-0.073	-0.255
-289.618	138.887	0.138	-0.182
-288.603	195.045	-0.121	0.184
-287.589	-200.000	0.012	-0.358
-286.574	-44.396	0.146	0.073
-285.559	-113.606	-0.097	-0.019
-284.545	257.134	0.162	-0.279
-283.530	9.315	0.097	0.074
-282.516	78.357	-0.153	0.164
-281.501	-104.547	-0.186	0.043
-280.486	800.000	0.063	0.258
-279.472	47.264	0.219	0.204
-278.457	7.631	-0.083	0.063
-277.443	-98.366	-0.080	-0.020
-276.428	377.905	-0.025	0.050
-275.413	-40.025	-0.079	-0.041
-274.399	-127.816	-0.256	-0.037
-273.384	-30.421	0.244	0.139
-272.370	800.000	-0.016	0.069
-271.355	-200.000	0.078	-0.365
-270.340	101.160	-0.064	-0.074
-269.326	-97.280	-0.101	-0.026
-268.311	324.128	-0.108	0.206
-267.297	-200.000	0.019	-0.111
-266.282	-200.000	-0.005	-0.078
-265.267	120.449	-0.079	0.098
-264.253	-76.686	0.237	-0.083
-263.238	800.000	-0.019	-0.060
-262.224	-200.000	0.040	0.184
-261.209	-36.440	-0.284	0.153
-260.195	800.000	-0.038	0.153
-259.180	-58.264	-0.142	0.062
-258.165	286.783	0.212	-0.383
-257.151	-200.000	-0.009	-0.144
-256.136	-10.963	0.218	0.144
-255.122	800.000	-0.011	0.045
-254.107	800.000	-0.073	-0.241
-253.092	-69.734	-0.117	0.045
-252.078	-200.000	-0.071	0.392
-251.063	322.878	0.140	0.268
-250.049	-95.585	-0.205	0.055
-249.034	-18.219	0.215	-0.134
-248.019	-34.514	-0.249	-0.136
-247.005	-128.932	-0.241	-0.034
-245.990	-200.000	-0.010	-0.069
-244.976	-132.775	0.118	0.015
-243.961	-200.000	0.019	-0.298
-242.946	800.000	-0.031	0.107
-241.932	117.365	-0.148	-0.182
-240.917	-81.816	0.101	0.033
-239.903	-11.832	0.044	-0.029
-238.888	-57.521	0.241	-0.106
-237.873	-121.100	-0.354	-0.059
-236.859	800.000	-0.096	-0.338
-235.844	237.653	0.148	-0.246
-234.830	36.100	-0.307	-0.271
-233.815	799.907	-0.151	-0.418
-232.800	-200.000	0.252	0.001
-231.786	-69.656	0.307	-0.117
-230.771	-176.151	-0.089	-0.002
-229.757	-56.785	-0.275	0.121
-228.742	-59.330	0.254	0.109
-227.727	-81.440	0.137	-0.045
-226.713	-76.322	0.338	0.119
-225.698	-91.307	0.226	-0.065
-224.684	-132.857	-0.336	-0.043
-223.669	203.693	-0.040	0.061
-222.655	-119.821	0.345	0.059
-221.640	-122.709	0.250	0.040
-220.625	800.000	-0.084	-0.280
-219.611	341.686	-0.107	0.208
-218.596	4.622	0.127	0.093
-217.582	-19.615	-0.303	0.188
-216.567	800.000	-0.113	0.325
-215.552	33.764	0.051	-0.045
-214.538	53.940	-0.097	0.093
-213.523	96.834	0.161	0.185
-212.509	-60.298	-0.163	-0.070
-211.494	-49.005	0.182	-0.087
-210.479	8.946	-0.183	0.138
-209.465	186.022	-0.185	0.275
-208.450	-180.454	-0.078	-0.002
-207.436	10.148	-0.267	0.203
-206.421	-19.840	0.148	-0.092
-205.406	800.000	-0.021	-0.065
-204.392	-0.509	-0.286	-0.203
-203.377	-200.000	-0.006	-0.280
-202.363	193.491	-0.024	-0.037
-201.348	340.123	0.138	0.269
-200.333	-118.564	-0.209	-0.037
-199.319	-117.800	-0.237	-0.042
-198.304	-78.652	0.079	-0.027
-197.290	-117.094	0.074	0.013
-196.275	-200.000	0.003	-0.028
-195.260	10.502	0.249	-0.189
-194.246	388.300	-0.101	0.208
-193.231	-16.608	0.055	-0.035
-192.217	45.529	-0.285	-0.263
-191.202	-31.651	-0.198	0.111
-190.187	-200.000	0.047	-0.246
-189.173	179.579	-0.167	0.244
-188.158	-200.000	0.057	0.296
-187.144	526.308	-0.057	0.133
-186.129	13.392	0.252	0.195
-185.114	-157.356	-0.210	-0.013
-184.100	-47.973	0.524	-0.253
-183.085	191.435	-0.280	0.421
-182.071	-30.421	0.125	-0.071
-181.056	-200.000	-0.047	-0.209
-180.042	49.997	-0.247	-0.232
-179.027	81.824	-0.164	0.178
-178.012	186.041	0.179	0.265
-176.998	237.410	-0.209	-0.346
-175.983	175.806	0.198	0.287
-174.969	22.835	-0.224	0.183
-173.954	38.928	-0.086	-0.077
-172.939	327.426	-0.084	0.161
-171.925	176.934	0.086	-0.125
-170.910	18.064	0.109	0.087
-169.896	243.878	-0.062	0.104
-168.881	17.379	0.313	0.248
-167.866	-91.905	-0.133	0.038
-166.852	403.558	-0.095	-0.200
-165.837	227.411	0.116	-0.188
-164.823	29.656	0.080	-0.068
-163.808	652.974	-0.067	-0.171
-162.793	13.963	0.257	-0.199
-161.779	-200.000	0.046	0.393
-160.764	-200.000	0.014	0.217
-159.750	361.638	-0.055	-0.110
-158.735	-200.000	-0.008	-0.076
-157.720	-106.081	0.298	0.067
-156.706	63.552	-0.219	-0.220
-155.691	-41.999	-0.265	-0.135
-154.677	30.755	0.036	0.030
-153.662	800.000	0.056	-0.221
-152.647	144.716	0.069	-0.093
-151.633	-63.485	-0.211	0.086
-150.618	-200.000	0.008	-0.386
-149.604	-28.070	0.227	0.131
-148.589	536.788	0.044	0.104
-147.574	25.044	0.239	0.198
-146.560	-64.837	0.440	0.177
-145.545	16.118	0.202	0.159
-144.531	13.432	0.077	-0.059
-143.516	-200.000	0.000	-0.062
-142.502	47.715	-0.302	0.281
-141.487	240.590	0.196	0.326
-140.472	-5.018	0.274	0.188
-139.458	-28.009	0.132	-0.076
-138.443	59.605	-0.092	0.090
-137.429	543.470	0.031	0.073
-136.414	383.208	-0.080	-0.164
-135.399	800.000	-0.136	-0.413
-134.385	397.188	-0.077	-0.161
-133.370	209.217	0.076	-0.118
-132.356	-160.650	-0.183	0.010
-131.341	-61.865	-0.260	0.108
-130.326	58.359	0.174	0.170
-129.312	-88.535	-0.411	-0.122
-128.297	376.257	0.169	0.344
-127.283	-148.633	-0.161	-0.013
-126.268	800.000	0.053	0.219
-125.253	800.000	-0.075	-0.224
-124.239	560.881	0.086	-0.208
-123.224	-77.866	0.282	0.097
-122.210	-49.241	0.061	-0.029
-121.195	-77.846	0.168	-0.058
-120.180	-154.365	0.220	-0.015
-119.166	-190.224	0.416	-0.005
-118.151	169.513	-0.134	0.190
-117.137	-46.350	-0.122	0.060
-116.122	-200.000	0.047	-0.263
-115.107	258.793	-0.117	-0.200
-114.093	-200.000	0.012	0.089
-113.078	-160.971	0.184	-0.010
-112.064	-77.416	0.147	-0.051
-111.049	-200.000	0.014	-0.276
-110.034	14.327	-0.134	-0.104
-109.020	-19.503	-0.120	0.074
-108.005	-200.000	0.073	-0.514
-106.991	800.000	0.089	0.262
-105.976	-200.000	0.009	0.123
-104.962	-117.063	-0.142	-0.026
-103.947	-25.366	-0.232	-0.136
-102.932	-153.193	0.215	-0.015
-101.918	800.000	0.024	0.081
-100.903	-73.877	0.158	0.057
-99.889	106.176	0.244	0.288
-98.874	184.307	-0.106	-0.157
-97.859	-125.178	0.300	-0.046
-96.845	-200.000	-0.049	0.233
-95.830	-35.614	0.383	0.206
-94.816	-80.077	-0.103	0.034
-93.801	-40.372	0.197	-0.102
-92.786	108.926	-0.122	0.145
-91.772	-77.379	-0.120	0.041
-90.757	799.358	0.043	-0.118
-89.743	-200.000	0.022	-0.204
-88.728	-200.000	0.051	-0.227
-87.713	356.196	-0.017	-0.033
-86.699	-134.397	0.251	0.031
-85.684	-115.925	0.141	-0.026
-84.670	105.564	-0.086	0.102
-83.655	115.915	-0.122	0.148
-82.640	-72.374	-0.115	0.042
-81.626	136.167	0.078	0.101
-80.611	-124.614	0.167	0.026
-79.597	-170.704	0.114	-0.004
-78.582	-41.420	-0.017	-0.009
-77.567	-33.575	-0.136	-0.074
-76.553	288.553	0.080	0.144
-75.538	-43.327	-0.180	-0.091
-74.524	-55.740	-0.066	-0.029
-73.509	-200.000	-0.004	0.029
-72.494	-68.011	0.288	0.112
-71.480	65.283	0.116	0.117
-70.465	-51.789	0.111	0.051
-69.451	-200.000	-0.018	-0.481
-68.436	-200.000	0.068	0.395
-67.422	174.927	-0.083	-0.120
-66.407	-89.500	0.270	0.079
-65.392	-190.124	-0.059	-0.001
-64.378	-200.000	-0.001	-0.232
-63.363	-200.000	-0.000	0.021
-62.349	9.430	0.229	-0.172
-61.334	99.172	-0.898	-1.031
-60.319	50.471	0.383	0.360
-59.305	800.000	-0.154	-0.664
-58.290	283.364	0.573	1.023
-57.276	513.079	0.710	1.645
-56.261	-200.000	87.004	501.936
-55.246	536.479	1381.089	3256.055
-54.232	180.139	2629.695	3829.214
-53.217	117.071	2264.631	2762.777
-52.203	47.157	1791.802	1656.066
-51.188	40.541	1597.350	1428.826
-50.173	38.125	1569.424	1386.665
-49.159	54.585	1614.068	1544.924
-48.144	58.588	1634.492	1593.255
-47.130	40.922	1593.086	1427.525
-46.115	37.748	1577.897	1391.238
-45.100	37.612	1573.951	1386.730
-44.086	37.644	1572.002	1385.190
-43.071	37.482	1570.476	1382.637
-42.057	37.516	1568.900	1381.437
-41.042	37.463	1567.655	1379.909
-40.027	37.505	1565.845	1378.562
-39.013	37.465	1564.170	1376.744
-37.998	37.500	1562.910	1375.827
-36.984	37.506	1561.579	1374.649
-35.969	37.543	1560.235	1373.669
-34.954	37.549	1558.300	1371.954
-33.940	37.452	1557.417	1370.438
-32.925	37.523	1555.928	1369.573
-31.911	37.592	1554.442	1368.695
-30.896	37.609	1552.933	1367.436
-29.881	37.620	1551.697	1366.367
-28.867	37.587	1550.593	1365.113
-27.852	37.567	1549.032	1363.540
-26.838	37.595	1547.108	1361.993
-25.823	37.582	1545.648	1360.561
-24.809	37.630	1543.807	1359.217
-23.794	37.508	1542.816	1357.442
-22.779	37.583	1541.236	1356.524
-21.765	37.462	1540.887	1355.316
-20.750	37.604	1539.339	1354.887
-19.736	37.693	1537.598	1353.921
-18.721	37.547	1536.955	1352.287
-17.706	37.467	1536.259	1351.064
-16.692	37.532	1534.781	1350.163
-15.677	37.436	1533.637	1348.441
-14.663	37.524	1532.491	1347.987
-13.648	37.441	1531.518	1346.505
-12.633	37.502	1530.075	1345.604
-11.619	37.458	1529.769	1344.975
-10.604	37.493	1528.771	1344.284
-9.590	37.439	1527.995	1343.178
-8.575	37.410	1526.907	1341.965
-7.560	37.478	1526.058	1341.636
-6.546	37.458	1525.111	1340.617
-5.531	37.425	1524.336	1339.653
-4.517	37.424	1523.603	1338.949
-3.502	37.525	1521.924	1338.116
-2.487	37.500	1520.686	1336.804
-1.473	37.464	1520.051	1335.940
-0.458	37.381	1518.649	1334.091
0.556	35.127	1508.439	1323.026
1.571	31.705	1480.318	1275.001
2.586	27.450	1414.022	1190.057
3.600	25.423	1327.555	1104.735
4.615	23.639	1280.523	1054.911
5.629	19.904	1222.021	985.405
6.644	9.626	1130.600	857.188
7.659	1.196	1084.808	779.229
8.673	-0.108	1079.017	768.333
9.688	-0.308	1076.265	765.289
10.702	-0.407	1074.334	763.344
11.717	-0.527	1072.400	761.292
12.731	2.656	1075.818	779.861
13.746	11.838	1090.133	837.323
14.761	17.522	1096.492	871.300
15.775	17.001	1094.491	866.970
16.790	16.387	1093.047	862.616
17.804	15.967	1092.662	860.094
18.819	15.780	1091.516	858.162
19.834	15.927	1090.325	857.896
20.848	15.943	1090.038	857.676
21.863	15.947	1089.108	856.889
22.877	15.781	1088.854	855.770
23.892	15.694	1088.298	854.817
24.907	15.785	1087.057	854.230
25.921	15.707	1086.820	853.572
26.936	15.775	1085.883	853.104
27.950	15.853	1084.628	852.437
28.965	15.853	1083.263	851.289
29.980	15.662	1081.787	849.087
30.994	15.703	1079.669	847.557
32.009	15.892	1079.135	848.014
33.023	16.009	1077.953	847.603
34.038	15.689	1076.754	844.975
35.053	15.747	1075.969	844.577
36.067	15.942	1075.238	844.904
37.082	15.847	1074.397	843.696
38.096	15.997	1073.388	843.576
39.111	16.046	1072.741	843.239
40.126	16.156	1071.347	842.618
41.140	16.065	1070.379	841.328
42.155	15.844	1068.835	838.938
43.169	15.737	1067.749	837.481
44.184	15.684	1066.246	835.965
45.199	15.689	1065.625	835.427
46.213	15.710	1064.532	834.602
47.228	15.755	1062.849	833.431
48.242	15.664	1061.766	832.058
49.257	15.660	1060.653	831.091
50.271	15.861	1059.954	831.464
51.286	15.754	1058.983	830.101
52.301	15.868	1058.156	829.940
53.315	15.762	1057.402	828.755
54.330	15.779	1056.128	827.767
55.344	15.680	1055.311	826.565
56.359	15.731	1054.166	825.843
57.374	15.876	1052.722	825.351
58.388	15.679	1052.081	823.811
59.403	15.827	1051.033	823.643
60.417	15.809	1050.587	823.130
61.432	15.635	1050.102	821.828
62.447	15.710	1048.889	821.173
63.461	15.699	1048.420	820.679
64.476	15.831	1047.545	820.566
65.490	15.766	1046.189	819.116
66.505	15.839	1044.583	818.141
67.520	15.672	1044.440	817.145
68.534	15.845	1043.404	817.102
69.549	15.674	1042.818	815.739
70.563	15.514	1041.428	813.805
71.578	15.561	1040.583	813.299
72.593	15.523	1040.276	812.804
73.607	15.607	1038.695	811.902
74.622	15.593	1037.641	810.940
75.636	15.748	1037.069	811.166
76.651	15.753	1036.295	810.514
77.666	15.682	1035.444	809.435
78.680	15.603	1034.324	808.109
79.695	15.604	1033.751	807.595
80.709	15.702	1033.098	807.484
81.724	15.663	1032.801	806.992
82.739	15.673	1031.656	806.073
83.753	15.690	1030.524	805.199
84.768	15.902	1029.599	805.418
85.782	15.826	1029.221	804.690
86.797	15.998	1028.020	804.503
87.812	15.924	1027.143	803.391
88.826	15.872	1025.928	802.121
89.841	15.866	1025.298	801.531
90.855	15.867	1024.265	800.656
91.870	15.821	1023.370	799.666
92.884	15.890	1022.501	799.245
93.899	15.907	1021.673	798.607
94.914	15.804	1020.639	797.241
95.928	15.900	1019.942	797.079
96.943	15.954	1018.685	796.282
97.957	15.788	1017.859	794.782
98.972	15.670	1016.404	793.019
99.987	15.409	1015.223	790.799
101.001	15.333	1015.040	790.226
102.016	15.583	1014.240	790.713
103.030	15.842	1013.429	791.227
104.045	15.729	1011.929	789.454
105.060	15.564	1010.232	787.289
106.074	15.310	1009.155	785.189
107.089	15.457	1008.563	785.346
108.103	15.661	1008.483	786.171
109.118	15.886	1007.443	786.341
110.133	15.665	1006.614	784.591
111.147	15.851	1004.953	784.096
112.162	15.826	1003.833	783.034
113.176	15.603	1002.978	781.261
114.191	15.634	1002.315	780.822
115.206	15.677	1001.483	780.304
116.220	15.495	1000.387	778.535
117.235	15.496	999.136	777.501
118.249	15.599	998.276	777.239
119.264	15.639	996.921	776.297
120.279	15.692	996.154	775.876
121.293	15.648	995.396	775.014
122.308	15.745	994.583	774.761
123.322	15.727	993.348	773.646
124.337	15.675	992.512	772.689
125.352	15.716	990.603	771.322
126.366	15.358	989.177	768.502
127.381	14.970	987.418	765.294
128.395	15.250	986.716	765.964
129.410	15.794	986.282	768.041
130.424	15.926	985.171	767.710
131.439	15.930	984.231	766.930
132.454	15.772	983.053	765.225
133.468	15.865	981.971	764.737
134.483	15.857	981.409	764.197
135.497	15.897	980.921	763.927
136.512	16.061	979.653	763.616
137.527	16.080	979.061	763.175
138.541	16.016	978.336	762.251
139.556	16.148	977.181	761.881
140.570	16.053	976.438	760.805
141.585	16.018	975.325	759.711
142.600	16.028	974.386	758.959
143.614	15.895	974.007	757.996
144.629	15.992	973.090	757.652
145.643	16.242	972.043	757.892
146.658	16.124	971.100	756.563
147.673	15.951	970.483	755.240
148.687	15.849	969.468	753.928
149.702	15.869	968.326	753.060
150.716	15.845	967.187	752.001
151.731	15.893	965.870	751.123
152.746	15.958	965.417	750.998
153.760	16.158	964.400	751.028
154.775	16.098	964.201	750.542
155.789	16.161	962.834	749.689
156.804	16.057	962.090	748.584
157.819	16.077	960.812	747.608
158.833	16.161	960.010	747.294
159.848	16.077	959.780	746.676
160.862	16.064	958.747	745.749
161.877	16.029	957.211	744.334
162.892	16.023	956.494	743.681
163.906	16.267	955.730	744.100
164.921	16.225	954.726	743.066
165.935	16.063	954.070	741.777
166.950	16.224	952.764	741.402
167.964	16.073	951.721	739.866
168.979	16.001	951.108	739.008
169.994	16.166	949.539	738.443
171.008	15.949	948.931	736.958
172.023	16.087	947.853	736.659
173.037	16.197	946.895	736.329
174.052	15.926	946.073	734.439
175.067	15.780	944.347	732.400
176.081	15.778	944.243	732.245
177.096	16.057	943.026	732.451
178.110	16.096	942.263	731.961
179.125	15.864	941.433	730.249
180.140	15.871	939.964	729.074
181.154	15.890	939.503	728.734
182.169	15.762	939.159	727.848
183.183	15.841	938.579	727.674
184.198	16.119	937.443	727.930
185.213	16.078	937.251	727.540
186.227	16.096	935.989	726.574
187.242	16.215	935.467	726.617
188.256	16.188	934.828	725.940
189.271	16.090	933.597	724.498
190.286	16.347	932.763	724.890
191.300	16.181	932.059	723.570
192.315	15.855	931.081	721.347
193.329	15.378	929.658	718.140
194.344	15.143	928.847	716.444
195.359	15.484	928.797	717.800
196.373	15.994	929.095	720.147
197.388	16.179	927.791	719.862
198.402	16.135	926.938	718.952
199.417	16.045	926.005	717.780
200.432	15.821	925.940	716.710
201.446	15.741	925.065	715.630
202.461	15.399	924.721	713.847
203.475	15.457	923.913	713.406
204.490	15.200	922.775	711.375
205.504	14.453	920.633	706.497
206.519	14.825	920.292	707.746
207.534	15.693	920.611	711.606
208.548	15.686	920.078	711.101
209.563	15.984	919.970	712.215
210.577	16.084	918.731	711.614
211.592	15.791	917.874	709.652
212.607	15.905	918.127	710.266
213.621	16.065	917.120	710.098
214.636	16.027	916.088	709.076
215.650	16.036	915.788	708.818
216.665	16.063	915.412	708.576
217.680	16.103	914.800	708.209
218.694	16.280	913.905	708.194
219.709	16.051	913.162	706.598
220.723	15.760	912.021	704.432
221.738	15.952	911.978	705.141
222.753	16.196	910.968	705.318
223.767	16.131	909.893	704.152
224.782	16.165	909.414	703.861
225.796	16.234	908.139	703.101
226.811	16.331	907.754	703.144
227.826	16.091	906.583	701.178
228.840	15.443	905.523	697.601
229.855	15.379	904.792	696.713
230.869	15.707	904.386	697.696
231.884	15.517	903.266	695.985
232.899	15.457	902.889	695.386
233.913	16.013	903.031	697.735
234.928	16.264	901.752	697.724
235.942	16.224	901.390	697.216
236.957	16.313	900.420	696.771
237.972	16.098	899.900	695.421
238.986	16.053	898.920	694.415
240.001	16.235	898.034	694.418
241.015	16.250	897.237	693.804
242.030	16.135	896.669	692.831
243.045	16.193	896.266	692.696
244.059	16.275	895.724	692.551
245.074	16.357	895.092	692.339
246.088	16.242	894.335	691.221
247.103	15.979	892.850	688.936
248.117	15.840	892.722	688.210
249.132	16.263	891.928	689.263
250.147	16.463	891.217	689.468
251.161	16.244	890.941	688.300
252.176	16.489	890.204	688.667
253.190	16.512	889.258	687.968
254.205	16.475	889.150	687.674
255.220	16.812	887.938	688.046
256.234	16.789	887.244	687.354
257.249	16.736	886.926	686.832
258.263	16.745	885.873	685.989
259.278	16.680	885.146	685.103
260.293	16.807	884.665	685.184
261.307	16.930	883.646	684.832
262.322	16.627	883.111	683.135
263.336	16.580	882.186	682.170
264.351	16.353	880.374	679.793
265.366	15.227	879.334	674.401
266.380	15.017	877.974	672.454
267.395	15.658	878.463	675.345
268.409	16.268	878.401	677.689
269.424	16.384	877.639	677.505
270.439	16.436	877.612	677.634
271.453	16.630	876.423	677.432
272.468	16.768	875.915	677.530
273.482	16.794	875.678	677.394
274.497	16.896	874.635	676.932
275.512	16.739	873.863	675.649
276.526	16.313	872.378	672.745
277.541	16.511	871.709	672.955
278.555	16.703	871.362	673.393
279.570	16.325	870.794	671.391
280.585	16.268	869.709	670.268
281.599	16.348	869.071	670.037
282.614	16.511	868.547	670.219
283.628	16.363	867.443	668.721
284.643	16.167	866.791	667.386
285.657	16.251	866.685	667.578
286.672	16.312	865.959	667.198
287.687	15.898	865.061	664.812
288.701	16.204	864.471	665.510
289.716	16.509	864.158	666.412
290.730	16.198	863.329	664.488
291.745	16.118	862.643	663.586
292.760	15.883	861.248	661.530
293.774	15.980	860.574	661.336
294.789	16.609	860.894	663.993
295.803	16.995	860.615	665.234
296.818	17.162	860.038	665.382
297.833	17.301	859.875	665.743
298.847	17.089	858.551	663.830
299.862	16.860	857.761	662.265
300.876	17.038	856.883	662.221
301.891	17.093	856.507	662.088
302.906	17.141	855.760	661.638
303.920	16.637	854.873	658.934
304.935	16.493	854.080	657.703
305.949	16.761	853.891	658.541
306.964	16.946	853.229	658.690
307.979	16.962	852.352	658.018
308.993	16.901	851.910	657.383
310.008	17.192	851.726	658.311
311.022	17.236	851.096	657.935
312.037	17.092	850.387	656.772
313.052	16.983	849.925	655.935
314.066	17.088	849.030	655.591
315.081	16.463	848.146	652.438
316.095	16.216	846.799	650.393
317.110	16.308	847.059	650.891
318.125	16.967	847.123	653.420
319.139	16.774	846.310	651.995
320.154	16.157	844.502	648.175
321.168	15.910	843.587	646.466
322.183	16.236	843.788	647.814
323.197	16.847	843.393	649.799
324.212	17.035	842.778	649.987
325.227	17.024	843.096	650.131
326.241	17.298	842.182	650.417
327.256	17.159	841.870	649.589
328.270	17.056	841.150	648.579
329.285	17.097	840.208	647.954
330.300	16.998	839.737	647.156
331.314	16.840	838.831	645.796
332.329	16.980	837.966	645.608
333.343	17.141	837.179	645.558
334.358	17.200	837.176	645.721
335.373	17.250	836.458	645.299
336.387	17.344	835.573	644.916
337.402	17.426	835.323	644.979
338.416	17.442	835.059	644.776
339.431	17.210	834.487	643.399
340.446	17.330	833.369	642.935
341.460	17.524	832.713	643.104
342.475	17.576	832.130	642.795
343.489	17.273	831.303	640.957
344.504	17.231	830.807	640.357
345.519	17.405	830.695	640.870
346.533	17.677	829.942	641.258
347.548	17.598	829.933	640.894
348.562	17.620	829.666	640.714
349.577	17.792	828.677	640.539
350.592	17.762	828.602	640.312
351.606	17.764	827.943	639.755
352.621	17.664	827.237	638.778
353.635	17.893	826.563	639.058
354.650	17.689	826.254	637.998
355.665	17.474	825.166	636.301
356.679	16.762	824.024	632.703
357.694	16.537	823.445	631.364
358.708	17.070	823.156	633.075
359.723	17.114	822.920	632.999
360.738	17.214	822.468	632.971
361.752	17.498	822.111	633.697
362.767	17.682	821.868	634.137
363.781	17.846	821.281	634.238
364.796	17.926	820.772	634.086
365.810	17.898	820.440	633.671
366.825	18.090	819.988	633.977
367.840	18.028	819.787	633.536
368.854	17.846	819.232	632.376
369.869	17.575	818.570	630.805
370.883	17.480	817.704	629.733
371.898	17.481	817.457	629.489
372.913	17.464	816.344	628.513
373.927	17.206	815.951	627.203
374.942	17.660	815.274	628.300
375.956	17.783	814.633	628.204
376.971	17.823	814.022	627.823
377.986	17.749	813.735	627.275
379.000	17.923	812.650	627.022
380.015	17.858	812.549	626.650
381.029	17.854	811.599	625.846
382.044	17.907	810.980	625.510
383.059	17.921	810.731	625.312
384.073	17.823	810.475	624.701
385.088	17.864	809.910	624.362
386.102	18.042	809.410	624.572
387.117	17.862	808.761	623.357
388.132	17.989	808.627	623.664
389.146	17.846	808.064	622.650
390.161	17.499	806.749	620.317
391.175	17.463	806.317	619.800
392.190	17.725	806.218	620.623
393.205	17.622	805.905	619.954
394.219	17.060	804.588	616.844
395.234	16.317	802.790	612.716
396.248	15.868	802.282	610.646
397.263	16.508	802.854	613.349
398.278	17.703	803.138	617.846
399.292	18.136	803.638	619.743
400.307	17.924	802.538	618.073
401.321	18.001	801.886	617.794
402.336	17.954	801.763	617.475
403.350	18.123	801.745	618.018
404.365	18.381	801.125	618.416
405.380	18.339	800.944	618.071
406.394	18.367	800.571	617.831
407.409	18.696	799.318	617.994
408.423	18.400	799.150	616.744
409.438	18.262	798.681	615.828
410.453	18.403	798.236	615.938
411.467	18.463	797.718	615.701
412.482	18.451	797.258	615.249
413.496	18.582	796.736	615.260
414.511	18.658	796.157	615.031
415.526	18.616	795.928	614.652
416.540	18.664	795.664	614.562
417.555	18.624	795.149	613.967
418.569	18.343	794.288	612.242
419.584	18.234	793.602	611.273
420.599	18.192	793.212	610.768
421.613	151.299	1356.703	1781.976
422.628	131.039	1438.821	1782.116
