DTS Sentinel unit serial number:	SN413079Multiplexer serial number:	ORYXHardware model number:	OX4-SRSoftware version number:	ORYX F/W v4.00 Oryx Data Collector v3.7.2.0data status	okinstallation	princeton_trtdifferential loss correction	single-endedforward channel	channel 3reverse channel	N/Adate	2019/09/15time	13:44:35forward acquisition time	60.00reverse acquisition time	0.00gamma	496.2192k internal	0.2292k external	0.2292temperature offset calibration	0.9957default loss term (dB/km)	0.3790temperature slope calibration	1.0000multiplexer offset coefficient	1.0000multiplexer slope coefficient	1.0000fibre end	0.00T internal ref (°C)	37.95T ext. ref 1 (°C)	4.89T ext. ref 2 (°C)	35.22length (m)	temperature (°C)	Stokes	anti-Stokes-747.200	800.000	-0.116	0.363
-746.185	-6.969	0.022	0.016
-745.171	-145.615	0.202	0.019
-744.156	-67.534	-0.168	0.068
-743.142	-101.229	0.132	0.033
-742.127	800.000	-0.110	0.432
-741.112	-91.214	0.273	0.080
-740.098	-108.233	0.194	0.043
-739.083	-38.276	0.176	0.096
-738.069	-105.615	-0.373	0.087
-737.054	-200.000	0.002	-0.141
-736.039	141.313	-0.131	0.178
-735.025	800.000	-0.046	0.191
-734.010	-86.165	-0.077	0.024
-732.996	-106.263	0.078	0.018
-731.981	-59.117	-0.282	0.124
-730.966	-7.290	-0.158	0.109
-729.952	-43.913	-0.183	0.094
-728.937	237.417	-0.065	-0.111
-727.923	193.687	0.156	-0.241
-726.908	-200.000	0.050	-0.259
-725.894	503.880	-0.104	-0.247
-724.879	-126.993	-0.089	-0.013
-723.864	-200.000	0.008	-0.076
-722.850	15.144	-0.127	0.102
-721.835	130.763	-0.148	-0.194
-720.821	72.246	0.212	-0.226
-719.806	-120.092	0.198	-0.035
-718.791	93.947	-0.165	-0.191
-717.777	-200.000	0.010	-0.054
-716.762	-51.887	-0.290	-0.138
-715.748	-91.912	-0.208	0.060
-714.733	-138.907	0.085	0.009
-713.718	-85.672	0.227	0.072
-712.704	-64.704	0.140	-0.058
-711.689	-63.406	-0.230	0.097
-710.675	78.021	0.152	0.166
-709.660	-28.084	-0.249	0.147
-708.645	-200.000	0.016	0.076
-707.631	-88.695	-0.291	0.088
-706.616	800.000	-0.041	-0.177
-705.602	622.338	-0.081	-0.208
-704.587	354.571	-0.054	0.111
-703.572	-159.361	-0.219	-0.013
-702.558	-200.000	-0.002	0.273
-701.543	800.000	0.084	-0.285
-700.529	-76.950	0.162	-0.058
-699.514	36.923	0.145	0.131
-698.499	456.193	0.056	-0.127
-697.485	-200.000	-0.023	0.144
-696.470	800.000	0.051	-0.179
-695.456	31.866	-0.079	-0.070
-694.441	800.000	0.089	-0.310
-693.426	800.000	0.144	-0.573
-692.412	-95.024	0.259	0.071
-691.397	-24.283	-0.214	0.131
-690.383	29.041	0.076	-0.066
-689.368	-200.000	-0.039	-0.219
-688.354	-200.000	-0.000	0.027
-687.339	-88.318	-0.125	-0.038
-686.324	107.081	0.172	-0.209
-685.310	-128.970	-0.167	-0.024
-684.295	239.185	-0.108	-0.183
-683.281	-77.700	-0.222	0.079
-682.266	800.000	-0.026	-0.074
-681.251	-200.000	-0.010	0.161
-680.237	-110.683	-0.401	0.085
-679.222	-200.000	0.010	-0.169
-678.208	-111.573	0.212	-0.044
-677.193	800.000	0.005	-0.019
-676.178	-173.336	-0.123	0.004
-675.164	371.078	-0.134	-0.277
-674.149	43.946	-0.109	-0.102
-673.135	314.195	0.050	-0.097
-672.120	-20.701	-0.052	-0.033
-671.105	-112.014	-0.529	-0.109
-670.091	800.000	0.183	-0.550
-669.076	63.575	0.121	-0.124
-668.062	49.924	-0.172	-0.165
-667.047	-39.747	0.184	0.098
-666.032	-200.000	0.023	-0.305
-665.018	-93.208	0.026	-0.007
-664.003	-108.677	0.191	-0.042
-662.989	-8.893	-0.169	-0.116
-661.974	-200.000	-0.039	-0.276
-660.959	-147.495	-0.362	0.031
-659.945	109.875	-0.174	-0.213
-658.930	76.256	-0.120	-0.130
-657.916	-95.905	0.412	-0.112
-656.901	-164.558	0.245	-0.011
-655.886	-173.199	0.184	0.006
-654.872	-200.000	-0.063	-0.337
-653.857	78.793	0.228	-0.249
-652.843	-23.560	0.293	-0.179
-651.828	328.833	0.116	-0.227
-650.814	654.239	0.133	0.349
-649.799	95.671	-0.084	0.097
-648.784	-200.000	-0.044	0.266
-647.770	213.592	-0.073	0.118
-646.755	-112.787	0.058	0.012
-645.741	-10.897	-0.055	-0.037
-644.726	39.095	0.153	0.139
-643.711	-200.000	0.036	-0.192
-642.697	-200.000	-0.030	0.242
-641.682	-163.422	-0.308	0.015
-640.668	-200.000	-0.014	-0.179
-639.653	-151.551	-0.204	0.015
-638.638	11.088	0.137	-0.107
-637.624	-81.396	-0.124	-0.042
-636.609	-155.726	-0.188	0.012
-635.595	-150.560	-0.183	-0.014
-634.580	-62.658	0.062	0.026
-633.565	1.855	0.179	-0.132
-632.551	-62.296	-0.183	0.078
-631.536	800.000	-0.036	0.137
-630.522	-200.000	0.062	-0.279
-629.507	184.117	-0.067	0.101
-628.492	-10.230	-0.124	0.084
-627.478	31.708	0.232	0.203
-626.463	-200.000	0.026	0.260
-625.449	398.484	-0.104	-0.223
-624.434	-200.000	0.000	-0.062
-623.419	189.312	0.217	-0.332
-622.405	-73.877	-0.252	-0.093
-621.390	-200.000	-0.015	-0.139
-620.376	-200.000	-0.026	-0.312
-619.361	-63.850	-0.108	0.045
-618.346	297.061	0.121	0.226
-617.332	-56.295	-0.434	-0.196
-616.317	-152.465	0.155	-0.011
-615.303	-81.511	0.115	0.039
-614.288	-82.427	0.090	0.030
-613.273	-7.063	-0.253	-0.175
-612.259	-200.000	-0.094	-0.516
-611.244	491.461	-0.035	0.082
-610.230	-18.557	-0.098	-0.062
-609.215	-168.728	0.462	0.018
-608.201	-58.541	0.088	-0.039
-607.186	-134.768	-0.119	0.015
-606.171	-200.000	0.018	-0.416
-605.157	109.705	-0.227	-0.277
-604.142	238.823	-0.126	-0.213
-603.128	8.108	0.084	0.064
-602.113	368.030	0.088	0.180
-601.098	57.209	-0.062	0.062
-600.084	-57.795	-0.247	0.110
-599.069	794.018	0.114	-0.320
-598.055	800.000	-0.065	-0.255
-597.040	-17.384	0.154	-0.099
-596.025	-132.916	-0.172	-0.022
-595.011	460.333	0.195	0.442
-593.996	-200.000	0.042	-0.253
-592.982	423.175	0.063	-0.139
-591.967	167.161	0.049	0.070
-590.952	260.660	-0.125	-0.221
-589.938	740.793	-0.138	0.378
-588.923	639.860	0.022	-0.056
-587.909	-128.275	-0.222	0.032
-586.894	125.913	-0.116	0.149
-585.879	-200.000	-0.062	-0.314
-584.865	-55.283	-0.313	-0.143
-583.850	800.000	-0.074	0.276
-582.836	125.795	-0.144	0.185
-581.821	16.253	-0.303	0.243
-580.806	800.000	-0.081	-0.261
-579.792	94.905	-0.143	-0.165
-578.777	800.000	0.034	-0.152
-577.763	22.020	-0.336	-0.279
-576.748	-200.000	0.015	-0.200
-575.733	141.497	-0.149	-0.201
-574.719	-9.958	0.300	0.203
-573.704	-103.373	0.172	-0.041
-572.690	142.296	0.161	0.217
-571.675	800.000	-0.046	-0.156
-570.661	-37.973	-0.172	-0.093
-569.646	-63.099	0.427	0.179
-568.631	800.000	-0.074	-0.260
-567.617	-200.000	0.065	-0.327
-566.602	341.959	0.103	-0.204
-565.588	-11.528	0.302	-0.202
-564.573	61.047	0.099	-0.100
-563.558	-43.235	-0.128	0.066
-562.544	-90.840	0.328	0.096
-561.529	-80.855	0.273	-0.092
-560.515	35.769	-0.083	0.075
-559.500	-91.138	0.460	0.134
-558.485	800.000	-0.066	-0.214
-557.471	208.324	0.124	-0.198
-556.456	123.038	-0.105	-0.133
-555.442	326.052	-0.149	0.290
-554.427	392.277	-0.100	-0.210
-553.412	72.423	0.169	0.179
-552.398	-200.000	0.004	-0.054
-551.383	249.433	-0.147	-0.253
-550.369	-200.000	0.296	0.001
-549.354	-90.854	-0.122	0.036
-548.339	114.802	-0.160	0.198
-547.325	-200.000	-0.012	-0.093
-546.310	394.537	0.107	-0.226
-545.296	79.285	-0.053	-0.058
-544.281	-114.462	0.071	0.014
-543.266	360.632	-0.170	0.346
-542.252	-200.000	0.024	0.261
-541.237	112.608	0.013	-0.016
-540.223	218.516	0.060	0.097
-539.208	-164.001	-0.266	-0.013
-538.193	-73.545	0.151	-0.056
-537.179	-129.598	-0.214	-0.030
-536.164	-121.519	0.126	0.021
-535.150	578.083	-0.116	0.288
-534.135	45.689	-0.161	0.151
-533.121	-85.705	0.246	-0.077
-532.106	-23.066	-0.533	-0.326
-531.091	120.720	-0.140	0.176
-530.077	214.321	0.097	0.155
-529.062	800.000	0.036	0.147
-528.048	78.029	0.103	-0.111
-527.033	-200.000	0.020	-0.109
-526.018	-104.009	0.064	-0.015
-525.004	17.438	0.130	-0.104
-523.989	-79.858	-0.297	0.101
-522.975	-200.000	-0.020	-0.107
-521.960	81.786	0.154	0.170
-520.945	-136.037	-0.183	0.022
-519.931	-81.314	0.032	0.011
-518.916	14.850	0.243	0.192
-517.902	45.600	0.125	-0.118
-516.887	800.000	-0.085	-0.315
-515.872	-9.412	0.267	-0.181
-514.858	-56.940	0.108	-0.048
-513.843	-34.738	-0.043	-0.024
-512.829	-55.744	-0.309	-0.140
-511.814	-200.000	-0.016	-0.192
-510.799	-136.107	-0.234	-0.028
-509.785	-200.000	0.044	-0.295
-508.770	-200.000	0.044	-0.269
-507.756	-146.897	0.304	0.027
-506.741	378.833	0.032	-0.066
-505.726	702.289	0.054	0.145
-504.712	664.586	-0.042	-0.110
-503.697	-59.671	0.076	-0.033
-502.683	-107.309	0.073	-0.016
-501.668	-148.138	-0.300	-0.025
-500.653	189.031	0.203	0.309
-499.639	-200.000	-0.001	-0.202
-498.624	-200.000	0.129	-0.639
-497.610	336.091	-0.122	-0.240
-496.595	-160.786	-0.383	-0.021
-495.581	585.841	-0.145	-0.362
-494.566	-159.734	0.237	-0.013
-493.551	-200.000	0.018	-0.140
-492.537	-200.000	0.024	0.132
-491.522	-38.042	-0.140	0.075
-490.508	157.531	-0.114	-0.160
-489.493	-4.117	-0.099	0.070
-488.478	136.259	-0.277	0.365
-487.464	-2.806	-0.125	-0.089
-486.449	-55.816	0.369	0.167
-485.435	61.482	-0.271	0.273
-484.420	127.689	-0.186	0.240
-483.405	645.202	-0.056	-0.144
-482.391	-54.922	0.272	-0.124
-481.376	-158.002	-0.298	0.018
-480.362	-200.000	-0.050	0.252
-479.347	800.000	-0.099	-0.388
-478.332	-143.721	0.203	-0.020
-477.318	179.206	-0.026	-0.039
-476.303	-38.327	0.223	-0.120
-475.289	-200.000	-0.054	-0.315
-474.274	255.765	-0.047	-0.082
-473.259	-200.000	0.039	0.182
-472.245	-81.935	-0.149	-0.049
-471.230	82.771	-0.044	-0.048
-470.216	130.268	0.217	-0.282
-469.201	-22.769	-0.347	0.212
-468.186	-24.979	0.131	-0.079
-467.172	272.336	0.056	0.099
-466.157	-45.306	-0.094	-0.047
-465.143	338.326	0.126	0.247
-464.128	87.666	-0.132	-0.148
-463.113	339.300	0.005	0.011
-462.099	221.880	-0.036	-0.059
-461.084	-200.000	0.003	0.111
-460.070	67.667	0.121	-0.125
-459.055	-27.419	-0.166	0.098
-458.040	19.124	-0.189	0.154
-457.026	-200.000	0.004	0.110
-456.011	-99.689	0.166	-0.042
-454.997	-4.194	-0.184	-0.129
-453.982	-89.159	0.109	0.032
-452.968	-181.773	-0.140	-0.003
-451.953	-20.945	-0.152	0.094
-450.938	15.141	-0.214	0.169
-449.924	800.000	0.027	0.090
-448.909	-121.472	-0.079	-0.013
-447.895	-55.742	-0.063	0.028
-446.880	97.359	0.082	-0.095
-445.865	800.000	0.126	0.385
-444.851	-200.000	-0.013	-0.252
-443.836	-55.024	-0.137	-0.062
-442.822	-131.133	0.102	-0.014
-441.807	800.000	0.066	0.194
-440.792	286.800	0.106	0.194
-439.778	800.000	-0.082	0.265
-438.763	126.965	0.062	-0.079
-437.749	-90.246	-0.253	-0.074
-436.734	-83.565	0.033	-0.011
-435.719	-12.962	0.235	0.155
-434.705	372.750	0.093	-0.192
-433.690	800.000	0.104	0.376
-432.676	-158.679	0.633	-0.037
-431.661	-167.553	0.222	-0.009
-430.646	-200.000	-0.005	0.230
-429.632	-200.000	0.002	-0.573
-428.617	202.961	-0.046	0.072
-427.603	69.007	0.188	0.196
-426.588	9.770	-0.158	0.121
-425.573	302.473	-0.175	0.327
-424.559	-159.599	-0.198	0.011
-423.544	228.943	0.091	0.151
-422.530	101.810	0.218	0.257
-421.515	-38.733	0.165	0.088
-420.500	-200.000	-0.047	0.208
-419.486	135.607	-0.052	0.068
-418.471	156.580	0.145	-0.202
-417.457	-200.000	0.033	0.407
-416.442	356.459	0.051	-0.103
-415.428	-200.000	0.012	-0.268
-414.413	81.060	-0.143	-0.156
-413.398	-82.391	0.216	0.071
-412.384	800.000	-0.079	-0.240
-411.369	188.178	0.151	-0.229
-410.355	-57.477	-0.200	0.089
-409.340	-100.500	0.070	-0.018
-408.325	46.895	0.252	0.237
-407.311	-200.000	-0.006	0.157
-406.296	543.691	0.058	-0.139
-405.282	211.308	0.043	0.069
-404.267	626.754	-0.128	-0.325
-403.252	800.000	-0.039	0.126
-402.238	-1.687	0.078	-0.055
-401.223	-200.000	-0.032	0.145
-400.209	-121.597	-0.280	-0.047
-399.194	1.754	0.055	-0.040
-398.179	-200.000	0.008	-0.125
-397.165	-103.400	-0.257	-0.061
-396.150	-124.071	-0.083	-0.013
-395.136	800.000	-0.012	0.046
-394.121	134.244	-0.122	-0.159
-393.106	40.756	0.222	0.202
-392.092	-90.245	-0.098	-0.029
-391.077	227.900	-0.241	-0.396
-390.063	653.020	-0.048	0.124
-389.048	-114.387	-0.634	0.123
-388.033	470.941	0.069	0.157
-387.019	175.557	-0.131	0.191
-386.004	214.985	-0.087	0.139
-384.990	269.352	0.109	-0.193
-383.975	160.219	0.084	0.118
-382.960	-110.879	-0.168	0.035
-381.946	800.000	-0.121	-0.392
-380.931	-92.753	-0.198	0.056
-379.917	-71.771	-0.405	0.152
-378.902	-200.000	0.038	-0.312
-377.888	-35.007	0.207	-0.114
-376.873	-48.714	-0.145	0.070
-375.858	-19.004	0.181	0.113
-374.844	-200.000	-0.007	0.201
-373.829	346.356	0.023	-0.045
-372.815	0.096	-0.206	-0.148
-371.800	728.157	-0.088	0.236
-370.785	-117.593	0.182	0.033
-369.771	800.000	-0.048	-0.146
-368.756	-29.179	0.361	-0.209
-367.742	11.707	0.068	-0.052
-366.727	197.214	0.190	-0.293
-365.712	136.179	0.105	-0.138
-364.698	181.935	-0.349	0.518
-363.683	497.526	-0.065	0.150
-362.669	-200.000	-0.024	0.107
-361.654	-134.965	-0.220	0.027
-360.639	594.278	-0.186	-0.464
-359.625	-150.634	-0.398	-0.031
-358.610	-96.321	0.363	-0.097
-357.596	-200.000	-0.007	-0.447
-356.581	-10.168	0.091	-0.061
-355.566	99.977	0.017	-0.020
-354.552	-200.000	-0.010	-0.066
-353.537	-200.000	0.007	-0.119
-352.523	-200.000	-0.056	0.284
-351.508	343.807	0.037	0.073
-350.493	-158.076	-0.151	-0.009
-349.479	-86.241	0.136	-0.042
-348.464	128.785	0.194	0.249
-347.450	134.715	-0.052	-0.069
-346.435	25.368	0.278	-0.233
-345.420	-110.182	-0.098	-0.021
-344.406	-20.645	0.167	-0.103
-343.391	800.000	-0.065	0.192
-342.377	800.000	0.027	0.087
-341.362	-76.773	-0.277	0.098
-340.348	-0.022	0.207	-0.149
-339.333	-184.929	0.357	-0.006
-338.318	-48.489	-0.082	-0.040
-337.304	248.113	0.121	0.206
-336.289	569.962	0.103	-0.252
-335.275	70.847	-0.275	-0.286
-334.260	-200.000	0.016	0.176
-333.245	-200.000	0.000	0.089
-332.231	-200.000	-0.006	0.182
-331.216	-200.000	0.011	0.124
-330.202	-19.145	0.040	-0.025
-329.187	-139.369	0.147	0.016
-328.172	-200.000	0.012	-0.310
-327.158	-35.011	-0.146	-0.080
-326.143	-145.530	0.140	-0.013
-325.129	800.000	-0.084	0.285
-324.114	17.114	0.075	-0.059
-323.099	145.860	-0.064	-0.086
-322.085	-159.438	0.342	-0.019
-321.070	-200.000	0.025	0.252
-320.056	246.134	0.051	0.086
-319.041	-121.180	-0.056	-0.009
-318.026	2.698	-0.027	0.020
-317.012	-97.428	-0.232	0.061
-315.997	800.000	-0.140	0.520
-314.983	-173.791	-0.028	0.001
-313.968	444.317	0.149	0.329
-312.953	-200.000	0.022	0.102
-311.939	252.917	-0.325	0.558
-310.924	-200.000	-0.010	0.272
-309.910	72.725	-0.278	-0.292
-308.895	-17.245	-0.015	0.010
-307.880	800.000	0.053	0.150
-306.866	35.433	0.121	-0.107
-305.851	-200.000	0.004	-0.067
-304.837	800.000	0.086	-0.279
-303.822	-140.880	0.135	-0.014
-302.807	115.108	0.261	0.320
-301.793	86.463	0.243	0.269
-300.778	56.936	0.053	-0.052
-299.764	-99.624	-0.162	-0.041
-298.749	800.000	0.121	0.371
-297.735	-38.631	0.141	-0.075
-296.720	60.876	-0.057	0.057
-295.705	15.008	0.371	-0.292
-294.691	-200.000	0.027	-0.166
-293.676	-69.675	-0.180	0.069
-292.662	-200.000	0.306	0.001
-291.647	-145.437	0.186	-0.017
-290.632	800.000	-0.067	-0.215
-289.618	-78.540	0.293	0.101
-288.603	153.280	-0.075	-0.103
-287.589	800.000	0.086	-0.278
-286.574	204.347	0.095	0.148
-285.559	-200.000	0.018	-0.264
-284.545	800.000	-0.050	-0.143
-283.530	-19.205	0.094	0.059
-282.516	-91.334	-0.179	0.051
-281.501	-85.363	0.409	-0.128
-280.486	355.683	-0.117	0.233
-279.472	74.621	0.089	0.094
-278.457	298.104	0.070	-0.129
-277.443	87.514	0.082	0.091
-276.428	231.754	-0.093	0.153
-275.413	-78.983	-0.379	0.130
-274.399	-51.192	0.109	0.051
-273.384	-149.529	-0.194	0.015
-272.370	127.831	0.084	-0.107
-271.355	-200.000	0.008	0.159
-270.340	694.576	-0.124	0.326
-269.326	-143.454	-0.341	-0.033
-268.311	-200.000	-0.036	0.161
-267.297	-85.166	-0.131	-0.041
-266.282	41.730	0.100	0.091
-265.267	-200.000	-0.044	0.400
-264.253	-148.358	-0.099	-0.008
-263.238	743.500	0.048	0.130
-262.224	-200.000	-0.024	0.169
-261.209	163.423	-0.315	-0.444
-260.195	15.258	-0.172	0.135
-259.180	800.000	0.039	0.126
-258.165	-135.967	0.540	-0.064
-257.151	-5.747	-0.154	0.106
-256.136	-23.132	-0.285	-0.173
-255.122	-69.060	0.380	0.147
-254.107	361.606	0.045	0.090
-253.092	800.000	-0.068	-0.268
-252.078	164.207	0.169	0.239
-251.063	-200.000	-0.029	-0.195
-250.049	-36.603	-0.065	-0.035
-249.034	14.549	-0.312	-0.245
-248.019	78.252	0.171	0.183
-247.005	-24.394	0.141	-0.084
-245.990	-91.766	0.109	0.031
-244.976	117.201	-0.104	-0.129
-243.961	-58.980	-0.326	-0.141
-242.946	2.372	-0.150	-0.109
-241.932	-97.377	0.110	0.029
-240.917	89.072	-0.101	0.113
-239.903	-19.636	-0.332	0.206
-238.888	-78.273	-0.147	0.051
-237.873	396.528	-0.037	-0.078
-236.859	-200.000	0.054	0.263
-235.844	-125.489	0.078	0.012
-234.830	-185.472	-0.511	0.008
-233.815	-70.921	0.327	0.124
-232.800	202.615	0.075	0.117
-231.786	-65.491	0.161	0.065
-230.771	-72.754	0.296	-0.110
-229.757	169.883	0.169	0.242
-228.742	-200.000	-0.011	0.149
-227.727	-200.000	-0.013	0.452
-226.713	-200.000	0.043	0.426
-225.698	-101.471	-0.175	-0.043
-224.684	136.288	0.167	0.219
-223.669	-49.334	-0.150	-0.072
-222.655	-21.825	0.142	-0.087
-221.640	800.000	-0.080	-0.264
-220.625	-200.000	0.032	0.218
-219.611	413.734	-0.033	0.070
-218.596	424.351	-0.092	-0.199
-217.582	-200.000	0.009	0.231
-216.567	-200.000	0.025	-0.187
-215.552	54.406	-0.058	-0.056
-214.538	22.198	-0.090	0.074
-213.523	-200.000	-0.002	0.064
-212.509	354.960	-0.037	-0.073
-211.494	326.230	0.050	0.095
-210.479	28.687	0.004	-0.003
-209.465	-17.276	0.094	-0.060
-208.450	-200.000	-0.026	-0.120
-207.436	-160.907	0.226	-0.012
-206.421	-200.000	0.040	-0.221
-205.406	-138.686	0.086	0.009
-204.392	218.263	-0.219	0.350
-203.377	221.934	0.127	-0.204
-202.363	116.950	0.139	0.171
-201.348	405.853	0.076	0.160
-200.333	-200.000	0.036	-0.175
-199.319	669.213	-0.058	0.150
-198.304	-102.792	-0.245	0.058
-197.290	386.553	-0.078	0.162
-196.275	-86.860	0.125	-0.038
-195.260	-147.434	0.260	-0.022
-194.246	592.298	-0.068	-0.167
-193.231	-96.768	-0.185	-0.049
-192.217	-200.000	-0.025	-0.294
-191.202	-200.000	0.020	-0.189
-190.187	-200.000	-0.036	0.282
-189.173	-155.466	0.379	-0.025
-188.158	-137.110	-0.274	0.031
-187.144	138.777	0.104	0.136
-186.129	166.293	0.046	0.065
-185.114	114.536	0.264	0.322
-184.100	800.000	0.062	-0.189
-183.085	-41.950	0.556	0.285
-182.071	-178.182	0.065	-0.002
-181.056	134.127	0.196	-0.254
-180.042	-200.000	-0.051	0.277
-179.027	-13.114	0.040	-0.026
-178.012	172.911	-0.098	-0.142
-176.998	-200.000	0.009	0.289
-175.983	34.884	-0.157	0.137
-174.969	800.000	-0.024	-0.087
-173.954	-200.000	0.020	-0.222
-172.939	-74.554	0.293	0.106
-171.925	356.941	-0.050	-0.100
-170.910	188.842	-0.053	-0.079
-169.896	-200.000	0.002	-0.429
-168.881	800.000	-0.092	0.379
-167.866	168.278	-0.057	0.082
-166.852	338.497	0.121	-0.236
-165.837	64.240	0.226	0.228
-164.823	19.157	0.176	-0.142
-163.808	-109.689	-0.218	0.046
-162.793	-200.000	0.034	-0.403
-161.779	130.227	0.273	-0.350
-160.764	26.225	-0.161	-0.135
-159.750	-0.805	0.081	0.057
-158.735	149.590	0.058	0.079
-157.720	-200.000	-0.005	0.228
-156.706	184.805	0.157	0.232
-155.691	-49.729	0.237	0.113
-154.677	15.216	0.101	-0.079
-153.662	-155.025	0.293	0.019
-152.647	512.920	0.172	0.401
-151.633	133.201	-0.076	-0.098
-150.618	-200.000	-0.021	0.292
-149.604	214.453	0.145	0.230
-148.589	66.890	-0.087	-0.088
-147.574	-108.945	-0.078	-0.017
-146.560	-75.032	0.383	-0.137
-145.545	-86.737	0.399	-0.122
-144.531	-70.126	0.148	0.056
-143.516	-200.000	0.003	-0.062
-142.502	-27.822	0.137	-0.080
-141.487	52.405	0.352	-0.336
-140.472	-200.000	-0.019	-0.395
-139.458	800.000	0.136	0.400
-138.443	-200.000	-0.012	-0.295
-137.429	104.446	0.128	-0.151
-136.414	800.000	0.054	-0.234
-135.399	800.000	-0.038	-0.110
-134.385	-93.639	-0.092	0.025
-133.370	782.658	-0.110	-0.300
-132.356	114.715	0.006	0.007
-131.341	-200.000	-0.060	0.352
-130.326	95.958	-0.168	-0.191
-129.312	-137.264	-0.257	-0.029
-128.297	-47.405	-0.250	-0.121
-127.283	-200.000	0.004	0.187
-126.268	-200.000	-0.014	0.064
-125.253	-170.110	0.258	0.009
-124.239	-200.000	0.048	0.244
-123.224	800.000	-0.034	0.124
-122.210	-37.457	-0.145	0.078
-121.195	-30.990	0.194	0.109
-120.180	-49.268	-0.133	0.064
-119.166	800.000	0.089	-0.295
-118.151	-80.091	-0.302	-0.101
-117.137	-150.193	-0.139	-0.011
-116.122	255.780	-0.045	-0.077
-115.107	-200.000	-0.071	0.312
-114.093	-29.116	-0.174	0.100
-113.078	800.000	0.034	0.124
-112.064	-173.888	-0.258	-0.008
-111.049	69.137	0.135	0.139
-110.034	800.000	0.060	-0.217
-109.020	-137.987	0.382	-0.043
-108.005	105.369	-0.110	0.130
-106.991	-61.075	0.152	-0.064
-105.976	146.410	-0.085	-0.114
-104.962	-72.074	-0.186	0.069
-103.947	94.656	-0.165	-0.187
-102.932	455.889	-0.046	0.101
-101.918	-200.000	-0.023	-0.402
-100.903	195.020	-0.082	0.124
-99.889	-66.935	-0.123	-0.048
-98.874	-104.792	0.344	-0.079
-97.859	512.972	0.052	-0.121
-96.845	-59.885	-0.047	0.020
-95.830	99.311	-0.174	-0.201
-94.816	-25.914	-0.265	0.156
-93.801	-200.000	0.016	0.332
-92.786	11.597	-0.228	0.175
-91.772	-200.000	-0.032	-0.151
-90.757	688.964	0.030	-0.078
-89.743	-5.326	0.181	0.124
-88.728	-200.000	0.076	-0.432
-87.713	-45.065	-0.302	-0.150
-86.699	-200.000	0.047	0.355
-85.684	-88.977	-0.170	0.050
-84.670	-200.000	0.047	0.486
-83.655	30.353	0.163	-0.139
-82.640	74.844	0.247	0.259
-81.626	-125.918	0.143	0.021
-80.611	-200.000	0.085	0.488
-79.597	630.851	0.096	-0.242
-78.582	46.527	0.068	-0.063
-77.567	47.279	-0.172	-0.159
-76.553	213.234	-0.133	-0.209
-75.538	-122.207	-0.307	0.050
-74.524	101.841	0.329	0.382
-73.509	14.966	-0.146	-0.114
-72.494	546.620	0.154	0.366
-71.480	-142.381	0.187	0.018
-70.465	-5.429	-0.039	0.027
-69.451	800.000	0.054	-0.230
-68.436	-52.151	-0.186	-0.086
-67.422	-200.000	-0.001	-0.333
-66.407	-21.287	0.072	0.044
-65.392	-200.000	-0.036	-0.228
-64.378	800.000	-0.041	-0.130
-63.363	-37.601	-0.061	0.033
-62.349	-200.000	0.012	-0.077
-61.334	56.084	-0.783	-0.758
-60.319	-73.483	0.405	0.147
-59.305	800.000	-0.195	-0.773
-58.290	9.650	0.475	0.359
-57.276	707.392	0.583	1.536
-56.261	-200.000	83.295	500.717
-55.246	527.229	1387.343	3258.067
-54.232	181.339	2609.387	3822.789
-53.217	117.505	2261.447	2771.597
-52.203	47.569	1785.288	1658.606
-51.188	40.952	1590.831	1430.494
-50.173	38.622	1563.331	1389.209
-49.159	54.671	1605.104	1541.850
-48.144	58.706	1624.616	1589.523
-47.130	41.641	1585.305	1430.231
-46.115	38.268	1570.997	1393.279
-45.100	38.100	1567.455	1388.884
-44.086	38.082	1565.024	1386.549
-43.071	38.017	1563.100	1384.330
-42.057	37.868	1561.671	1381.948
-41.042	37.926	1560.138	1380.951
-40.027	37.996	1558.801	1380.210
-39.013	37.802	1557.487	1377.614
-37.998	37.958	1555.279	1376.710
-36.984	37.820	1554.644	1375.118
-35.969	37.975	1553.424	1375.083
-34.954	37.962	1551.965	1373.640
-33.940	38.004	1549.765	1371.935
-32.925	37.975	1548.890	1370.900
-31.911	38.007	1547.800	1370.106
-30.896	37.997	1546.261	1368.621
-29.881	37.985	1545.308	1367.636
-28.867	38.119	1543.292	1366.735
-27.852	38.046	1542.089	1365.110
-26.838	37.966	1540.547	1363.131
-25.823	38.064	1538.562	1362.002
-24.809	38.104	1536.786	1360.652
-23.794	38.004	1535.984	1359.195
-22.779	37.967	1535.059	1358.064
-21.765	38.029	1533.497	1357.058
-20.750	37.991	1532.186	1355.586
-19.736	37.974	1531.295	1354.625
-18.721	37.948	1530.235	1353.449
-17.706	37.986	1528.609	1352.219
-16.692	37.907	1527.439	1350.584
-15.677	37.936	1526.584	1349.979
-14.663	37.966	1525.342	1349.033
-13.648	37.879	1524.684	1347.800
-12.633	37.976	1523.084	1346.997
-11.619	37.946	1522.487	1346.210
-10.604	37.925	1520.997	1344.690
-9.590	37.912	1520.361	1343.991
-8.575	37.867	1519.944	1343.255
-7.560	37.875	1518.888	1342.329
-6.546	37.844	1518.003	1341.275
-5.531	37.934	1516.533	1340.546
-4.517	37.902	1515.894	1339.706
-3.502	37.899	1515.031	1338.866
-2.487	37.800	1514.412	1337.588
-1.473	37.846	1512.808	1336.434
-0.458	37.999	1510.976	1335.811
0.556	36.691	1502.350	1326.982
1.571	34.249	1474.945	1286.195
2.586	30.744	1409.677	1206.500
3.600	28.659	1322.559	1119.141
4.615	26.786	1273.723	1066.712
5.629	23.122	1215.631	997.354
6.644	13.854	1125.734	874.896
7.659	6.282	1081.346	801.862
8.673	5.127	1074.831	791.106
9.688	4.770	1072.225	787.316
10.702	4.735	1070.435	785.755
11.717	4.918	1068.867	785.456
12.731	8.028	1072.286	803.606
13.746	16.335	1084.112	854.593
14.761	20.370	1088.393	878.352
15.775	18.672	1085.194	867.117
16.790	17.225	1081.995	857.195
17.804	16.081	1079.973	849.751
18.819	15.151	1077.951	843.402
19.834	14.636	1076.838	839.866
20.848	14.325	1075.465	837.159
21.863	14.174	1074.210	835.349
22.877	13.975	1073.493	833.721
23.892	13.794	1072.751	832.164
24.907	13.605	1072.160	830.682
25.921	13.622	1071.546	830.218
26.936	13.689	1070.860	829.953
27.950	13.722	1069.651	829.106
28.965	13.792	1068.193	828.250
29.980	13.810	1067.398	827.652
30.994	13.930	1065.873	826.991
32.009	13.933	1064.874	826.157
33.023	13.887	1064.333	825.439
34.038	13.894	1063.495	824.747
35.053	13.869	1062.558	823.827
36.067	13.869	1061.220	822.717
37.082	13.819	1060.433	821.785
38.096	13.771	1059.830	821.008
39.111	13.864	1059.680	821.277
40.126	13.914	1058.431	820.487
41.140	13.820	1056.946	818.795
42.155	13.637	1055.863	816.984
43.169	13.559	1054.957	815.825
44.184	13.431	1054.250	814.576
45.199	13.515	1052.702	813.721
46.213	13.552	1052.066	813.341
47.228	13.503	1051.231	812.381
48.242	13.735	1049.792	812.334
49.257	13.686	1049.268	811.619
50.271	13.742	1047.827	810.708
51.286	13.736	1047.170	810.095
52.301	13.650	1046.555	809.128
53.315	13.804	1045.258	808.806
54.330	13.771	1044.792	808.214
55.344	13.611	1044.179	806.886
56.359	13.656	1042.568	805.789
57.374	13.592	1041.834	804.840
58.388	13.585	1041.078	804.152
59.403	13.611	1040.027	803.394
60.417	13.538	1039.523	802.579
61.432	13.637	1038.611	802.287
62.447	13.496	1037.687	800.820
63.461	13.379	1037.013	799.659
64.476	13.492	1036.407	799.668
65.490	13.403	1035.682	798.611
66.505	13.562	1034.213	798.172
67.520	13.480	1033.580	797.220
68.534	13.509	1032.503	796.455
69.549	13.556	1031.859	796.116
70.563	13.525	1031.315	795.476
71.578	13.543	1030.341	794.741
72.593	13.446	1029.343	793.437
73.607	13.307	1028.929	792.378
74.622	13.313	1028.035	791.651
75.636	13.345	1027.021	790.951
76.651	13.390	1025.926	790.253
77.666	13.388	1025.498	789.844
78.680	13.364	1024.442	788.849
79.695	13.344	1024.354	788.616
80.709	13.574	1023.282	788.816
81.724	13.499	1022.588	787.851
82.739	13.428	1022.105	787.073
83.753	13.504	1021.367	786.796
84.768	13.616	1020.315	786.450
85.782	13.762	1019.589	786.513
86.797	13.960	1018.484	786.529
87.812	13.766	1018.359	785.443
88.826	13.741	1016.731	783.997
89.841	13.737	1016.163	783.471
90.855	13.782	1015.911	783.423
91.870	13.832	1014.837	782.758
92.884	13.821	1014.630	782.482
93.899	13.789	1013.801	781.620
94.914	13.839	1012.670	780.916
95.928	13.813	1011.938	780.157
96.943	13.888	1011.372	780.006
97.957	13.877	1010.567	779.265
98.972	13.777	1009.969	778.264
99.987	13.801	1009.235	777.741
101.001	13.917	1007.726	777.053
102.016	13.824	1006.995	775.988
103.030	13.840	1006.111	775.310
104.045	13.894	1005.201	774.796
105.060	13.808	1004.298	773.629
106.074	13.803	1003.267	772.742
107.089	13.658	1002.647	771.524
108.103	13.554	1001.872	770.373
109.118	13.555	1000.761	769.458
110.133	13.528	999.848	768.561
111.147	13.553	998.977	767.937
112.162	13.522	997.898	766.899
113.176	13.532	997.227	766.360
114.191	13.540	996.377	765.676
115.206	13.750	995.312	765.761
116.220	13.661	994.354	764.544
117.235	13.718	993.798	764.312
118.249	13.639	993.053	763.307
119.264	13.497	992.414	762.093
120.279	13.487	991.503	761.285
121.293	13.537	990.284	760.510
122.308	13.636	989.793	760.521
123.322	13.488	988.973	759.142
124.337	13.465	988.038	758.252
125.352	13.529	986.402	757.225
126.366	13.501	985.849	756.602
127.381	13.643	984.137	755.870
128.395	13.436	984.025	754.774
129.410	13.523	982.892	754.233
130.424	13.570	982.083	753.761
131.439	13.461	981.364	752.647
132.454	13.702	979.959	752.596
133.468	13.747	979.518	752.394
134.483	13.804	978.603	751.885
135.497	13.686	977.983	750.809
136.512	13.645	977.371	750.083
137.527	13.655	976.560	749.443
138.541	13.829	975.527	749.367
139.556	13.583	975.166	747.915
140.570	13.817	974.123	748.102
141.585	13.656	973.473	746.814
142.600	13.824	972.514	746.767
143.614	13.905	971.716	746.450
144.629	13.887	971.276	745.968
145.643	13.899	970.672	745.489
146.658	13.972	969.634	744.956
147.673	13.908	968.543	743.764
148.687	13.768	968.071	742.709
149.702	13.743	966.893	741.630
150.716	13.652	966.024	740.490
151.731	13.688	965.034	739.827
152.746	13.680	964.760	739.515
153.760	13.756	963.722	738.993
154.775	13.765	962.810	738.265
155.789	13.769	962.324	737.849
156.804	13.842	961.206	737.247
157.819	13.930	960.283	736.866
158.833	13.863	959.868	736.187
159.848	13.779	959.878	735.757
160.862	13.983	958.936	735.871
161.877	13.915	957.835	734.660
162.892	13.838	957.007	733.619
163.906	13.670	956.346	732.309
164.921	13.723	955.229	731.622
165.935	13.776	954.287	731.067
166.950	13.788	953.045	730.107
167.964	13.810	952.317	729.580
168.979	13.878	951.270	729.010
169.994	13.755	950.614	727.904
171.008	13.853	949.635	727.521
172.023	13.872	948.660	726.791
173.037	13.903	948.259	726.557
174.052	13.970	947.419	726.140
175.067	13.879	947.070	725.409
176.081	13.888	945.920	724.505
177.096	13.871	945.009	723.672
178.110	13.818	944.227	722.776
179.125	13.780	943.893	722.290
180.140	13.856	942.718	721.660
181.154	13.927	942.118	721.442
182.169	13.994	941.441	721.151
183.183	13.995	940.898	720.676
184.198	14.124	940.044	720.518
185.213	14.064	939.589	719.847
186.227	14.024	938.742	718.958
187.242	13.993	938.511	718.587
188.256	14.230	937.518	718.785
189.271	14.228	937.194	718.464
190.286	14.172	936.248	717.433
191.300	14.074	935.121	716.085
192.315	13.961	934.495	715.057
193.329	13.745	933.971	713.665
194.344	13.779	933.185	713.145
195.359	13.953	932.799	713.533
196.373	13.930	932.322	713.010
197.388	14.095	931.468	713.000
198.402	14.161	931.065	712.909
199.417	14.301	930.406	712.940
200.432	14.452	930.224	713.385
201.446	14.344	929.986	712.678
202.461	14.537	929.113	712.769
203.475	14.429	929.266	712.362
204.490	14.342	927.974	710.939
205.504	14.304	927.250	710.159
206.519	14.358	926.300	709.599
207.534	14.334	925.426	708.764
208.548	14.376	924.938	708.508
209.563	14.286	924.605	707.808
210.577	14.328	923.388	706.992
211.592	14.390	922.895	706.815
212.607	14.490	922.175	706.625
213.621	14.438	921.886	706.121
214.636	14.462	921.389	705.780
215.650	14.430	920.604	704.976
216.665	14.447	920.042	704.557
217.680	14.443	919.572	704.117
218.694	14.706	918.671	704.475
219.709	14.612	918.262	703.705
220.723	14.565	917.536	702.887
221.738	14.495	917.107	702.200
222.753	14.545	915.907	701.430
223.767	14.521	915.301	700.802
224.782	14.539	914.953	700.550
225.796	14.679	913.718	700.131
226.811	14.934	912.779	700.418
227.826	14.649	912.271	698.771
228.840	14.774	911.591	698.711
229.855	14.616	911.142	697.644
230.869	14.603	910.282	696.870
231.884	14.576	909.958	696.451
232.899	14.611	909.303	696.032
233.913	14.543	908.571	695.126
234.928	14.671	907.253	694.591
235.942	14.546	907.160	693.937
236.957	14.451	906.229	692.767
237.972	14.567	905.488	692.622
238.986	14.586	905.129	692.363
240.001	14.595	904.455	691.824
241.015	14.509	903.510	690.685
242.030	14.608	902.875	690.550
243.045	14.772	902.097	690.571
244.059	14.659	901.750	689.776
245.074	14.685	901.231	689.427
246.088	14.748	900.280	688.898
247.103	14.816	899.939	688.855
248.117	14.893	899.217	688.560
249.132	14.910	898.488	688.010
250.147	14.934	898.420	687.994
251.161	15.170	897.585	688.266
252.176	15.106	897.093	687.563
253.190	15.125	896.163	686.869
254.205	15.296	895.378	686.906
255.220	15.159	895.402	686.305
256.234	15.308	894.413	686.096
257.249	15.344	893.333	685.352
258.263	15.153	893.422	684.580
259.278	15.212	892.804	684.286
260.293	15.281	892.152	684.007
261.307	15.360	891.409	683.701
262.322	15.453	891.129	683.803
263.336	15.359	890.313	682.734
264.351	15.257	890.110	682.103
265.366	15.343	889.149	681.656
266.380	15.478	888.499	681.647
267.395	15.347	887.835	680.545
268.409	15.263	887.224	679.674
269.424	15.447	886.121	679.516
270.439	15.294	885.454	678.326
271.453	15.366	884.801	678.056
272.468	15.333	884.417	677.565
273.482	15.379	883.545	677.026
274.497	15.340	882.954	676.356
275.512	15.344	882.301	675.812
276.526	15.215	881.306	674.469
277.541	15.353	880.608	674.429
278.555	15.263	880.361	673.819
279.570	15.494	879.601	674.105
280.585	15.541	879.104	673.855
281.599	15.509	878.507	673.210
282.614	15.558	877.651	672.689
283.628	15.554	877.139	672.222
284.643	15.565	876.760	671.917
285.657	15.415	876.450	671.018
286.672	15.595	875.615	671.039
287.687	15.506	875.027	670.173
288.701	15.572	874.884	670.268
289.716	15.652	873.877	669.754
290.730	15.585	873.773	669.349
291.745	15.505	873.016	668.394
292.760	15.639	872.051	668.128
293.774	15.742	871.038	667.702
294.789	15.812	870.556	667.552
295.803	15.626	870.487	666.699
296.818	15.631	869.529	665.929
297.833	15.576	869.154	665.366
298.847	15.632	868.492	665.021
299.862	15.581	867.831	664.254
300.876	15.778	866.949	664.298
301.891	15.806	866.169	663.749
302.906	15.905	865.448	663.529
303.920	15.876	865.106	663.096
304.935	16.071	864.123	663.051
305.949	16.059	863.558	662.509
306.964	16.034	863.252	662.121
307.979	16.047	862.516	661.547
308.993	15.944	862.252	660.880
310.008	16.072	861.363	660.645
311.022	16.030	860.775	659.970
312.037	16.015	860.338	659.517
313.052	15.937	859.726	658.686
314.066	15.908	859.094	658.028
315.081	15.871	858.500	657.374
316.095	15.780	858.167	656.705
317.110	15.960	857.290	656.676
318.125	15.942	856.829	656.193
319.139	15.976	855.953	655.599
320.154	16.033	855.609	655.500
321.168	16.024	855.430	655.268
322.183	16.059	855.278	655.230
323.197	16.019	854.371	654.319
324.212	16.157	853.907	654.445
325.227	16.040	853.161	653.361
326.241	16.144	852.487	653.187
327.256	15.984	852.116	652.229
328.270	15.972	851.643	651.763
329.285	16.166	850.599	651.653
330.300	16.059	850.090	650.794
331.314	16.071	849.586	650.395
332.329	16.098	848.685	649.752
333.343	16.229	848.183	649.816
334.358	16.178	847.847	649.306
335.373	16.359	847.124	649.389
336.387	16.200	846.666	648.369
337.402	16.223	846.322	648.139
338.416	16.224	845.987	647.829
339.431	16.381	845.183	647.758
340.446	16.507	844.198	647.427
341.460	16.385	843.879	646.656
342.475	16.390	843.629	646.429
343.489	16.518	842.905	646.305
344.504	16.464	842.433	645.678
345.519	16.495	842.107	645.492
346.533	16.668	841.164	645.373
347.548	16.672	840.923	645.144
348.562	16.551	840.634	644.406
349.577	16.376	840.127	643.294
350.592	16.460	839.078	642.754
351.606	16.415	838.724	642.253
352.621	16.390	838.031	641.569
353.635	16.438	837.875	641.576
354.650	16.419	837.358	641.051
355.665	16.409	837.207	640.844
356.679	16.499	836.553	640.627
357.694	16.532	835.942	640.227
358.708	16.662	835.185	640.082
359.723	16.669	834.909	639.840
360.738	16.619	834.091	638.966
361.752	16.615	833.592	638.513
362.767	16.732	833.096	638.518
363.781	16.651	832.686	637.841
364.796	16.725	832.469	637.898
365.810	16.779	832.200	637.841
366.825	16.810	831.776	637.572
367.840	16.945	831.326	637.681
368.854	16.791	831.357	637.068
369.869	16.766	830.800	636.493
370.883	16.926	829.987	636.412
371.898	16.980	829.306	636.038
372.913	16.916	828.338	634.998
373.927	16.913	827.983	634.661
374.942	16.896	827.650	634.285
375.956	16.881	826.947	633.633
376.971	17.075	825.888	633.488
377.986	17.037	825.701	633.148
379.000	16.976	825.678	632.846
380.015	17.143	824.475	632.489
381.029	16.981	824.146	631.579
382.044	17.165	823.482	631.698
383.059	17.107	822.888	630.971
384.073	16.984	822.716	630.327
385.088	17.206	821.879	630.454
386.102	17.114	821.351	629.654
387.117	17.019	820.582	628.656
388.132	16.905	820.383	628.025
389.146	17.128	819.747	628.307
390.161	17.170	819.218	628.003
391.175	17.092	819.410	627.804
392.190	17.100	818.887	627.379
393.205	17.179	818.415	627.252
394.219	17.067	817.895	626.384
395.234	17.122	817.011	625.854
396.248	17.183	816.734	625.813
397.263	17.050	816.268	624.912
398.278	16.993	815.656	624.178
399.292	17.140	815.222	624.332
400.307	17.088	815.113	624.000
401.321	17.130	814.276	623.459
402.336	17.113	814.005	623.134
403.350	17.180	813.727	623.112
404.365	17.248	813.193	622.898
405.380	17.226	812.942	622.568
406.394	17.311	812.177	622.238
407.409	17.259	812.235	622.039
408.423	17.441	811.425	622.030
409.438	17.519	811.008	621.940
410.453	17.447	810.748	621.420
411.467	17.444	810.242	620.967
412.482	17.494	809.680	620.666
413.496	17.621	809.252	620.744
414.511	17.686	809.069	620.786
415.526	17.560	808.425	619.776
416.540	17.668	808.114	619.876
417.555	17.591	807.579	619.131
418.569	17.568	807.293	618.775
419.584	17.578	806.629	618.249
420.599	17.589	806.241	617.935
421.613	147.856	1366.127	1775.337
422.628	128.164	1447.725	1775.499
