DTS Sentinel unit serial number:	SN413079Multiplexer serial number:	ORYXHardware model number:	OX4-SRSoftware version number:	ORYX F/W v4.00 Oryx Data Collector v3.7.2.0data status	okinstallation	princeton_trtdifferential loss correction	single-endedforward channel	channel 3reverse channel	N/Adate	2019/09/18time	03:00:35forward acquisition time	60.00reverse acquisition time	0.00gamma	496.2192k internal	0.2344k external	0.2344temperature offset calibration	0.9948default loss term (dB/km)	0.3790temperature slope calibration	1.0000multiplexer offset coefficient	1.0000multiplexer slope coefficient	1.0000fibre end	0.00T internal ref (°C)	22.75T ext. ref 1 (°C)	0.17T ext. ref 2 (°C)	16.76length (m)	temperature (°C)	Stokes	anti-Stokes-747.200	43.339	-0.297	-0.272
-746.185	171.501	-0.164	0.235
-745.171	378.657	-0.092	-0.189
-744.156	22.574	-0.092	-0.075
-743.142	-144.559	0.091	-0.008
-742.127	287.679	0.205	0.371
-741.112	-179.590	0.285	-0.006
-740.098	377.194	-0.157	0.321
-739.083	-73.720	-0.114	-0.042
-738.069	22.752	0.239	0.196
-737.054	-200.000	0.000	-0.132
-736.039	-121.180	-0.220	0.037
-735.025	582.266	-0.071	0.174
-734.010	-200.000	-0.021	-0.281
-732.996	-63.300	-0.478	0.197
-731.981	-161.063	-0.189	-0.010
-730.966	-9.102	-0.069	0.046
-729.952	120.315	-0.070	-0.086
-728.937	112.669	-0.177	-0.214
-727.923	-200.000	-0.034	0.213
-726.908	-118.591	-0.247	-0.044
-725.894	-125.669	-0.072	-0.011
-724.879	800.000	-0.040	0.141
-723.864	236.781	0.076	0.126
-722.850	800.000	-0.056	-0.219
-721.835	-140.693	-0.278	-0.029
-720.821	-80.118	0.057	0.019
-719.806	-107.384	0.141	0.031
-718.791	100.711	-0.136	-0.158
-717.777	-200.000	0.032	-0.248
-716.762	800.000	0.045	-0.174
-715.748	-200.000	0.022	-0.327
-714.733	100.974	-0.075	-0.087
-713.718	-112.038	0.154	0.031
-712.704	78.892	-0.238	0.254
-711.689	145.126	0.195	-0.260
-710.675	-200.000	0.002	-0.030
-709.660	-74.985	0.283	0.101
-708.645	-200.000	0.002	-0.086
-707.631	-110.881	0.217	0.045
-706.616	-179.469	0.134	-0.003
-705.602	468.642	-0.155	0.347
-704.587	-10.142	0.265	-0.176
-703.572	251.521	0.120	-0.204
-702.558	64.350	-0.269	-0.271
-701.543	-40.252	0.270	-0.140
-700.529	-74.556	-0.193	-0.069
-699.514	99.941	0.314	0.364
-698.499	173.910	0.097	0.140
-697.485	197.890	0.034	0.052
-696.470	-112.091	-0.365	-0.073
-695.456	-153.609	0.111	-0.008
-694.441	800.000	0.100	-0.338
-693.426	-200.000	-0.084	-0.469
-692.412	488.605	-0.080	-0.182
-691.397	-63.966	0.077	0.031
-690.383	170.067	-0.182	0.260
-689.368	-143.846	-0.267	-0.025
-688.354	-68.410	0.524	0.203
-687.339	123.581	0.130	-0.163
-686.324	-166.492	-0.061	0.003
-685.310	360.266	0.088	0.176
-684.295	-176.637	-0.129	0.003
-683.281	-200.000	0.064	-0.346
-682.266	800.000	0.095	0.325
-681.251	-109.043	-0.200	-0.043
-680.237	-200.000	0.026	-0.200
-679.222	800.000	0.046	0.177
-678.208	-96.470	-0.154	-0.041
-677.193	-150.402	-0.384	-0.029
-676.178	-113.825	-0.098	-0.019
-675.164	125.129	0.124	-0.156
-674.149	800.000	-0.082	-0.281
-673.135	-200.000	-0.034	0.172
-672.120	800.000	0.056	-0.169
-671.105	-47.541	-0.400	0.194
-670.091	300.684	-0.085	-0.157
-669.076	123.536	0.048	-0.060
-668.062	-50.077	0.218	0.103
-667.047	-44.851	0.133	0.066
-666.032	-94.687	0.143	0.039
-665.018	298.738	-0.124	-0.227
-664.003	-200.000	-0.045	-0.626
-662.989	-51.805	0.196	0.091
-661.974	727.993	-0.088	-0.235
-660.959	-98.006	0.116	0.030
-659.945	28.639	0.161	-0.136
-658.930	-84.089	-0.487	-0.154
-657.916	615.717	0.098	0.244
-656.901	49.175	0.275	0.258
-655.886	55.289	0.153	-0.148
-654.872	44.733	0.031	0.028
-653.857	-200.000	0.006	0.056
-652.843	474.162	0.091	0.204
-651.828	-132.777	0.489	-0.062
-650.814	70.672	-0.127	0.131
-649.799	21.067	-0.190	0.154
-648.784	701.425	0.045	0.119
-647.770	-151.146	-0.395	0.030
-646.755	197.930	0.149	-0.227
-645.741	94.125	0.069	0.078
-644.726	482.182	-0.012	0.028
-643.711	67.187	0.175	-0.178
-642.697	-200.000	0.026	-0.182
-641.682	-200.000	-0.011	-0.124
-640.668	170.829	0.176	-0.251
-639.653	-3.192	-0.379	0.263
-638.638	72.551	-0.227	-0.236
-637.624	-126.854	-0.158	-0.023
-636.609	59.119	0.071	0.069
-635.595	-30.850	-0.137	-0.077
-634.580	40.406	-0.148	-0.133
-633.565	4.118	-0.123	-0.090
-632.551	466.485	-0.064	-0.143
-631.536	292.650	-0.283	-0.513
-630.522	224.365	-0.072	0.116
-629.507	-200.000	-0.056	0.418
-628.492	-0.423	0.041	0.029
-627.478	800.000	0.141	-0.440
-626.463	241.395	0.015	0.025
-625.449	310.396	0.139	-0.258
-624.434	-64.597	-0.319	-0.129
-623.419	168.536	0.022	0.031
-622.405	-58.867	0.434	-0.187
-621.390	-200.000	0.023	0.126
-620.376	-27.030	0.150	-0.087
-619.361	524.349	-0.131	0.306
-618.346	-65.289	-0.393	-0.157
-617.332	19.310	0.290	-0.232
-616.317	121.714	-0.150	-0.186
-615.303	-88.016	-0.042	0.012
-614.288	-25.886	-0.187	0.110
-613.273	2.718	-0.082	0.059
-612.259	800.000	0.094	0.289
-611.244	-200.000	0.061	0.272
-610.230	725.378	-0.016	-0.043
-609.215	-175.819	0.205	-0.005
-608.201	-78.648	-0.307	-0.104
-607.186	-156.957	0.233	-0.014
-606.171	-54.476	-0.189	-0.085
-605.157	326.165	-0.053	0.101
-604.142	-70.953	0.214	-0.080
-603.128	13.874	-0.195	-0.151
-602.113	-63.933	0.198	0.081
-601.098	-9.229	-0.187	0.125
-600.084	146.742	0.058	0.078
-599.069	-200.000	-0.012	-0.136
-598.055	-200.000	-0.005	-0.244
-597.040	-145.622	-0.421	-0.038
-596.025	800.000	0.002	0.009
-595.011	-61.297	-0.159	0.067
-593.996	-200.000	-0.056	0.277
-592.982	175.935	0.057	0.082
-591.967	243.212	0.105	-0.175
-590.952	547.953	0.124	-0.294
-589.938	800.000	0.023	-0.088
-588.923	156.313	0.008	-0.011
-587.909	-146.824	0.399	-0.034
-586.894	-200.000	-0.017	0.159
-585.879	-24.982	-0.177	-0.104
-584.865	74.910	-0.199	-0.208
-583.850	-109.782	-0.208	0.044
-582.836	-10.159	0.278	0.184
-581.821	441.765	0.072	0.156
-580.806	-69.094	-0.153	0.058
-579.792	114.212	-0.199	-0.240
-578.777	-25.005	0.130	0.076
-577.763	16.110	0.170	-0.133
-576.748	-200.000	0.021	0.158
-575.733	-197.337	0.202	-0.001
-574.719	196.120	-0.051	0.077
-573.704	-88.840	-0.364	-0.107
-572.690	-200.000	0.003	-0.072
-571.675	-200.000	0.002	0.176
-570.661	800.000	-0.132	0.471
-569.646	209.804	-0.054	0.085
-568.631	-200.000	-0.020	0.136
-567.617	29.190	-0.068	-0.058
-566.602	263.254	0.220	0.379
-565.588	-43.476	0.169	0.085
-564.573	800.000	-0.085	0.286
-563.558	189.732	-0.194	-0.289
-562.544	284.439	0.163	0.292
-561.529	-8.408	-0.417	-0.278
-560.515	88.904	-0.139	0.153
-559.500	-19.188	-0.076	0.047
-558.485	-157.226	-0.133	0.008
-557.471	568.092	0.066	0.160
-556.456	-37.222	0.105	-0.056
-555.442	-200.000	0.050	-0.233
-554.427	503.051	0.108	-0.248
-553.412	-151.345	-0.282	0.021
-552.398	-29.393	-0.376	-0.214
-551.383	-103.942	0.036	0.008
-550.369	61.843	-0.190	-0.188
-549.354	689.533	0.047	-0.123
-548.339	412.788	-0.090	-0.189
-547.325	-6.826	-0.214	-0.145
-546.310	-83.170	0.219	0.070
-545.296	385.542	0.130	-0.266
-544.281	-59.954	-0.082	0.035
-543.266	-61.511	0.198	0.082
-542.252	-80.750	-0.276	0.091
-541.237	-200.000	0.016	0.098
-540.223	582.135	0.039	-0.095
-539.208	-132.700	-0.120	0.015
-538.193	18.663	0.181	0.144
-537.179	-200.000	-0.039	0.236
-536.164	-200.000	0.062	-0.362
-535.150	-50.441	0.129	-0.060
-534.135	310.995	-0.053	-0.099
-533.121	800.000	-0.087	-0.241
-532.106	-57.256	-0.151	0.066
-531.091	291.406	-0.142	-0.257
-530.077	197.419	-0.137	-0.207
-529.062	483.641	-0.104	0.236
-528.048	241.879	0.091	0.151
-527.033	-54.892	-0.162	0.072
-526.018	-149.178	-0.276	-0.022
-525.004	-200.000	0.020	-0.184
-523.989	343.624	-0.066	0.129
-522.975	-12.710	0.059	-0.038
-521.960	-200.000	0.013	0.134
-520.945	-200.000	0.001	-0.149
-519.931	288.555	0.140	-0.252
-518.916	-122.277	0.075	0.012
-517.902	-200.000	0.064	0.292
-516.887	23.185	0.115	-0.094
-515.872	21.658	-0.133	0.107
-514.858	-200.000	0.013	0.086
-513.843	800.000	0.104	0.304
-512.829	-63.484	-0.059	-0.024
-511.814	238.200	0.057	0.093
-510.799	-52.269	0.228	-0.105
-509.785	-81.676	-0.232	-0.075
-508.770	179.607	-0.179	-0.260
-507.756	46.500	-0.236	0.217
-506.741	-185.463	-0.406	0.006
-505.726	-99.377	0.283	0.071
-504.712	234.550	-0.141	-0.230
-503.697	-200.000	0.047	-0.321
-502.683	-95.675	-0.151	-0.040
-501.668	-5.236	0.292	0.199
-500.653	800.000	-0.079	0.226
-499.639	-164.014	0.377	-0.017
-498.624	-16.473	0.134	-0.084
-497.610	-57.645	-0.173	-0.075
-496.595	154.332	0.219	-0.297
-495.581	-167.086	-0.205	-0.008
-494.566	693.730	0.027	-0.070
-493.551	-98.382	0.200	-0.051
-492.537	244.899	0.129	-0.215
-491.522	181.740	-0.230	-0.336
-490.508	-41.032	0.045	0.023
-489.493	-181.116	0.039	0.001
-488.478	775.230	-0.032	0.088
-487.464	-200.000	0.027	-0.226
-486.449	16.742	0.332	-0.260
-485.435	-9.333	-0.205	-0.136
-484.420	-200.000	-0.003	0.240
-483.405	-145.233	-0.430	0.039
-482.391	-48.018	0.017	0.008
-481.376	38.060	-0.212	-0.187
-480.362	-28.585	-0.147	0.084
-479.347	-159.285	0.331	-0.018
-478.332	-200.000	-0.004	-0.031
-477.318	223.595	-0.190	-0.304
-476.303	-121.234	0.224	-0.037
-475.289	800.000	-0.046	0.145
-474.274	172.448	-0.137	-0.195
-473.259	168.324	0.169	-0.238
-472.245	4.205	0.266	0.193
-471.230	381.880	-0.049	0.100
-470.216	14.929	0.058	0.045
-469.201	-200.000	0.278	-0.001
-468.186	34.864	-0.069	0.059
-467.172	-141.559	0.263	0.026
-466.157	-115.703	0.222	-0.041
-465.143	8.087	0.127	-0.094
-464.128	147.476	0.033	0.044
-463.113	16.938	-0.381	0.298
-462.099	-23.334	0.417	0.248
-461.084	-48.263	-0.147	-0.070
-460.070	-200.000	0.007	-0.120
-459.055	-86.451	-0.071	-0.021
-458.040	800.000	-0.030	-0.096
-457.026	-189.562	0.257	-0.003
-456.011	-36.844	-0.327	0.174
-454.997	124.026	0.264	-0.328
-453.982	423.900	-0.075	0.160
-452.968	173.782	0.149	0.213
-451.953	-200.000	0.068	-0.493
-450.938	206.091	0.045	0.069
-449.924	264.698	-0.031	-0.053
-448.909	-112.527	0.120	0.024
-447.895	108.183	0.204	-0.241
-446.880	279.194	0.045	0.079
-445.865	-122.360	-0.214	-0.035
-444.851	800.000	-0.103	0.307
-443.836	-20.013	-0.167	-0.102
-442.822	-200.000	-0.004	0.078
-441.807	419.142	-0.116	0.246
-440.792	-200.000	0.037	0.408
-439.778	800.000	0.042	-0.143
-438.763	211.860	-0.168	0.261
-437.749	33.653	0.181	0.156
-436.734	-200.000	-0.048	-0.310
-435.719	44.387	-0.105	0.095
-434.705	400.389	0.145	0.301
-433.690	557.930	-0.122	-0.292
-432.676	263.363	-0.156	-0.268
-431.661	-131.583	-0.128	0.017
-430.646	125.127	-0.072	0.090
-429.632	-154.474	-0.026	0.002
-428.617	-200.000	-0.028	0.297
-427.603	-66.294	0.163	-0.064
-426.588	-38.608	-0.285	0.149
-425.573	428.040	0.078	0.166
-424.559	800.000	-0.070	-0.284
-423.544	-6.199	0.346	-0.233
-422.530	26.967	0.395	0.328
-421.515	-200.000	0.016	0.095
-420.500	108.066	0.136	-0.160
-419.486	-99.677	0.060	-0.015
-418.471	-18.922	0.077	0.047
-417.457	134.494	-0.086	0.110
-416.442	-102.450	0.182	-0.043
-415.428	118.812	-0.045	0.055
-414.413	-78.541	0.052	-0.018
-413.398	-113.136	0.080	-0.016
-412.384	-5.805	0.073	-0.050
-411.369	-99.312	-0.216	0.054
-410.355	-200.000	-0.054	-0.264
-409.340	689.920	0.088	-0.227
-408.325	31.838	-0.328	0.279
-407.311	-85.456	-0.140	-0.043
-406.296	798.986	0.133	-0.363
-405.282	-200.000	-0.011	-0.255
-404.267	-70.997	-0.155	0.058
-403.252	-94.726	0.288	-0.077
-402.238	-3.756	0.037	0.026
-401.223	-17.559	0.126	0.078
-400.209	-31.947	0.199	-0.110
-399.194	64.164	0.027	0.027
-398.179	-142.552	-0.033	-0.003
-397.165	-100.990	0.237	-0.058
-396.150	-200.000	0.008	-0.097
-395.136	-136.730	-0.238	-0.027
-394.121	12.421	0.155	-0.118
-393.106	187.955	-0.110	-0.162
-392.092	113.446	-0.115	0.138
-391.077	-200.000	0.046	0.367
-390.063	73.125	0.110	0.114
-389.048	75.840	-0.285	-0.297
-388.033	548.355	0.142	0.336
-387.019	115.439	0.139	0.168
-386.004	-200.000	0.022	-0.165
-384.990	92.543	-0.204	0.227
-383.975	-44.135	0.299	0.148
-382.960	800.000	0.027	0.086
-381.946	84.375	-0.175	-0.189
-380.931	29.104	0.130	-0.109
-379.917	28.141	-0.056	-0.046
-378.902	-66.743	-0.205	0.080
-377.888	800.000	0.094	-0.314
-376.873	800.000	0.021	0.067
-375.858	-200.000	-0.009	-0.251
-374.844	-59.596	0.204	0.086
-373.829	-114.515	-0.315	0.060
-372.815	124.578	-0.236	0.293
-371.800	-200.000	0.014	0.488
-370.785	95.081	0.164	0.184
-369.771	800.000	0.090	-0.306
-368.756	-21.252	-0.207	0.125
-367.742	-155.168	0.171	0.011
-366.727	-126.028	-0.148	0.022
-365.712	-32.551	0.153	0.084
-364.698	-80.559	-0.212	-0.070
-363.683	180.894	-0.087	-0.126
-362.669	800.000	0.095	-0.308
-361.654	-82.744	0.366	0.117
-360.639	236.381	0.122	0.199
-359.625	-120.225	0.169	-0.028
-358.610	209.648	-0.275	0.424
-357.596	-84.167	-0.397	-0.124
-356.581	-145.611	0.317	-0.028
-355.566	-100.954	0.326	-0.079
-354.552	82.890	-0.122	0.131
-353.537	-96.243	0.378	0.099
-352.523	-54.035	0.116	0.052
-351.508	558.202	-0.123	0.293
-350.493	-172.863	0.365	0.011
-349.479	-143.087	-0.350	0.033
-348.464	-80.992	0.350	0.114
-347.450	93.919	0.137	-0.153
-346.435	-23.411	-0.032	0.019
-345.420	146.475	0.110	0.145
-344.406	-0.245	0.217	0.152
-343.391	-97.972	-0.227	-0.058
-342.377	77.158	0.199	-0.208
-341.362	800.000	0.023	-0.096
-340.348	-200.000	-0.013	0.076
-339.333	800.000	-0.128	-0.353
-338.318	-173.595	-0.405	-0.012
-337.304	34.441	-0.286	0.246
-336.289	46.930	-0.174	0.159
-335.275	63.301	-0.090	-0.089
-334.260	-42.755	0.141	-0.071
-333.245	-61.135	0.127	-0.053
-332.231	47.985	-0.163	-0.150
-331.216	-46.218	0.301	-0.146
-330.202	-200.000	0.014	-0.206
-329.187	333.309	-0.026	-0.050
-328.172	-52.414	-0.173	0.079
-327.158	-126.102	-0.406	-0.060
-326.143	-200.000	-0.057	-0.295
-325.129	-113.032	-0.040	-0.008
-324.114	-200.000	-0.016	-0.316
-323.099	138.344	0.061	0.079
-322.085	-144.778	-0.163	-0.015
-321.070	-173.814	0.235	0.007
-320.056	-119.330	0.247	0.042
-319.041	-181.526	-0.161	-0.003
-318.026	32.819	0.113	-0.097
-317.012	-200.000	0.041	0.275
-315.997	-116.974	0.315	0.057
-314.983	15.500	0.377	-0.292
-313.968	54.463	-0.042	-0.040
-312.953	118.231	-0.216	-0.262
-311.939	74.194	0.232	0.240
-310.924	-177.233	0.499	0.012
-309.910	-162.301	0.123	-0.006
-308.895	-35.672	0.335	0.179
-307.880	-117.796	-0.158	0.028
-306.866	68.733	-0.036	-0.036
-305.851	723.022	-0.087	-0.227
-304.837	152.979	0.178	-0.240
-303.822	-120.203	-0.211	-0.035
-302.807	-176.364	0.127	-0.003
-301.793	-12.804	-0.266	0.170
-300.778	375.533	0.160	-0.320
-299.764	314.589	-0.164	-0.304
-298.749	293.999	0.037	-0.067
-297.735	-135.687	-0.137	-0.016
-296.720	-33.164	-0.241	0.131
-295.705	212.215	0.174	0.269
-294.691	800.000	-0.097	-0.320
-293.676	249.287	0.201	0.336
-292.662	203.588	0.073	-0.111
-291.647	-71.695	-0.214	-0.079
-290.632	-200.000	-0.006	0.275
-289.618	56.251	-0.471	0.450
-288.603	-15.013	0.121	0.076
-287.589	109.777	0.066	0.078
-286.574	379.541	-0.031	-0.063
-285.559	-25.192	-0.064	-0.037
-284.545	80.357	0.135	0.142
-283.530	332.544	-0.086	0.164
-282.516	-108.070	-0.175	0.037
-281.501	-200.000	0.034	0.287
-280.486	-14.357	0.147	0.093
-279.472	-32.434	0.081	0.044
-278.457	-200.000	0.022	0.412
-277.443	40.970	0.095	-0.084
-276.428	-200.000	0.038	0.317
-275.413	-200.000	-0.013	0.338
-274.399	-94.041	-0.276	0.075
-273.384	800.000	-0.070	0.211
-272.370	-200.000	0.001	0.386
-271.355	284.484	0.142	0.251
-270.340	71.212	0.329	0.335
-269.326	453.567	-0.116	0.253
-268.311	110.649	-0.163	0.193
-267.297	-200.000	0.038	0.261
-266.282	-200.000	-0.001	-0.082
-265.267	68.296	0.215	-0.216
-264.253	-75.619	-0.108	-0.038
-263.238	310.595	-0.083	-0.153
-262.224	-84.012	-0.133	-0.042
-261.209	313.658	0.066	0.122
-260.195	43.578	0.309	0.278
-259.180	-200.000	-0.005	-0.125
-258.165	308.682	0.124	-0.228
-257.151	111.432	0.113	-0.134
-256.136	5.325	0.211	-0.153
-255.122	292.983	-0.106	0.189
-254.107	-121.743	-0.195	-0.032
-253.092	800.000	-0.075	0.285
-252.078	-200.000	0.100	-0.520
-251.063	-106.854	0.212	-0.046
-250.049	-112.634	-0.268	-0.052
-249.034	-48.248	0.162	0.077
-248.019	-97.264	-0.155	0.040
-247.005	-181.960	0.529	0.010
-245.990	800.000	-0.044	0.166
-244.976	549.863	-0.007	0.018
-243.961	535.487	-0.124	-0.289
-242.946	195.897	-0.174	0.260
-241.932	-200.000	0.001	-0.219
-240.917	344.669	0.033	-0.064
-239.903	800.000	0.026	0.112
-238.888	750.734	0.044	0.117
-237.873	-80.423	0.278	0.091
-236.859	-22.024	0.053	-0.032
-235.844	-200.000	-0.005	-0.376
-234.830	-38.850	-0.037	0.019
-233.815	-200.000	-0.002	-0.107
-232.800	800.000	-0.099	-0.354
-231.786	376.430	0.127	-0.255
-230.771	800.000	-0.031	0.109
-229.757	-44.177	-0.129	-0.064
-228.742	-116.497	0.229	0.041
-227.727	19.110	-0.245	-0.192
-226.713	-66.661	0.252	-0.098
-225.698	-140.660	-0.041	0.004
-224.684	194.286	-0.028	0.041
-223.669	5.873	0.172	0.125
-222.655	366.425	-0.088	0.173
-221.640	22.855	0.222	0.179
-220.625	367.327	-0.082	0.162
-219.611	-116.839	0.385	-0.069
-218.596	388.985	0.011	-0.022
-217.582	-97.857	-0.303	-0.077
-216.567	-200.000	-0.007	0.071
-215.552	-110.004	0.488	0.100
-214.538	-200.000	-0.002	0.072
-213.523	-200.000	0.065	-0.347
-212.509	45.709	0.136	-0.123
-211.494	276.915	-0.111	-0.193
-210.479	-24.087	0.239	0.140
-209.465	-122.853	-0.517	-0.082
-208.450	-200.000	0.085	-0.415
-207.436	-123.349	-0.196	-0.031
-206.421	170.186	0.233	0.327
-205.406	-28.436	-0.265	0.150
-204.392	362.931	-0.185	0.365
-203.377	-177.606	-0.244	0.006
-202.363	27.098	0.134	-0.110
-201.348	41.493	0.206	0.183
-200.333	-200.000	-0.005	0.209
-199.319	712.440	-0.034	0.088
-198.304	800.000	-0.074	-0.219
-197.290	-62.948	-0.250	0.101
-196.275	800.000	0.079	-0.241
-195.260	154.289	0.061	-0.082
-194.246	190.970	0.075	0.110
-193.231	-200.000	0.037	0.390
-192.217	-62.983	-0.100	-0.040
-191.202	160.136	0.144	0.196
-190.187	-200.000	0.052	0.375
-189.173	265.369	-0.139	-0.237
-188.158	800.000	-0.133	-0.385
-187.144	-169.312	-0.419	-0.015
-186.129	-200.000	0.007	0.403
-185.114	800.000	-0.103	0.313
-184.100	167.547	0.127	0.177
-183.085	-133.618	0.246	-0.030
-182.071	21.088	0.161	-0.128
-181.056	800.000	0.027	0.109
-180.042	-60.924	0.107	-0.044
-179.027	800.000	-0.060	-0.178
-178.012	83.339	0.152	0.162
-176.998	583.031	-0.110	0.264
-175.983	59.970	0.202	-0.195
-174.969	-58.492	0.131	0.056
-173.954	131.007	-0.110	0.138
-172.939	80.336	-0.137	-0.145
-171.925	-200.000	0.016	0.290
-170.910	492.153	-0.059	-0.133
-169.896	-78.737	-0.319	0.106
-168.881	69.194	0.272	-0.273
-167.866	-103.304	-0.448	0.104
-166.852	-67.270	0.150	-0.058
-165.837	-20.874	-0.110	-0.066
-164.823	-200.000	0.015	-0.130
-163.808	445.769	-0.271	0.582
-162.793	328.993	0.025	-0.047
-161.779	-29.605	0.322	-0.180
-160.764	139.393	0.106	0.136
-159.750	800.000	-0.028	0.087
-158.735	490.853	0.032	0.071
-157.720	-200.000	0.019	-0.110
-156.706	-200.000	-0.025	-0.337
-155.691	800.000	0.139	-0.568
-154.677	-200.000	-0.026	-0.242
-153.662	-125.862	-0.297	0.044
-152.647	73.032	0.372	0.380
-151.633	-77.198	-0.126	-0.043
-150.618	-200.000	0.017	-0.086
-149.604	122.067	0.124	-0.151
-148.589	-200.000	0.000	-0.414
-147.574	-56.957	-0.409	-0.176
-146.560	-0.745	-0.171	0.118
-145.545	-200.000	-0.019	0.171
-144.531	-200.000	-0.003	-0.189
-143.516	-200.000	0.012	0.262
-142.502	-86.929	0.132	-0.039
-141.487	-200.000	0.090	-0.394
-140.472	139.528	0.024	-0.031
-139.458	390.156	0.140	0.284
-138.443	11.949	-0.211	-0.158
-137.429	-62.984	0.154	0.062
-136.414	-200.000	-0.019	-0.192
-135.399	206.735	-0.255	-0.388
-134.385	97.308	-0.087	-0.098
-133.370	402.235	0.053	0.109
-132.356	800.000	-0.036	-0.133
-131.341	3.088	-0.070	0.050
-130.326	-200.000	-0.074	-0.336
-129.312	-149.182	0.276	0.022
-128.297	800.000	-0.090	0.363
-127.283	-128.337	0.236	-0.033
-126.268	-127.652	-0.262	-0.037
-125.253	230.745	-0.179	-0.286
-124.239	-148.090	-0.240	0.019
-123.224	-71.415	0.062	0.023
-122.210	-200.000	0.001	-0.042
-121.195	382.939	-0.048	0.096
-120.180	800.000	0.029	0.118
-119.166	342.795	-0.078	0.149
-118.151	-200.000	0.027	0.299
-117.137	600.353	-0.090	-0.218
-116.122	21.602	0.226	0.179
-115.107	-119.236	0.211	-0.036
-114.093	-125.473	-0.151	0.022
-113.078	-108.580	0.139	0.029
-112.064	-61.169	0.246	0.101
-111.049	-162.370	-0.139	0.007
-110.034	227.479	-0.125	0.199
-109.020	-81.345	0.296	-0.095
-108.005	-52.537	0.164	0.074
-106.991	380.756	0.072	0.144
-105.976	-139.351	0.102	0.011
-104.962	-33.033	-0.130	-0.070
-103.947	534.449	0.136	-0.314
-102.932	-62.552	-0.270	-0.109
-101.918	-129.692	-0.146	0.020
-100.903	177.368	0.266	-0.377
-99.889	-116.844	-0.052	-0.009
-98.874	-151.041	0.233	0.017
-97.859	629.047	0.124	-0.307
-96.845	244.621	0.160	-0.262
-95.830	306.796	-0.125	0.228
-94.816	153.245	-0.115	0.153
-93.801	308.786	0.037	-0.067
-92.786	-200.000	0.041	0.192
-91.772	-73.518	-0.191	0.068
-90.757	-20.897	0.220	0.131
-89.743	54.044	0.112	-0.105
-88.728	430.024	-0.105	0.221
-87.713	-8.660	-0.105	-0.069
-86.699	440.719	0.047	-0.101
-85.684	65.137	-0.117	0.115
-84.670	-129.046	-0.393	0.054
-83.655	-200.000	0.008	0.143
-82.640	-30.606	-0.104	0.058
-81.626	410.535	0.044	0.091
-80.611	0.388	0.207	0.144
-79.597	187.300	-0.070	0.102
-78.582	79.422	0.071	0.074
-77.567	279.078	0.194	0.338
-76.553	-20.722	-0.142	-0.085
-75.538	83.336	-0.203	0.216
-74.524	292.340	-0.159	-0.282
-73.509	-93.333	-0.339	-0.092
-72.494	27.585	-0.342	0.280
-71.480	800.000	-0.053	-0.217
-70.465	124.984	-0.028	-0.035
-69.451	183.520	-0.087	-0.126
-68.436	-74.552	-0.205	-0.072
-67.422	-38.018	0.196	-0.101
-66.407	73.510	-0.154	-0.157
-65.392	-108.899	-0.205	0.043
-64.378	167.194	-0.301	0.417
-63.363	-22.088	0.154	0.091
-62.349	800.000	0.062	0.202
-61.334	83.981	-1.127	-1.199
-60.319	28.451	0.986	0.812
-59.305	800.000	-0.483	-1.312
-58.290	249.122	0.934	1.542
-57.276	492.565	0.629	1.404
-56.261	-200.000	128.211	672.346
-55.246	403.110	1616.073	3311.547
-54.232	137.887	2771.720	3537.349
-53.217	94.646	2187.729	2422.503
-52.203	33.320	1700.478	1437.390
-51.188	25.708	1519.259	1232.277
-50.173	23.864	1494.944	1200.073
-49.159	48.498	1567.693	1430.196
-48.144	45.195	1580.596	1419.018
-47.130	25.954	1528.818	1241.529
-46.115	22.988	1512.522	1208.005
-45.100	22.754	1509.317	1203.801
-44.086	22.804	1507.348	1202.524
-43.071	22.717	1505.181	1200.159
-42.057	22.679	1504.052	1198.949
-41.042	22.693	1502.267	1197.577
-40.027	22.766	1500.778	1196.838
-39.013	22.736	1499.006	1195.171
-37.998	22.662	1498.005	1193.826
-36.984	22.705	1497.117	1193.361
-35.969	22.693	1495.295	1191.779
-34.954	22.635	1494.061	1190.356
-33.940	22.789	1492.242	1189.898
-32.925	22.769	1491.351	1189.011
-31.911	22.764	1489.520	1187.467
-30.896	22.839	1488.790	1187.341
-29.881	22.836	1487.598	1186.327
-28.867	22.873	1486.051	1185.295
-27.852	22.801	1484.866	1183.817
-26.838	22.779	1483.304	1182.380
-25.823	22.750	1482.251	1181.298
-24.809	22.825	1480.259	1180.160
-23.794	22.898	1478.908	1179.526
-22.779	22.615	1478.206	1177.030
-21.765	22.792	1476.683	1176.950
-20.750	22.751	1475.500	1175.691
-19.736	22.760	1474.284	1174.731
-18.721	22.806	1473.139	1174.084
-17.706	22.732	1472.381	1172.939
-16.692	22.821	1471.089	1172.454
-15.677	22.787	1470.266	1171.523
-14.663	22.736	1469.647	1170.647
-13.648	22.653	1468.625	1169.236
-12.633	22.588	1467.911	1168.188
-11.619	22.792	1466.510	1168.378
-10.604	22.784	1465.831	1167.740
-9.590	22.791	1464.882	1166.984
-8.575	22.702	1464.352	1165.924
-7.560	22.744	1463.674	1165.621
-6.546	22.696	1462.763	1164.530
-5.531	22.830	1460.877	1163.864
-4.517	22.741	1460.539	1162.966
-3.502	22.730	1459.750	1162.218
-2.487	22.797	1458.379	1161.521
-1.473	22.692	1457.855	1160.367
-0.458	22.768	1456.271	1159.559
0.556	21.066	1446.631	1148.420
1.571	18.121	1422.276	1109.897
2.586	14.939	1360.481	1041.795
3.600	13.355	1278.006	969.274
4.615	12.461	1234.157	930.878
5.629	10.796	1178.039	879.465
6.644	5.278	1096.967	790.990
7.659	0.902	1061.138	743.623
8.673	0.326	1055.838	737.030
9.688	0.163	1052.518	733.849
10.702	0.150	1051.223	732.822
11.717	0.041	1049.286	730.875
12.731	1.934	1050.262	740.691
13.746	8.213	1058.034	776.756
14.761	14.296	1066.257	812.488
15.775	16.633	1068.724	825.709
16.790	16.494	1067.294	823.854
17.804	15.457	1065.065	817.016
18.819	14.642	1063.133	811.500
19.834	14.120	1062.176	808.165
20.848	13.868	1061.421	806.294
21.863	13.640	1060.369	804.318
22.877	13.576	1059.157	803.014
23.892	13.267	1058.406	800.878
24.907	13.163	1057.667	799.744
25.921	13.189	1057.133	799.395
26.936	13.239	1056.448	799.049
27.950	13.153	1056.257	798.419
28.965	13.265	1055.105	798.020
29.980	13.302	1054.176	797.426
30.994	13.387	1053.018	796.885
32.009	13.455	1052.065	796.420
33.023	13.372	1051.897	795.823
34.038	13.380	1051.202	795.267
35.053	13.381	1050.372	794.572
36.067	13.239	1049.307	793.014
37.082	13.367	1048.301	792.799
38.096	13.389	1047.662	792.349
39.111	13.282	1046.958	791.238
40.126	13.343	1046.164	790.860
41.140	13.398	1044.769	789.997
42.155	13.104	1044.229	788.116
43.169	13.156	1043.247	787.554
44.184	13.144	1042.082	786.547
45.199	13.221	1041.082	786.087
46.213	13.251	1040.051	785.382
47.228	13.139	1039.251	784.178
48.242	13.165	1038.143	783.396
49.257	13.332	1036.911	783.185
50.271	13.205	1036.656	782.323
51.286	13.312	1035.328	781.756
52.301	13.354	1034.435	781.213
53.315	13.449	1033.883	781.174
54.330	13.291	1032.656	779.437
55.344	13.303	1031.938	778.881
56.359	13.150	1031.351	777.648
57.374	13.279	1029.816	777.030
58.388	13.212	1029.354	776.295
59.403	13.157	1028.465	775.301
60.417	13.085	1027.717	774.330
61.432	13.088	1027.157	773.853
62.447	13.079	1026.492	773.242
63.461	13.175	1025.427	772.818
64.476	13.085	1024.871	771.909
65.490	13.124	1023.745	771.176
66.505	13.068	1022.956	770.253
67.520	13.149	1022.127	769.938
68.534	13.193	1020.972	769.203
69.549	13.248	1020.667	769.163
70.563	13.173	1019.999	768.242
71.578	13.115	1019.527	767.550
72.593	13.177	1018.350	766.886
73.607	13.144	1017.464	765.994
74.622	13.034	1016.420	764.631
75.636	13.101	1015.573	764.240
76.651	13.129	1015.113	763.955
77.666	13.098	1014.301	763.130
78.680	13.036	1013.225	761.969
79.695	13.108	1012.651	761.802
80.709	13.174	1011.927	761.493
81.724	13.260	1010.759	760.944
82.739	13.196	1010.604	760.466
83.753	13.147	1009.970	759.694
84.768	13.266	1009.163	759.569
85.782	13.355	1008.487	759.399
86.797	13.500	1007.571	759.308
87.812	13.306	1007.087	757.988
88.826	13.277	1006.278	757.180
89.841	13.345	1005.406	756.764
90.855	13.325	1004.161	755.671
91.870	13.434	1003.367	755.505
92.884	13.448	1002.858	755.116
93.899	13.459	1002.174	754.585
94.914	13.433	1001.394	753.812
95.928	13.373	1000.789	753.019
96.943	13.430	999.756	752.434
97.957	13.407	999.252	751.881
98.972	13.450	998.339	751.326
99.987	13.438	997.502	750.572
101.001	13.349	997.118	749.814
102.016	13.392	996.151	749.217
103.030	13.319	995.408	748.262
104.045	13.464	994.084	747.855
105.060	13.452	993.255	747.112
106.074	13.417	992.513	746.331
107.089	13.351	991.786	745.417
108.103	13.354	990.655	744.517
109.118	13.318	989.770	743.622
110.133	13.308	989.172	743.061
111.147	13.192	988.620	742.060
112.162	13.312	987.321	741.561
113.176	13.273	986.539	740.730
114.191	13.234	986.253	740.276
115.206	13.315	985.072	739.688
116.220	13.338	984.083	738.980
117.235	13.348	983.069	738.201
118.249	13.328	982.267	737.442
119.264	13.215	981.671	736.425
120.279	13.418	980.435	736.339
121.293	13.294	979.801	735.247
122.308	13.333	979.045	734.786
123.322	13.295	978.127	733.865
124.337	13.255	977.146	732.885
125.352	13.202	976.193	731.870
126.366	13.341	975.091	731.595
127.381	13.308	974.352	730.831
128.395	13.268	973.162	729.698
129.410	13.122	972.467	728.466
130.424	13.236	971.467	728.155
131.439	13.333	970.139	727.520
132.454	13.430	969.411	727.336
133.468	13.480	968.519	726.824
134.483	13.327	968.330	725.946
135.497	13.470	967.475	725.867
136.512	13.382	966.673	724.815
137.527	13.442	965.898	724.434
138.541	13.388	965.362	723.733
139.556	13.303	964.775	722.855
140.570	13.406	963.784	722.499
141.585	13.510	962.818	722.163
142.600	13.315	962.860	721.281
143.614	13.445	961.577	720.821
144.629	13.574	960.670	720.640
145.643	13.596	959.986	720.159
146.658	13.539	959.567	719.533
147.673	13.448	958.594	718.347
148.687	13.522	957.318	717.648
149.702	13.594	956.572	717.333
150.716	13.374	956.132	715.991
151.731	13.431	954.869	715.225
152.746	13.496	954.605	715.248
153.760	13.490	953.688	714.471
154.775	13.467	953.316	714.028
155.789	13.433	952.598	713.281
156.804	13.571	951.762	713.186
157.819	13.582	950.974	712.579
158.833	13.609	950.079	711.963
159.848	13.677	949.298	711.608
160.862	13.661	948.658	710.996
161.877	13.683	948.068	710.583
162.892	13.679	946.986	709.693
163.906	13.611	946.203	708.753
164.921	13.668	945.464	708.379
165.935	13.609	944.518	707.359
166.950	13.504	943.535	706.113
167.964	13.724	942.657	706.329
168.979	13.633	941.861	705.284
169.994	13.717	940.692	704.701
171.008	13.644	940.122	703.904
172.023	13.758	939.095	703.555
173.037	13.629	938.938	702.827
174.052	13.804	937.835	702.682
175.067	13.663	937.302	701.624
176.081	13.743	936.596	701.372
177.096	13.694	935.564	700.326
178.110	13.674	934.897	699.682
179.125	13.705	933.818	698.945
180.140	13.763	933.288	698.731
181.154	13.790	932.479	698.176
182.169	13.831	931.920	697.867
183.183	13.769	931.399	697.157
184.198	13.928	930.432	697.037
185.213	13.925	930.062	696.686
186.227	13.869	929.311	695.829
187.242	13.874	929.317	695.791
188.256	13.925	928.199	695.104
189.271	14.128	927.450	695.332
190.286	13.989	926.656	694.094
191.300	13.810	926.174	692.926
192.315	13.801	924.889	691.865
193.329	13.739	924.360	691.148
194.344	13.765	924.010	690.934
195.359	13.815	923.159	690.444
196.373	13.933	922.967	690.730
197.388	14.053	922.035	690.472
198.402	14.058	921.585	690.096
199.417	14.091	921.089	689.800
200.432	14.162	920.120	689.305
201.446	13.974	920.649	688.861
202.461	14.098	920.160	688.950
203.475	14.219	919.113	688.607
204.490	14.334	918.465	688.534
205.504	14.222	917.645	687.395
206.519	14.031	917.195	686.210
207.534	14.133	916.162	685.796
208.548	14.189	915.363	685.367
209.563	14.174	914.941	684.929
210.577	14.165	914.067	684.177
211.592	14.251	913.323	683.914
212.607	14.214	913.014	683.471
213.621	14.322	912.547	683.504
214.636	14.354	911.600	682.867
215.650	14.387	910.588	682.182
216.665	14.179	910.477	681.187
217.680	14.400	909.643	681.406
218.694	14.454	909.249	681.270
219.709	14.388	908.775	680.587
220.723	14.306	908.376	679.893
221.738	14.422	907.499	679.648
222.753	14.406	906.821	679.014
223.767	14.534	905.885	678.777
224.782	14.451	905.225	677.883
225.796	14.475	904.545	677.410
226.811	14.488	904.377	677.279
227.826	14.532	903.304	676.595
228.840	14.487	902.376	675.655
229.855	14.452	901.994	675.170
230.869	14.387	901.027	674.124
231.884	14.586	900.368	674.373
232.899	14.459	900.103	673.602
233.913	14.496	899.167	672.993
234.928	14.321	898.504	671.730
235.942	14.425	898.097	671.787
236.957	14.512	896.995	671.252
237.972	14.551	896.065	670.654
238.986	14.549	895.772	670.366
240.001	14.538	894.814	669.545
241.015	14.510	894.318	669.003
242.030	14.484	893.704	668.382
243.045	14.631	893.010	668.392
244.059	14.633	892.611	668.044
245.074	14.630	891.563	667.186
246.088	14.603	891.182	666.736
247.103	14.727	890.535	666.688
248.117	14.680	889.970	666.016
249.132	14.710	889.568	665.779
250.147	14.980	888.643	666.102
251.161	14.919	888.185	665.456
252.176	14.921	887.743	665.073
253.190	14.964	886.688	664.394
254.205	14.934	886.153	663.818
255.220	15.086	885.323	663.738
256.234	15.091	884.736	663.259
257.249	15.135	884.056	662.867
258.263	15.082	883.978	662.538
259.278	14.926	883.295	661.351
260.293	15.062	882.577	661.294
261.307	14.989	882.497	660.887
262.322	15.082	881.637	660.549
263.336	15.126	880.953	660.154
264.351	15.147	880.498	659.835
265.366	15.140	880.118	659.466
266.380	15.276	879.152	659.220
267.395	15.291	878.653	658.843
268.409	15.164	877.728	657.594
269.424	15.175	877.093	657.104
270.439	15.187	876.465	656.621
271.453	15.219	875.642	656.073
272.468	15.177	874.971	655.347
273.482	15.197	874.241	654.821
274.497	15.174	874.027	654.514
275.512	15.204	873.316	654.039
276.526	15.243	872.383	653.434
277.541	15.301	871.714	653.101
278.555	15.434	870.712	652.811
279.570	15.358	870.489	652.291
280.585	15.440	870.106	652.263
281.599	15.467	869.316	651.720
282.614	15.360	868.662	650.757
283.628	15.430	867.921	650.416
284.643	15.393	867.552	649.938
285.657	15.330	867.428	649.544
286.672	15.427	866.340	649.046
287.687	15.526	866.182	649.254
288.701	15.407	865.654	648.339
289.716	15.557	864.884	648.284
290.730	15.472	864.523	647.629
291.745	15.475	863.938	647.144
292.760	15.513	863.028	646.553
293.774	15.480	862.375	645.881
294.789	15.560	862.137	645.951
295.803	15.690	861.175	645.672
296.818	15.758	860.225	645.165
297.833	15.673	859.897	644.534
298.847	15.676	858.633	643.543
299.862	15.622	858.411	643.114
300.876	15.550	857.954	642.438
301.891	15.629	857.272	642.172
302.906	15.600	856.762	641.622
303.920	15.742	856.155	641.651
304.935	15.824	855.093	641.113
305.949	15.858	854.517	640.754
306.964	15.816	854.071	640.202
307.979	15.776	853.838	639.819
308.993	15.822	852.997	639.309
310.008	15.888	852.677	639.260
311.022	15.927	852.267	639.044
312.037	15.779	851.992	638.220
313.052	15.963	851.051	638.157
314.066	15.908	850.238	637.285
315.081	15.811	849.610	636.389
316.095	15.943	848.770	636.203
317.110	15.892	848.557	635.794
318.125	15.981	847.962	635.626
319.139	15.911	847.635	635.063
320.154	15.960	846.968	634.692
321.168	15.920	846.613	634.217
322.183	15.987	845.697	633.728
323.197	15.982	845.299	633.356
324.212	15.910	845.275	633.011
325.227	15.971	844.408	632.535
326.241	16.131	843.737	632.575
327.256	15.997	843.600	631.912
328.270	15.973	843.029	631.338
329.285	15.936	842.337	630.628
330.300	15.935	841.776	630.150
331.314	15.971	841.167	629.773
332.329	16.147	840.355	629.765
333.343	16.189	839.746	629.409
334.358	16.062	839.405	628.624
335.373	16.002	838.783	627.881
336.387	16.170	838.509	628.244
337.402	16.248	837.475	627.705
338.416	16.214	836.943	627.121
339.431	16.109	836.578	626.406
340.446	16.283	836.022	626.579
341.460	16.330	835.097	626.003
342.475	16.331	835.144	625.988
343.489	16.478	834.315	625.857
344.504	16.449	833.601	625.156
345.519	16.543	833.135	625.100
346.533	16.346	832.755	624.032
347.548	16.552	832.101	624.247
348.562	16.381	831.753	623.297
349.577	16.338	831.352	622.786
350.592	16.388	830.640	622.382
351.606	16.529	829.817	622.228
352.621	16.455	829.587	621.729
353.635	16.383	829.622	621.436
354.650	16.380	828.923	620.845
355.665	16.557	828.129	620.846
356.679	16.504	827.868	620.399
357.694	16.580	827.414	620.285
358.708	16.669	826.625	619.961
359.723	16.488	826.214	618.939
360.738	16.366	826.436	618.603
361.752	16.492	825.484	618.296
362.767	16.548	824.861	617.980
363.781	16.612	824.405	617.816
364.796	16.716	823.779	617.671
365.810	16.670	823.708	617.396
366.825	16.897	822.746	617.447
367.840	16.672	823.105	616.844
368.854	16.580	822.645	616.109
369.869	16.852	821.704	616.337
370.883	16.767	820.897	615.368
371.898	16.772	820.369	614.938
372.913	16.831	819.954	614.785
373.927	16.804	819.403	614.220
374.942	16.841	818.942	613.955
375.956	16.837	818.158	613.299
376.971	17.017	817.755	613.591
377.986	16.915	817.434	612.928
379.000	16.986	816.591	612.500
380.015	16.983	816.205	612.143
381.029	17.000	815.698	611.772
382.044	17.064	815.073	611.478
383.059	16.850	814.914	610.533
384.073	17.055	813.858	610.426
385.088	17.100	813.438	610.221
386.102	16.932	813.142	609.339
387.117	17.174	812.287	609.514
388.132	16.963	812.199	608.637
389.146	16.892	811.740	607.986
390.161	17.141	811.047	608.302
391.175	17.148	810.519	607.878
392.190	17.137	810.207	607.552
393.205	17.140	809.797	607.203
394.219	17.010	809.746	606.644
395.234	17.144	808.967	606.486
396.248	17.226	808.373	606.281
397.263	16.976	808.321	605.295
398.278	17.162	807.330	605.161
399.292	17.136	807.070	604.819
400.307	17.073	806.737	604.294
401.321	17.172	806.580	604.475
402.336	17.230	806.174	604.322
403.350	17.282	805.497	603.948
404.365	17.119	805.360	603.212
405.380	17.242	804.545	602.984
406.394	17.179	803.942	602.255
407.409	17.309	803.480	602.317
408.423	17.251	803.563	602.120
409.438	17.465	802.614	602.114
410.453	17.341	802.688	601.677
411.467	17.396	802.044	601.333
412.482	17.666	800.910	601.384
413.496	17.505	800.765	600.655
414.511	17.533	800.587	600.567
415.526	17.609	800.199	600.491
416.540	17.529	799.902	599.931
417.555	17.495	799.415	599.395
418.569	17.554	798.634	598.964
419.584	17.546	798.239	598.585
420.599	17.587	797.573	598.178
421.613	114.051	1298.721	1490.056
422.628	98.250	1371.695	1490.139
