DTS Sentinel unit serial number:	SN413079Multiplexer serial number:	ORYXHardware model number:	OX4-SRSoftware version number:	ORYX F/W v4.00 Oryx Data Collector v3.7.2.0data status	okinstallation	princeton_trtdifferential loss correction	single-endedforward channel	channel 3reverse channel	N/Adate	2019/09/14time	17:44:35forward acquisition time	60.00reverse acquisition time	0.00gamma	496.2192k internal	0.2297k external	0.2297temperature offset calibration	1.0023default loss term (dB/km)	0.3790temperature slope calibration	1.0000multiplexer offset coefficient	1.0000multiplexer slope coefficient	1.0000fibre end	0.00T internal ref (°C)	37.50T ext. ref 1 (°C)	5.04T ext. ref 2 (°C)	32.74length (m)	temperature (°C)	Stokes	anti-Stokes-747.200	17.943	0.252	0.205
-746.185	-28.115	0.026	-0.015
-745.171	225.566	0.120	0.199
-744.156	-77.427	0.182	-0.065
-743.142	-71.821	-0.143	-0.054
-742.127	-20.007	-0.173	0.109
-741.112	-169.214	-0.240	-0.009
-740.098	-71.685	-0.186	-0.071
-739.083	800.000	-0.048	0.191
-738.069	-106.414	-0.182	-0.041
-737.054	-34.494	0.169	0.095
-736.039	800.000	-0.066	-0.242
-735.025	-14.495	0.205	0.134
-734.010	-88.179	-0.174	-0.053
-732.996	-200.000	0.019	0.086
-731.981	260.943	0.084	0.149
-730.966	800.000	-0.049	0.207
-729.952	-45.649	-0.301	-0.152
-728.937	432.801	0.013	0.029
-727.923	73.492	-0.210	0.224
-726.908	-184.365	-0.302	0.005
-725.894	-116.315	-0.198	-0.037
-724.879	-200.000	-0.017	-0.186
-723.864	-78.685	-0.400	-0.139
-722.850	-61.234	-0.197	-0.085
-721.835	-200.000	-0.012	0.060
-720.821	-200.000	-0.029	0.169
-719.806	172.446	0.178	0.262
-718.791	286.360	0.100	-0.184
-717.777	-40.173	0.183	0.097
-716.762	-68.329	-0.188	-0.075
-715.748	48.580	0.275	-0.263
-714.733	-87.630	0.360	0.111
-713.718	39.666	0.051	0.047
-712.704	800.000	0.067	-0.275
-711.689	214.063	-0.161	-0.259
-710.675	88.003	0.085	-0.096
-709.660	-24.828	0.189	0.114
-708.645	-115.846	0.129	-0.025
-707.631	-165.587	-0.035	-0.002
-706.616	-200.000	-0.004	-0.083
-705.602	761.450	-0.119	-0.328
-704.587	-93.548	0.112	-0.031
-703.572	637.649	-0.032	0.082
-702.558	-200.000	0.009	0.232
-701.543	257.151	0.108	-0.190
-700.529	108.943	0.094	0.115
-699.514	-200.000	0.004	-0.201
-698.499	196.369	-0.092	-0.143
-697.485	800.000	0.029	-0.095
-696.470	-92.654	0.149	-0.042
-695.456	-23.212	-0.074	0.046
-694.441	-200.000	-0.040	-0.288
-693.426	-200.000	0.034	0.212
-692.412	800.000	0.105	-0.431
-691.397	60.362	0.114	0.115
-690.383	-62.061	-0.118	-0.050
-689.368	5.147	0.177	0.133
-688.354	-200.000	0.036	-0.219
-687.339	-28.817	0.072	0.042
-686.324	-69.998	-0.052	-0.020
-685.310	197.371	-0.065	0.102
-684.295	37.632	0.043	-0.039
-683.281	-95.663	0.072	-0.020
-682.266	-28.013	0.131	-0.077
-681.251	-66.192	-0.173	0.070
-680.237	243.934	-0.082	-0.140
-679.222	-123.104	0.458	0.075
-678.208	42.074	0.079	-0.073
-677.193	-106.320	-0.568	-0.129
-676.178	-16.915	0.087	0.056
-675.164	-117.033	-0.120	0.022
-674.149	-117.024	-0.296	-0.055
-673.135	800.000	-0.042	0.175
-672.120	-125.387	0.204	-0.032
-671.105	292.654	-0.124	-0.231
-670.091	-190.629	-0.218	0.002
-669.076	303.077	-0.098	0.184
-668.062	-141.766	-0.236	0.024
-667.047	-58.433	-0.242	-0.107
-666.032	-66.637	-0.117	0.047
-665.018	215.926	0.120	0.194
-664.003	70.426	-0.187	-0.197
-662.989	-200.000	-0.020	0.276
-661.974	800.000	-0.090	-0.273
-660.959	-98.109	0.142	-0.037
-659.945	-161.052	-0.220	-0.012
-658.930	-200.000	-0.045	-0.395
-657.916	70.907	0.148	-0.156
-656.901	255.219	0.153	0.266
-655.886	-143.594	-0.172	0.017
-654.872	800.000	-0.103	-0.303
-653.857	-90.823	0.270	0.079
-652.843	31.489	-0.196	-0.171
-651.828	483.825	0.126	-0.292
-650.814	70.753	-0.194	-0.204
-649.799	-200.000	0.009	-0.113
-648.784	800.000	0.076	0.338
-647.770	179.549	-0.143	0.213
-646.755	-200.000	0.001	0.066
-645.741	-200.000	-0.015	-0.337
-644.726	-24.862	-0.206	0.125
-643.711	-35.931	0.180	0.099
-642.697	228.276	0.036	-0.059
-641.682	26.922	0.096	0.082
-640.668	-200.000	-0.036	0.233
-639.653	261.040	-0.121	-0.213
-638.638	271.659	0.056	-0.101
-637.624	37.504	-0.132	-0.119
-636.609	135.475	0.162	-0.214
-635.595	63.375	-0.165	0.168
-634.580	-3.426	-0.038	-0.027
-633.565	-168.577	-0.142	0.005
-632.551	800.000	0.099	0.280
-631.536	-123.687	-0.150	0.024
-630.522	-200.000	0.031	-0.209
-629.507	-200.000	0.002	0.067
-628.492	800.000	0.077	-0.251
-627.478	-39.991	-0.101	0.053
-626.463	100.568	-0.077	0.091
-625.449	226.110	0.062	0.102
-624.434	-146.450	0.197	-0.017
-623.419	-2.529	-0.170	-0.121
-622.405	8.355	-0.116	-0.089
-621.390	-92.985	-0.416	0.118
-620.376	14.513	0.114	0.090
-619.361	-149.903	0.432	-0.034
-618.346	393.526	0.079	0.167
-617.332	-101.029	-0.095	0.024
-616.317	207.770	-0.292	-0.463
-615.303	-162.523	-0.261	-0.013
-614.288	142.505	0.189	0.255
-613.273	160.786	-0.176	-0.250
-612.259	-200.000	0.066	-0.392
-611.244	-43.738	-0.290	-0.148
-610.230	44.208	0.163	0.152
-609.215	-128.245	0.194	-0.028
-608.201	-171.748	0.127	0.004
-607.186	-200.000	0.037	0.447
-606.171	-23.951	0.023	-0.014
-605.157	-74.440	0.252	0.092
-604.142	-73.671	-0.032	0.012
-603.128	-104.659	-0.044	0.010
-602.113	-45.576	-0.052	-0.026
-601.098	-110.498	-0.372	-0.078
-600.084	32.717	-0.113	-0.099
-599.069	-200.000	-0.018	-0.158
-598.055	433.866	0.131	0.290
-597.040	-125.054	0.414	-0.065
-596.025	376.297	-0.020	0.042
-595.011	-200.000	0.020	-0.174
-593.996	-200.000	0.004	0.119
-592.982	-65.521	0.219	-0.089
-591.967	295.679	-0.102	-0.189
-590.952	-200.000	-0.016	-0.100
-589.938	100.715	-0.186	0.219
-588.923	40.890	-0.244	0.223
-587.909	24.685	0.272	-0.228
-586.894	332.580	0.085	-0.167
-585.879	-200.000	-0.160	0.841
-584.865	-136.038	-0.189	0.023
-583.850	-200.000	-0.012	-0.220
-582.836	-23.927	0.055	-0.033
-581.821	-93.093	-0.099	0.028
-580.806	-105.201	-0.208	0.048
-579.792	-122.924	-0.366	-0.060
-578.777	-25.541	-0.491	-0.294
-577.763	-144.986	0.298	-0.028
-576.748	-154.888	-0.180	0.012
-575.733	-71.776	-0.371	-0.140
-574.719	469.165	-0.048	-0.108
-573.704	-9.301	-0.496	0.336
-572.690	-200.000	-0.033	0.211
-571.675	65.668	0.149	0.153
-570.661	38.018	0.230	-0.208
-569.646	-200.000	0.004	-0.248
-568.631	-178.431	-0.271	0.006
-567.617	-97.261	0.269	0.071
-566.602	800.000	0.030	-0.126
-565.588	642.149	0.026	-0.067
-564.573	-64.615	0.636	0.262
-563.558	-200.000	-0.027	0.264
-562.544	74.609	-0.018	-0.019
-561.529	800.000	0.136	0.452
-560.515	-76.382	0.275	-0.098
-559.500	-200.000	0.016	0.251
-558.485	800.000	0.015	-0.052
-557.471	-84.804	-0.090	-0.029
-556.456	-34.889	-0.108	-0.060
-555.442	-51.963	-0.320	-0.151
-554.427	439.994	-0.044	0.096
-553.412	-88.346	0.296	-0.090
-552.398	109.571	-0.090	-0.109
-551.383	-60.201	0.155	0.067
-550.369	-200.000	-0.008	-0.039
-549.354	800.000	0.062	0.264
-548.339	65.433	-0.076	0.078
-547.325	-170.425	0.128	0.005
-546.310	520.670	-0.122	0.290
-545.296	4.053	0.125	-0.093
-544.281	0.021	-0.067	-0.049
-543.266	-200.000	-0.027	0.302
-542.252	29.223	0.065	-0.056
-541.237	39.256	0.104	0.095
-540.223	-200.000	-0.021	-0.133
-539.208	-38.490	0.160	-0.086
-538.193	19.822	-0.128	0.105
-537.179	800.000	-0.063	0.180
-536.164	-172.278	0.110	0.004
-535.150	-128.121	-0.172	-0.025
-534.135	99.986	0.155	0.183
-533.121	-88.398	-0.134	-0.041
-532.106	107.256	-0.208	-0.251
-531.091	414.226	-0.109	-0.236
-530.077	2.297	-0.032	-0.023
-529.062	-156.709	0.070	-0.004
-528.048	-200.000	0.011	-0.185
-527.033	-5.820	0.147	-0.102
-526.018	41.756	-0.085	-0.078
-525.004	-59.829	0.196	-0.085
-523.989	-108.381	-0.219	-0.048
-522.975	-200.000	-0.004	-0.191
-521.960	119.319	0.246	0.308
-520.945	-31.332	0.221	-0.126
-519.931	81.782	0.064	0.070
-518.916	-200.000	-0.025	-0.125
-517.902	-49.285	0.218	-0.105
-516.887	-82.726	-0.102	0.034
-515.872	-200.000	0.041	-0.353
-514.858	-44.764	-0.064	0.032
-513.843	-200.000	-0.006	0.135
-512.829	237.292	0.092	-0.154
-511.814	-149.935	-0.321	-0.025
-510.799	-38.014	-0.181	0.098
-509.785	-195.388	0.119	-0.001
-508.770	30.184	-0.270	-0.234
-507.756	14.857	0.272	-0.215
-506.741	800.000	0.065	-0.184
-505.726	12.282	0.137	0.107
-504.712	-47.710	-0.180	0.088
-503.697	-12.819	0.172	-0.113
-502.683	-74.111	0.214	0.078
-501.668	42.532	0.106	-0.098
-500.653	-200.000	-0.040	-0.508
-499.639	-85.057	-0.345	0.109
-498.624	-41.683	-0.196	0.102
-497.610	355.455	-0.059	0.119
-496.595	250.302	-0.087	-0.149
-495.581	-50.091	0.195	-0.093
-494.566	800.000	-0.076	-0.239
-493.551	172.184	-0.254	0.369
-492.537	-185.686	0.063	-0.001
-491.522	300.518	-0.150	-0.280
-490.508	246.853	-0.191	-0.325
-489.493	-21.988	0.239	0.147
-488.478	128.613	-0.034	0.044
-487.464	-106.511	0.218	-0.049
-486.449	55.941	0.220	-0.216
-485.435	-87.973	0.119	-0.036
-484.420	-154.190	-0.264	0.018
-483.405	-106.546	-0.192	-0.043
-482.391	-51.781	0.193	0.091
-481.376	-87.480	0.177	-0.054
-480.362	479.747	0.179	-0.411
-479.347	641.023	0.108	-0.277
-478.332	800.000	-0.049	0.142
-477.318	-200.000	0.008	0.058
-476.303	-14.720	0.184	0.119
-475.289	71.825	-0.155	0.163
-474.274	800.000	0.134	0.391
-473.259	800.000	0.142	-0.468
-472.245	48.665	0.092	0.087
-471.230	800.000	-0.025	-0.087
-470.216	800.000	0.095	0.323
-469.201	800.000	-0.083	0.271
-468.186	-200.000	-0.039	0.373
-467.172	227.728	-0.169	-0.278
-466.157	-2.477	0.190	0.135
-465.143	31.047	0.162	0.140
-464.128	-48.133	0.237	0.116
-463.113	112.448	0.115	-0.141
-462.099	-200.000	0.042	0.297
-461.084	-50.012	-0.315	-0.151
-460.070	77.437	-0.101	-0.108
-459.055	-200.000	0.015	-0.322
-458.040	277.688	-0.171	-0.308
-457.026	10.212	0.193	0.148
-456.011	-200.000	0.036	0.328
-454.997	37.685	0.095	0.085
-453.982	-22.060	-0.207	0.127
-452.968	160.117	-0.166	-0.233
-451.953	117.383	-0.071	0.088
-450.938	528.989	0.068	-0.163
-449.924	126.621	0.110	-0.141
-448.909	-14.699	-0.199	-0.129
-447.895	-129.116	0.123	-0.017
-446.880	-127.539	0.408	0.060
-445.865	207.132	0.097	0.153
-444.851	-70.213	0.237	0.091
-443.836	-97.537	0.320	0.084
-442.822	257.950	-0.076	-0.132
-441.807	-105.919	-0.286	-0.065
-440.792	-73.641	-0.088	-0.032
-439.778	391.724	0.238	-0.499
-438.763	-200.000	-0.028	-0.286
-437.749	-200.000	0.033	-0.205
-436.734	-200.000	-0.012	0.130
-435.719	-136.337	0.256	0.030
-434.705	-142.142	-0.141	-0.014
-433.690	-58.250	0.176	0.077
-432.676	97.444	0.259	-0.301
-431.661	800.000	-0.112	0.360
-430.646	92.282	0.185	0.210
-429.632	-119.677	-0.129	0.023
-428.617	118.773	0.200	-0.250
-427.603	406.212	-0.107	-0.227
-426.588	653.981	0.126	-0.325
-425.573	-117.652	0.101	-0.018
-424.559	258.217	-0.104	0.181
-423.544	-20.159	0.175	0.109
-422.530	328.314	0.100	0.194
-421.515	130.568	-0.235	-0.303
-420.500	706.320	0.094	0.249
-419.486	-20.243	-0.106	0.066
-418.471	346.303	-0.192	0.381
-417.457	-200.000	0.003	0.034
-416.442	23.790	0.163	-0.135
-415.428	-100.967	-0.067	0.017
-414.413	800.000	-0.065	-0.227
-413.398	-10.443	0.241	0.161
-412.384	106.544	-0.183	0.219
-411.369	800.000	0.127	-0.368
-410.355	-138.687	-0.018	-0.002
-409.340	-57.885	-0.060	0.026
-408.325	-71.992	0.197	0.074
-407.311	-20.531	-0.243	-0.151
-406.296	-109.642	-0.463	-0.098
-405.282	-0.843	-0.412	-0.294
-404.267	-91.505	-0.219	0.063
-403.252	378.662	-0.109	0.226
-402.238	-115.870	-0.275	-0.052
-401.223	-55.288	0.160	-0.073
-400.209	130.965	-0.069	-0.089
-399.194	-200.000	-0.018	-0.182
-398.179	451.771	-0.121	-0.269
-397.165	-6.718	0.229	-0.157
-396.150	151.559	0.147	-0.202
-395.136	-200.000	-0.065	-0.388
-394.121	-41.977	-0.023	-0.012
-393.106	129.043	0.107	-0.137
-392.092	72.149	0.101	-0.106
-391.077	-69.996	-0.200	0.077
-390.063	-200.000	0.023	0.121
-389.048	196.687	0.065	-0.100
-388.033	296.641	-0.151	0.280
-387.019	-75.339	-0.102	0.036
-386.004	800.000	0.059	0.244
-384.990	571.641	-0.114	0.279
-383.975	-86.903	0.154	-0.047
-382.960	342.627	0.156	-0.308
-381.946	-152.141	0.144	-0.011
-380.931	787.245	-0.067	-0.184
-379.917	-200.000	-0.006	0.160
-378.902	-81.099	-0.018	0.006
-377.888	-89.532	0.096	-0.028
-376.873	-139.948	-0.207	-0.022
-375.858	-200.000	0.031	0.268
-374.844	-200.000	0.031	-0.156
-373.829	-200.000	0.014	0.343
-372.815	-175.221	0.089	0.002
-371.800	-46.281	-0.262	0.130
-370.785	332.841	0.061	-0.118
-369.771	192.970	-0.197	-0.300
-368.756	127.126	-0.224	-0.286
-367.742	-45.373	0.165	-0.083
-366.727	-25.703	-0.313	0.186
-365.712	-200.000	0.001	-0.113
-364.698	-200.000	0.023	0.333
-363.683	-42.223	-0.352	0.181
-362.669	800.000	-0.038	-0.114
-361.654	227.084	0.113	-0.184
-360.639	-106.161	-0.273	-0.062
-359.625	-200.000	0.004	0.201
-358.610	29.334	0.053	0.045
-357.596	-200.000	-0.075	0.350
-356.581	-111.597	-0.370	0.076
-355.566	-54.524	0.250	0.114
-354.552	199.361	-0.129	0.199
-353.537	-140.573	0.203	0.021
-352.523	161.844	0.089	-0.125
-351.508	800.000	-0.017	-0.071
-350.493	800.000	-0.037	-0.152
-349.479	-200.000	-0.040	-0.362
-348.464	107.358	0.123	-0.147
-347.450	-114.899	0.234	-0.045
-346.435	-4.543	0.201	-0.140
-345.420	-200.000	-0.048	-0.229
-344.406	129.802	-0.088	-0.113
-343.391	-22.207	0.137	0.084
-342.377	1.596	-0.178	-0.129
-341.362	800.000	-0.064	0.263
-340.348	240.201	-0.120	-0.201
-339.333	170.617	0.134	0.193
-338.318	800.000	-0.090	0.387
-337.304	800.000	0.093	0.267
-336.289	-114.421	-0.365	0.070
-335.275	-47.410	0.338	-0.165
-334.260	-200.000	0.022	-0.371
-333.245	195.730	-0.108	0.165
-332.231	346.061	-0.172	0.339
-331.216	136.545	-0.131	0.171
-330.202	800.000	0.012	-0.044
-329.187	-200.000	0.012	0.374
-328.172	370.918	0.084	-0.172
-327.158	77.467	-0.019	-0.021
-326.143	16.553	0.132	-0.105
-325.129	-140.777	0.354	-0.037
-324.114	-109.704	-0.363	-0.077
-323.099	-200.000	-0.011	0.100
-322.085	-115.868	-0.219	-0.041
-321.070	-36.219	-0.149	0.080
-320.056	233.564	0.078	0.128
-319.041	-86.229	0.097	0.030
-318.026	-200.000	0.012	-0.141
-317.012	7.627	-0.362	0.272
-315.997	140.648	-0.169	0.224
-314.983	206.487	0.146	0.228
-313.968	-72.331	0.182	0.068
-312.953	-126.248	-0.251	0.038
-311.939	-200.000	0.011	-0.153
-310.924	188.243	-0.198	0.296
-309.910	-0.367	-0.176	0.125
-308.895	-200.000	-0.029	-0.147
-307.880	432.180	0.085	0.186
-306.866	89.889	0.411	0.460
-305.851	-98.874	0.288	-0.073
-304.837	-80.301	0.134	-0.045
-303.822	-200.000	0.012	0.153
-302.807	-200.000	0.013	0.147
-301.793	-58.017	-0.129	0.057
-300.778	124.481	0.179	0.226
-299.764	-200.000	-0.003	0.401
-298.749	-87.222	0.141	0.043
-297.735	800.000	0.065	-0.274
-296.720	579.512	0.063	-0.156
-295.705	-200.000	-0.011	-0.228
-294.691	378.362	-0.113	0.231
-293.676	173.175	0.088	-0.127
-292.662	800.000	-0.097	0.286
-291.647	-23.731	0.190	0.114
-290.632	335.383	-0.022	-0.042
-289.618	-19.166	-0.115	-0.072
-288.603	-200.000	0.018	-0.137
-287.589	18.545	0.261	0.210
-286.574	-146.461	0.146	0.013
-285.559	-109.355	-0.313	0.066
-284.545	12.216	-0.199	-0.154
-283.530	713.127	0.090	-0.240
-282.516	114.137	-0.045	0.055
-281.501	800.000	0.097	0.295
-280.486	64.845	-0.134	-0.136
-279.472	73.520	-0.248	-0.260
-278.457	-109.172	0.150	-0.032
-277.443	-60.332	0.156	-0.067
-276.428	-200.000	-0.040	-0.244
-275.413	-128.687	-0.245	0.035
-274.399	-57.709	0.269	0.118
-273.384	-200.000	-0.022	0.135
-272.370	25.088	-0.279	-0.232
-271.355	596.877	-0.082	-0.204
-270.340	390.318	-0.034	-0.070
-269.326	800.000	0.033	-0.126
-268.311	29.165	0.168	-0.143
-267.297	374.965	0.099	-0.202
-266.282	-88.827	-0.353	0.105
-265.267	48.932	-0.101	0.095
-264.253	219.224	0.129	-0.206
-263.238	-200.000	-0.028	-0.159
-262.224	55.031	-0.279	-0.270
-261.209	800.000	-0.006	0.019
-260.195	-200.000	0.003	-0.149
-259.180	-180.395	-0.145	-0.003
-258.165	9.735	0.015	0.012
-257.151	99.642	0.054	0.063
-256.136	283.547	0.181	-0.325
-255.122	567.186	0.082	0.200
-254.107	-36.264	0.076	-0.041
-253.092	29.937	0.271	-0.231
-252.078	601.935	-0.100	-0.248
-251.063	-126.303	0.310	0.046
-250.049	310.197	0.065	-0.122
-249.034	-200.000	0.019	0.323
-248.019	116.168	0.140	-0.172
-247.005	800.000	0.087	0.289
-245.990	-160.707	-0.198	0.011
-244.976	-8.299	-0.113	-0.076
-243.961	346.211	0.159	0.313
-242.946	322.061	0.112	0.213
-241.932	-15.790	0.060	-0.038
-240.917	337.365	0.046	-0.090
-239.903	228.196	0.100	0.162
-238.888	-2.505	0.167	0.117
-237.873	-146.298	-0.240	0.021
-236.859	-200.000	-0.020	-0.244
-235.844	-63.871	-0.477	-0.195
-234.830	-14.955	0.346	0.222
-233.815	209.326	0.134	-0.210
-232.800	-166.162	0.258	0.011
-231.786	-200.000	0.041	0.478
-230.771	9.642	-0.184	-0.139
-229.757	88.805	0.201	0.223
-228.742	42.936	-0.243	-0.222
-227.727	-200.000	0.035	0.248
-226.713	-85.862	0.213	-0.066
-225.698	-200.000	-0.008	-0.126
-224.684	-140.630	-0.319	0.033
-223.669	-26.822	0.103	-0.060
-222.655	10.422	0.116	-0.089
-221.640	390.365	-0.051	-0.106
-220.625	-22.938	0.070	-0.042
-219.611	169.360	0.127	0.182
-218.596	715.862	-0.107	0.285
-217.582	-200.000	0.028	0.122
-216.567	-119.621	-0.037	-0.006
-215.552	-31.013	-0.432	0.244
-214.538	-85.497	-0.294	0.091
-213.523	18.538	0.242	0.193
-212.509	-200.000	0.012	0.246
-211.494	800.000	0.024	-0.094
-210.479	-182.733	0.210	0.004
-209.465	79.398	0.312	0.334
-208.450	-79.662	0.170	-0.057
-207.436	115.779	0.234	-0.286
-206.421	-200.000	0.030	0.215
-205.406	98.597	0.379	0.437
-204.392	-92.258	0.159	0.045
-203.377	13.382	0.075	-0.058
-202.363	-76.212	-0.057	-0.020
-201.348	-90.516	0.281	0.081
-200.333	800.000	0.096	0.415
-199.319	800.000	-0.027	0.099
-198.304	215.290	-0.155	-0.246
-197.290	186.993	0.086	-0.127
-196.275	-200.000	0.020	0.205
-195.260	352.802	-0.166	-0.329
-194.246	-134.931	-0.222	-0.027
-193.231	800.000	0.099	-0.289
-192.217	403.675	-0.071	0.150
-191.202	-12.792	-0.301	0.196
-190.187	511.644	-0.015	-0.036
-189.173	-70.672	0.082	-0.031
-188.158	-12.048	-0.149	-0.097
-187.144	-22.608	0.181	0.109
-186.129	-133.313	0.143	-0.018
-185.114	-74.360	-0.199	0.072
-184.100	147.847	-0.184	0.247
-183.085	56.717	-0.216	0.210
-182.071	427.084	0.123	0.265
-181.056	-26.436	0.234	-0.137
-180.042	33.461	0.122	0.106
-179.027	494.490	0.137	-0.314
-178.012	-200.000	0.032	0.241
-176.998	800.000	-0.071	0.225
-175.983	582.528	0.032	-0.079
-174.969	90.434	-0.286	-0.320
-173.954	485.350	-0.117	-0.265
-172.939	205.604	0.094	-0.147
-171.925	-136.278	-0.221	-0.026
-170.910	-194.320	-0.257	0.002
-169.896	97.246	0.300	-0.343
-168.881	-200.000	-0.027	0.156
-167.866	65.122	0.208	0.210
-166.852	-6.905	-0.185	-0.126
-165.837	285.663	-0.031	-0.057
-164.823	-191.568	-0.297	0.003
-163.808	800.000	0.082	-0.278
-162.793	800.000	-0.031	0.123
-161.779	-37.095	-0.177	0.095
-160.764	68.753	0.176	0.180
-159.750	-120.578	0.310	-0.052
-158.735	-200.000	0.014	0.116
-157.720	-200.000	-0.012	-0.094
-156.706	50.183	0.116	0.109
-155.691	18.451	0.259	0.207
-154.677	66.678	-0.224	-0.228
-153.662	-58.445	-0.053	-0.023
-152.647	-119.726	0.206	-0.035
-151.633	456.908	-0.067	-0.149
-150.618	150.433	0.042	-0.057
-149.604	222.175	0.153	-0.246
-148.589	-117.187	-0.079	-0.014
-147.574	-200.000	0.014	0.195
-146.560	253.448	0.045	0.076
-145.545	5.154	-0.290	0.213
-144.531	21.102	-0.154	0.125
-143.516	-83.220	-0.057	-0.018
-142.502	-200.000	0.026	-0.203
-141.487	72.903	-0.080	-0.084
-140.472	-200.000	-0.013	0.076
-139.458	-21.636	0.112	0.068
-138.443	-200.000	0.052	0.306
-137.429	-18.683	0.219	0.136
-136.414	-139.066	-0.109	-0.012
-135.399	10.129	0.212	-0.161
-134.385	-105.597	-0.191	-0.043
-133.370	-111.733	0.119	0.024
-132.356	456.865	-0.116	-0.257
-131.341	-167.794	-0.051	-0.002
-130.326	-133.145	0.158	-0.020
-129.312	19.085	0.226	0.181
-128.297	800.000	-0.047	0.153
-127.283	12.619	0.063	0.049
-126.268	-3.961	-0.342	0.236
-125.253	49.910	0.111	-0.104
-124.239	66.098	-0.220	0.222
-123.224	150.140	-0.241	0.326
-122.210	800.000	-0.015	-0.057
-121.195	800.000	-0.047	0.174
-120.180	251.458	0.029	0.050
-119.166	-200.000	0.026	-0.115
-118.151	-33.297	-0.108	-0.060
-117.137	-115.049	0.141	-0.027
-116.122	148.190	-0.131	0.177
-115.107	-74.152	0.104	-0.037
-114.093	-200.000	0.007	0.243
-113.078	81.848	-0.048	0.052
-112.064	800.000	-0.075	-0.267
-111.049	-200.000	-0.007	-0.084
-110.034	-154.664	0.345	-0.023
-109.020	367.393	-0.073	-0.147
-108.005	-17.435	0.421	0.264
-106.991	-100.603	-0.207	-0.051
-105.976	17.006	-0.192	0.152
-104.962	-200.000	-0.014	0.175
-103.947	-136.121	0.153	0.018
-102.932	-16.115	-0.164	-0.104
-101.918	800.000	0.083	0.230
-100.903	322.911	-0.095	-0.180
-99.889	85.154	-0.278	-0.304
-98.874	-200.000	-0.036	-0.201
-97.859	191.518	-0.192	0.288
-96.845	10.375	-0.120	0.091
-95.830	800.000	0.050	0.180
-94.816	-200.000	0.005	0.151
-93.801	-200.000	0.020	0.166
-92.786	-72.769	0.051	-0.019
-91.772	310.229	0.101	0.188
-90.757	759.097	0.008	0.022
-89.743	13.064	-0.144	0.111
-88.728	-25.313	-0.246	0.145
-87.713	-53.967	0.148	0.067
-86.699	694.751	0.030	-0.079
-85.684	37.796	0.152	-0.135
-84.670	0.326	0.220	0.156
-83.655	38.954	-0.089	-0.079
-82.640	412.473	0.020	-0.042
-81.626	-200.000	0.056	-0.335
-80.611	106.889	0.151	-0.178
-79.597	-141.096	0.307	0.031
-78.582	213.901	0.036	0.057
-77.567	639.462	0.075	0.190
-76.553	521.520	-0.060	0.141
-75.538	193.312	-0.150	-0.225
-74.524	-200.000	-0.024	-0.136
-73.509	27.459	-0.284	0.238
-72.494	-200.000	-0.001	0.427
-71.480	498.066	-0.136	0.311
-70.465	-110.472	0.399	-0.082
-69.451	-108.385	0.265	0.057
-68.436	-111.494	0.249	0.050
-67.422	501.496	-0.125	0.286
-66.407	14.283	0.059	-0.046
-65.392	-127.205	0.233	0.034
-64.378	-74.395	0.155	0.055
-63.363	18.310	-0.068	-0.054
-62.349	-46.954	-0.136	-0.066
-61.334	29.562	-0.553	-0.467
-60.319	-72.015	0.345	0.128
-59.305	-200.000	0.090	-0.539
-58.290	613.343	0.364	0.907
-57.276	655.733	0.628	1.602
-56.261	-200.000	87.649	493.938
-55.246	525.710	1388.251	3248.828
-54.232	184.629	2599.122	3828.880
-53.217	118.316	2225.399	2728.287
-52.203	47.289	1753.659	1623.257
-51.188	40.481	1559.379	1395.653
-50.173	38.102	1530.969	1353.703
-49.159	54.427	1577.255	1509.897
-48.144	58.469	1597.147	1557.365
-47.130	41.108	1554.668	1395.615
-46.115	37.792	1539.422	1358.800
-45.100	37.603	1535.564	1354.021
-44.086	37.610	1533.513	1352.209
-43.071	37.537	1531.794	1350.137
-42.057	37.457	1530.094	1348.030
-41.042	37.501	1528.895	1347.222
-40.027	37.622	1526.819	1346.178
-39.013	37.557	1525.726	1344.711
-37.998	37.405	1524.865	1342.850
-36.984	37.508	1523.195	1342.038
-35.969	37.435	1522.233	1340.633
-34.954	37.498	1520.459	1339.451
-33.940	37.628	1519.356	1339.320
-32.925	37.467	1518.356	1337.277
-31.911	37.582	1516.557	1336.434
-30.896	37.627	1515.047	1335.356
-29.881	37.590	1513.821	1333.967
-28.867	37.631	1512.236	1332.799
-27.852	37.604	1511.131	1331.589
-26.838	37.480	1509.930	1329.632
-25.823	37.538	1507.559	1327.885
-24.809	37.487	1506.142	1326.234
-23.794	37.535	1504.462	1325.028
-22.779	37.486	1504.046	1324.277
-21.765	37.510	1502.797	1323.290
-20.750	37.562	1501.860	1322.764
-19.736	37.610	1500.375	1321.727
-18.721	37.562	1499.324	1320.428
-17.706	37.516	1498.089	1318.974
-16.692	37.503	1497.294	1318.134
-15.677	37.483	1496.416	1317.170
-14.663	37.443	1494.905	1315.521
-13.648	37.433	1493.844	1314.465
-12.633	37.476	1493.140	1314.083
-11.619	37.462	1491.861	1312.813
-10.604	37.425	1491.429	1312.133
-9.590	37.440	1490.238	1311.130
-8.575	37.458	1489.171	1310.266
-7.560	37.376	1488.413	1308.993
-6.546	37.458	1487.366	1308.573
-5.531	37.474	1486.432	1307.807
-4.517	37.481	1485.205	1306.718
-3.502	37.439	1484.476	1305.743
-2.487	37.482	1483.283	1304.933
-1.473	37.473	1481.905	1303.611
-0.458	37.450	1481.144	1302.732
0.556	37.233	1471.763	1291.951
1.571	34.304	1444.080	1248.380
2.586	30.269	1380.335	1167.832
3.600	28.095	1295.957	1083.486
4.615	26.311	1247.127	1032.386
5.629	22.352	1189.799	963.221
6.644	13.323	1103.013	846.854
7.659	6.154	1059.700	778.152
8.673	4.935	1053.650	767.637
9.688	5.117	1050.530	766.191
10.702	5.016	1049.296	764.727
11.717	5.082	1047.430	763.624
12.731	7.475	1050.162	777.277
13.746	15.723	1061.803	826.520
14.761	20.831	1067.913	856.385
15.775	19.930	1065.071	849.611
16.790	18.606	1063.276	841.609
17.804	17.473	1060.803	834.032
18.819	16.576	1058.583	827.824
19.834	16.184	1057.430	824.930
20.848	15.854	1056.262	822.337
21.863	15.633	1055.917	820.915
22.877	15.486	1054.636	819.128
23.892	15.213	1054.173	817.364
24.907	15.104	1053.577	816.302
25.921	15.142	1053.081	816.027
26.936	15.160	1051.747	815.009
27.950	15.139	1051.049	814.297
28.965	15.286	1049.643	813.849
29.980	15.348	1048.322	813.054
30.994	15.536	1047.398	813.173
32.009	15.462	1046.419	811.986
33.023	15.547	1045.622	811.702
34.038	15.444	1044.957	810.618
35.053	15.394	1044.038	809.591
36.067	15.369	1043.010	808.602
37.082	15.414	1041.800	807.812
38.096	15.320	1041.211	806.830
39.111	15.223	1041.077	806.190
40.126	15.426	1040.009	806.268
41.140	15.396	1039.111	805.352
42.155	15.349	1037.283	803.640
43.169	15.114	1036.537	801.869
44.184	14.958	1036.167	800.765
45.199	15.001	1034.452	799.572
46.213	14.985	1033.796	798.916
47.228	15.044	1032.616	798.216
48.242	15.235	1031.630	798.293
49.257	15.172	1030.705	797.210
50.271	15.214	1029.975	796.773
51.286	15.211	1028.798	795.776
52.301	15.325	1028.254	795.827
53.315	15.416	1026.906	795.147
54.330	15.284	1026.366	794.031
55.344	15.201	1025.466	792.871
56.359	15.257	1023.928	791.876
57.374	15.101	1023.526	790.762
58.388	15.040	1023.123	790.091
59.403	15.059	1022.162	789.367
60.417	15.039	1020.975	788.287
61.432	15.039	1020.245	787.656
62.447	15.047	1019.734	787.229
63.461	14.960	1018.929	786.125
64.476	14.802	1018.001	784.601
65.490	14.892	1016.943	784.137
66.505	15.033	1015.929	783.946
67.520	14.941	1015.120	782.820
68.534	14.973	1014.896	782.730
69.549	14.977	1013.564	781.650
70.563	14.960	1013.038	781.098
71.578	15.023	1011.822	780.385
72.593	14.941	1011.100	779.377
73.607	14.782	1010.449	778.065
74.622	14.745	1009.308	776.946
75.636	14.628	1008.878	776.000
76.651	14.766	1008.165	776.026
77.666	14.849	1007.124	775.542
78.680	14.856	1006.544	775.060
79.695	14.778	1005.871	774.109
80.709	14.862	1005.740	774.332
81.724	14.875	1004.866	773.651
82.739	15.057	1003.904	773.680
83.753	14.980	1002.913	772.493
84.768	15.134	1002.639	772.924
85.782	15.340	1001.623	773.022
86.797	15.513	1001.081	773.333
87.812	15.485	1000.314	772.545
88.826	15.259	999.482	770.795
89.841	15.289	999.041	770.524
90.855	15.196	998.218	769.391
91.870	15.285	997.395	769.099
92.884	15.394	996.441	768.797
93.899	15.410	995.403	767.998
94.914	15.432	994.880	767.628
95.928	15.286	994.169	766.344
96.943	15.445	993.639	766.595
97.957	15.320	992.720	765.247
98.972	15.328	991.860	764.555
99.987	15.328	991.119	763.916
101.001	15.421	990.291	763.632
102.016	15.387	989.803	763.033
103.030	15.249	988.767	761.539
104.045	15.448	987.434	761.350
105.060	15.495	986.422	760.714
106.074	15.336	985.708	759.376
107.089	15.303	984.736	758.410
108.103	14.990	984.246	756.550
109.118	14.960	983.078	755.451
110.133	14.947	982.188	754.641
111.147	15.019	981.001	753.986
112.162	14.998	980.350	753.328
113.176	15.057	979.555	752.912
114.191	14.885	979.271	751.854
115.206	15.158	977.607	751.739
116.220	15.111	977.239	751.176
117.235	15.035	976.650	750.317
118.249	15.107	975.620	749.781
119.264	15.137	974.550	749.028
120.279	14.898	974.517	747.869
121.293	14.890	973.241	746.785
122.308	15.037	971.978	746.405
123.322	14.997	971.450	745.754
124.337	14.848	970.763	744.500
125.352	14.902	969.272	743.532
126.366	14.914	967.913	742.475
127.381	14.933	966.862	741.686
128.395	14.851	966.226	740.770
129.410	15.039	965.113	740.684
130.424	14.984	964.385	739.816
131.439	14.979	963.675	739.185
132.454	15.176	962.847	739.351
133.468	15.194	962.114	738.803
134.483	15.205	961.514	738.326
135.497	15.293	960.787	738.089
136.512	15.051	960.262	736.558
137.527	15.181	959.463	736.449
138.541	15.228	958.190	735.613
139.556	15.207	958.148	735.425
140.570	15.152	957.375	734.524
141.585	15.285	956.370	734.273
142.600	15.207	956.229	733.758
143.614	15.354	955.624	733.871
144.629	15.306	954.795	732.959
145.643	15.598	953.289	733.011
146.658	15.351	952.855	731.536
147.673	15.242	951.779	730.171
148.687	15.299	950.942	729.712
149.702	15.272	949.849	728.694
150.716	15.096	949.275	727.425
151.731	15.058	948.606	726.682
152.746	15.134	947.314	725.958
153.760	15.238	946.542	725.748
154.775	15.170	945.746	724.782
155.789	15.369	944.991	724.999
156.804	15.442	944.121	724.582
157.819	15.393	943.652	723.946
158.833	15.303	943.286	723.213
159.848	15.351	943.008	723.143
160.862	15.501	941.602	722.648
161.877	15.551	941.009	722.342
162.892	15.342	940.171	720.738
163.906	15.194	939.216	719.306
164.921	15.192	938.342	718.564
165.935	15.417	937.436	718.773
166.950	15.301	936.007	717.118
167.964	15.358	935.716	717.075
168.979	15.371	934.346	716.017
169.994	15.295	933.662	715.105
171.008	15.240	932.751	714.109
172.023	15.319	931.740	713.607
173.037	15.332	931.128	713.133
174.052	15.523	930.345	713.281
175.067	15.430	929.833	712.431
176.081	15.372	929.160	711.607
177.096	15.266	927.824	710.071
178.110	15.247	927.090	709.367
179.125	15.391	926.141	709.185
180.140	15.352	925.864	708.747
181.154	15.260	925.287	707.854
182.169	15.394	924.713	707.915
183.183	15.464	924.025	707.622
184.198	15.491	923.125	706.984
185.213	15.660	922.570	707.206
186.227	15.566	921.969	706.290
187.242	15.562	921.337	705.725
188.256	15.645	921.112	705.839
189.271	15.697	920.256	705.338
190.286	15.837	918.814	704.756
191.300	15.624	918.457	703.531
192.315	15.356	917.365	701.512
193.329	15.245	916.974	700.687
194.344	15.291	916.105	700.151
195.359	15.385	915.417	699.955
196.373	15.450	914.847	699.728
197.388	15.552	914.663	699.952
198.402	15.690	914.318	700.201
199.417	15.798	913.663	700.086
200.432	15.903	913.296	700.179
201.446	15.918	912.542	699.601
202.461	15.866	912.468	699.268
203.475	15.845	912.053	698.802
204.490	15.983	911.285	698.722
205.504	15.812	910.641	697.458
206.519	15.876	909.295	696.629
207.534	15.748	908.896	695.733
208.548	15.736	908.531	695.344
209.563	15.718	907.553	694.457
210.577	15.819	906.419	693.945
211.592	15.872	906.033	693.808
212.607	15.862	905.683	693.437
213.621	16.050	905.140	693.734
214.636	15.908	904.195	692.365
215.650	15.874	903.718	691.796
216.665	15.850	903.202	691.245
217.680	15.957	902.530	691.105
218.694	16.059	901.908	690.989
219.709	16.212	901.738	691.421
220.723	16.005	901.013	689.958
221.738	16.005	899.826	688.986
222.753	16.064	899.616	689.008
223.767	16.077	898.485	688.135
224.782	16.115	897.856	687.746
225.796	16.125	897.435	687.404
226.811	16.226	896.575	687.097
227.826	16.190	895.894	686.367
228.840	16.085	895.245	685.383
229.855	16.011	894.590	684.520
230.869	16.080	894.046	684.322
231.884	16.145	892.955	683.690
232.899	15.966	892.822	682.802
233.913	15.910	891.966	681.861
234.928	15.966	890.725	681.076
235.942	15.994	890.370	680.859
236.957	15.820	889.772	679.638
237.972	16.031	888.765	679.661
238.986	16.023	888.388	679.280
240.001	15.967	888.112	678.783
241.015	15.910	887.207	677.803
242.030	16.154	886.419	678.121
243.045	16.220	885.749	677.812
244.059	16.125	885.083	676.861
245.074	16.152	884.518	676.478
246.088	16.208	883.697	676.017
247.103	16.394	883.425	676.491
248.117	16.474	882.812	676.285
249.132	16.443	882.244	675.664
250.147	16.637	881.612	675.894
251.161	16.609	881.229	675.430
252.176	16.634	880.904	675.220
253.190	16.724	880.051	674.866
254.205	16.833	879.199	674.587
255.220	16.756	878.914	674.002
256.234	16.840	877.884	673.489
257.249	16.752	877.335	672.655
258.263	16.862	876.717	672.560
259.278	16.787	876.273	671.862
260.293	16.944	875.472	671.812
261.307	16.920	875.084	671.357
262.322	16.847	874.594	670.634
263.336	16.995	873.909	670.636
264.351	16.971	873.391	670.084
265.366	17.055	872.476	669.653
266.380	16.999	872.020	669.022
267.395	16.962	871.036	668.062
268.409	16.873	870.684	667.383
269.424	16.925	869.919	666.943
270.439	16.834	869.353	666.092
271.453	16.871	868.532	665.548
272.468	16.835	867.522	664.578
273.482	16.783	867.327	664.163
274.497	16.782	866.607	663.549
275.512	16.729	866.033	662.845
276.526	16.928	864.565	662.440
277.541	16.956	864.350	662.326
278.555	16.926	864.191	662.028
279.570	16.879	863.627	661.353
280.585	17.031	862.976	661.390
281.599	17.089	862.713	661.356
282.614	16.968	862.004	660.282
283.628	16.929	861.433	659.636
284.643	17.021	860.727	659.395
285.657	17.115	859.921	659.082
286.672	16.931	860.052	658.409
287.687	17.041	859.107	658.055
288.701	17.040	858.972	657.891
289.716	17.120	857.908	657.327
290.730	17.080	857.555	656.841
291.745	17.176	856.769	656.552
292.760	17.211	855.907	655.968
293.774	17.181	855.162	655.227
294.789	17.198	855.174	655.242
295.803	17.245	854.454	654.813
296.818	17.088	853.880	653.712
297.833	17.102	853.137	653.136
298.847	17.210	852.050	652.664
299.862	17.085	851.762	651.904
300.876	17.101	850.792	651.166
301.891	17.219	850.469	651.312
302.906	17.234	849.936	650.905
303.920	17.492	848.954	651.084
304.935	17.378	848.435	650.190
305.949	17.477	848.114	650.267
306.964	17.382	847.656	649.495
307.979	17.539	846.291	648.990
308.993	17.354	846.198	648.155
310.008	17.441	845.809	648.130
311.022	17.474	845.364	647.859
312.037	17.588	844.789	647.794
313.052	17.467	844.046	646.708
314.066	17.332	843.504	645.721
315.081	17.230	842.696	644.660
316.095	17.395	842.000	644.698
317.110	17.452	841.641	644.581
318.125	17.535	841.078	644.406
319.139	17.315	840.650	643.189
320.154	17.395	840.223	643.108
321.168	17.368	839.699	642.546
322.183	17.218	839.353	641.659
323.197	17.339	838.963	641.761
324.212	17.464	838.236	641.619
325.227	17.467	837.508	641.015
326.241	17.539	837.080	640.903
327.256	17.381	836.615	639.896
328.270	17.419	835.944	639.469
329.285	17.398	835.178	638.750
330.300	17.539	834.279	638.534
331.314	17.426	834.373	638.123
332.329	17.586	833.267	637.819
333.343	17.420	832.964	636.912
334.358	17.712	832.394	637.511
335.373	17.640	831.710	636.663
336.387	17.706	830.964	636.280
337.402	17.733	830.692	636.116
338.416	17.583	830.379	635.262
339.431	17.879	829.721	635.806
340.446	17.899	829.008	635.277
341.460	17.906	828.753	635.052
342.475	18.021	828.156	634.966
343.489	17.844	827.738	633.932
344.504	18.059	827.017	634.121
345.519	18.082	826.594	633.826
346.533	18.063	826.276	633.456
347.548	18.052	825.842	633.024
348.562	18.146	824.705	632.444
349.577	17.885	824.537	631.295
350.592	17.847	823.618	630.394
351.606	17.867	823.041	629.971
352.621	17.826	822.762	629.550
353.635	17.775	822.448	629.069
354.650	17.910	821.761	628.984
355.665	17.964	821.691	629.074
356.679	18.189	820.922	629.257
357.694	18.133	820.845	628.936
358.708	18.064	819.978	627.964
359.723	17.961	819.582	627.225
360.738	18.052	818.869	626.960
361.752	17.998	818.556	626.464
362.767	18.034	818.274	626.325
363.781	18.165	818.030	626.562
364.796	18.110	817.472	625.880
365.810	18.154	817.470	625.985
366.825	18.360	816.851	626.207
367.840	18.305	816.520	625.696
368.854	18.309	815.829	625.126
369.869	18.428	815.462	625.223
370.883	18.312	814.739	624.191
371.898	18.257	814.248	623.560
372.913	18.445	813.472	623.595
373.927	18.506	812.681	623.157
374.942	18.422	812.200	622.428
375.956	18.333	812.021	621.912
376.971	18.450	811.415	621.817
377.986	18.509	810.865	621.555
379.000	18.638	809.943	621.260
380.015	18.599	809.525	620.743
381.029	18.625	809.163	620.505
382.044	18.568	808.468	619.709
383.059	18.590	808.021	619.393
384.073	18.599	807.448	618.931
385.088	18.587	807.174	618.623
386.102	18.455	806.409	617.506
387.117	18.371	806.036	616.862
388.132	18.581	805.384	617.064
389.146	18.438	804.887	616.117
390.161	18.308	804.867	615.580
391.175	18.713	804.033	616.340
392.190	18.621	803.833	615.802
393.205	18.625	803.347	615.389
394.219	18.484	803.040	614.593
395.234	18.397	802.766	614.019
396.248	18.565	801.745	613.784
397.263	18.271	801.464	612.463
398.278	18.333	800.607	611.978
399.292	18.317	800.505	611.787
400.307	18.316	800.118	611.432
401.321	18.482	799.474	611.480
402.336	18.469	799.016	611.030
403.350	18.696	798.491	611.380
404.365	18.611	798.313	610.887
405.380	18.631	797.828	610.533
406.394	18.693	797.805	610.683
407.409	18.688	796.863	609.892
408.423	18.994	796.272	610.470
409.438	18.930	796.165	610.106
410.453	18.888	795.621	609.487
411.467	19.014	795.013	609.415
412.482	19.018	795.007	609.368
413.496	19.168	794.204	609.232
414.511	19.122	793.917	608.794
415.526	18.926	793.889	608.028
416.540	19.112	793.306	608.183
417.555	19.065	792.927	607.671
418.569	18.968	792.193	606.713
419.584	19.081	791.703	606.684
420.599	19.116	791.373	606.500
421.613	152.215	1366.773	1781.689
422.628	131.601	1450.637	1781.775
