DTS Sentinel unit serial number:	SN413079Multiplexer serial number:	ORYXHardware model number:	OX4-SRSoftware version number:	ORYX F/W v4.00 Oryx Data Collector v3.7.2.0data status	okinstallation	princeton_trtdifferential loss correction	single-endedforward channel	channel 3reverse channel	N/Adate	2019/09/12time	14:18:10forward acquisition time	60.00reverse acquisition time	0.00gamma	496.2192k internal	0.2294k external	0.2294temperature offset calibration	1.0052default loss term (dB/km)	0.3790temperature slope calibration	1.0000multiplexer offset coefficient	1.0000multiplexer slope coefficient	1.0000fibre end	0.00T internal ref (°C)	40.23T ext. ref 1 (°C)	2.24T ext. ref 2 (°C)	35.00length (m)	temperature (°C)	Stokes	anti-Stokes-747.200	-88.398	-0.139	-0.042
-746.185	25.947	0.130	0.111
-745.171	18.467	0.177	-0.145
-744.156	-200.000	0.022	-0.314
-743.142	335.039	-0.087	-0.173
-742.127	-74.235	-0.261	0.096
-741.112	167.448	-0.081	-0.118
-740.098	800.000	-0.063	0.189
-739.083	-151.730	0.298	-0.022
-738.069	170.425	-0.141	0.206
-737.054	-200.000	-0.047	0.215
-736.039	-70.504	-0.450	-0.174
-735.025	379.049	-0.209	0.438
-734.010	49.244	0.110	-0.105
-732.996	1.755	-0.207	-0.152
-731.981	-200.000	-0.057	-0.400
-730.966	152.900	0.190	-0.265
-729.952	-126.529	0.363	0.055
-728.937	-87.793	0.233	-0.072
-727.923	12.576	-0.183	-0.144
-726.908	-57.721	0.295	0.132
-725.894	-200.000	0.001	-0.257
-724.879	171.950	-0.136	-0.199
-723.864	32.455	0.142	0.125
-722.850	-200.000	-0.002	0.079
-721.835	110.978	-0.142	0.175
-720.821	76.261	0.018	-0.020
-719.806	-135.611	0.264	-0.032
-718.791	714.306	-0.114	-0.310
-717.777	-110.031	-0.168	-0.036
-716.762	-200.000	-0.002	-0.226
-715.748	41.412	0.066	-0.061
-714.733	-200.000	-0.005	0.112
-713.718	-130.187	-0.068	-0.010
-712.704	800.000	0.104	-0.411
-711.689	-200.000	-0.024	-0.156
-710.675	222.206	0.105	0.173
-709.660	800.000	0.097	-0.285
-708.645	467.617	-0.042	0.096
-707.631	800.000	0.027	-0.084
-706.616	800.000	0.056	-0.178
-705.602	383.457	-0.033	0.069
-704.587	-118.893	0.371	0.067
-703.572	-200.000	0.044	0.438
-702.558	800.000	-0.040	-0.171
-701.543	2.801	-0.073	0.054
-700.529	374.370	-0.174	0.362
-699.514	303.452	-0.050	-0.094
-698.499	260.486	0.140	-0.246
-697.485	-57.277	0.233	0.105
-696.470	-119.138	-0.189	-0.034
-695.456	-105.421	0.176	0.041
-694.441	800.000	0.147	-0.422
-693.426	-200.000	0.163	-0.000
-692.412	-143.295	0.199	-0.019
-691.397	56.017	0.136	-0.134
-690.383	97.495	-0.223	0.261
-689.368	-100.074	-0.074	-0.019
-688.354	261.797	-0.230	-0.407
-687.339	-117.428	0.270	0.050
-686.324	-47.665	0.237	0.117
-685.310	430.663	0.052	-0.115
-684.295	-132.063	0.153	-0.020
-683.281	207.783	0.066	0.105
-682.266	46.603	0.225	0.213
-681.251	558.385	-0.025	0.061
-680.237	84.319	0.170	-0.189
-679.222	86.536	-0.053	-0.060
-678.208	-32.936	0.139	-0.079
-677.193	-41.685	-0.166	0.087
-676.178	589.183	0.112	-0.282
-675.164	-3.162	0.089	0.064
-674.149	-56.802	-0.150	-0.068
-673.135	-107.093	-0.086	0.019
-672.120	-16.992	0.169	-0.109
-671.105	-200.000	-0.003	-0.081
-670.091	800.000	0.010	-0.041
-669.076	426.912	-0.146	-0.322
-668.062	-83.288	0.203	-0.066
-667.047	-56.246	0.080	0.036
-666.032	-46.477	0.228	-0.114
-665.018	-29.209	-0.126	-0.074
-664.003	213.301	0.107	0.173
-662.989	286.354	0.072	0.133
-661.974	-117.770	-0.241	-0.044
-660.959	-100.345	-0.118	0.030
-659.945	269.894	-0.080	0.144
-658.930	-90.890	0.401	0.118
-657.916	-31.381	-0.230	0.132
-656.901	800.000	0.096	0.398
-655.886	-154.384	-0.041	0.003
-654.872	-94.368	-0.609	-0.169
-653.857	246.357	-0.141	0.242
-652.843	-99.048	0.276	0.071
-651.828	-200.000	0.000	0.297
-650.814	8.781	-0.184	-0.141
-649.799	-175.932	0.302	-0.008
-648.784	340.542	0.067	0.133
-647.770	315.965	0.069	-0.133
-646.755	107.658	-0.089	-0.108
-645.741	-31.928	0.151	-0.086
-644.726	-74.212	-0.228	0.084
-643.711	-200.000	-0.017	-0.477
-642.697	155.427	0.173	0.243
-641.682	-16.748	-0.133	0.086
-640.668	-68.846	0.264	0.104
-639.653	-113.113	-0.357	-0.072
-638.638	-120.645	-0.284	-0.049
-637.624	143.953	0.117	0.160
-636.609	-101.953	-0.425	0.105
-635.595	-71.097	0.061	0.023
-634.580	-60.129	0.189	0.082
-633.565	-200.000	-0.021	0.139
-632.551	-200.000	-0.032	-0.275
-631.536	-200.000	-0.022	-0.150
-630.522	-104.346	0.251	-0.059
-629.507	82.142	-0.088	0.097
-628.492	30.322	-0.249	0.217
-627.478	-200.000	0.021	0.224
-626.463	17.338	-0.185	0.150
-625.449	-200.000	-0.004	-0.286
-624.434	356.874	0.129	-0.261
-623.419	-163.185	-0.216	-0.011
-622.405	800.000	-0.080	0.224
-621.390	-84.289	-0.088	0.028
-620.376	13.681	0.192	0.152
-619.361	800.000	-0.095	-0.289
-618.346	800.000	-0.027	-0.101
-617.332	-200.000	0.028	-0.337
-616.317	800.000	-0.080	-0.274
-615.303	588.387	-0.075	0.188
-614.288	30.672	-0.067	0.058
-613.273	-92.883	-0.082	0.023
-612.259	-79.761	-0.183	-0.063
-611.244	-140.979	0.255	-0.027
-610.230	-200.000	0.008	-0.133
-609.215	94.154	-0.027	0.031
-608.201	-59.687	0.362	0.158
-607.186	-96.444	0.202	0.054
-606.171	1.462	-0.120	0.087
-605.157	-97.993	0.121	0.032
-604.142	-134.317	-0.248	0.031
-603.128	155.724	0.117	0.164
-602.113	-15.252	0.277	0.180
-601.098	69.224	0.210	-0.220
-600.084	240.020	-0.055	-0.093
-599.069	-28.596	-0.237	-0.139
-598.055	-47.172	-0.208	-0.103
-597.040	-200.000	0.024	0.188
-596.025	800.000	0.080	-0.243
-595.011	-83.174	-0.204	-0.067
-593.996	800.000	0.081	-0.333
-592.982	47.726	0.245	0.232
-591.967	-41.345	0.136	0.071
-590.952	-200.000	0.056	0.250
-589.938	80.326	0.096	-0.105
-588.923	-141.226	-0.164	0.017
-587.909	-127.439	-0.124	-0.018
-586.894	-41.835	-0.186	0.097
-585.879	-24.832	-0.184	-0.111
-584.865	32.603	-0.129	0.113
-583.850	-17.652	-0.193	0.124
-582.836	-186.720	-0.241	-0.003
-581.821	402.551	0.134	-0.286
-580.806	135.009	-0.239	-0.315
-579.792	-121.990	0.296	-0.049
-578.777	-126.694	-0.266	0.040
-577.763	-154.862	-0.395	0.027
-576.748	-70.922	0.081	-0.031
-575.733	800.000	-0.090	-0.361
-574.719	-129.581	0.161	-0.023
-573.704	-89.812	-0.310	0.092
-572.690	-200.000	-0.024	0.153
-571.675	-82.698	-0.445	0.146
-570.661	-95.095	-0.216	0.059
-569.646	-26.974	-0.154	0.091
-568.631	-200.000	0.049	0.357
-567.617	165.728	-0.086	0.124
-566.602	-32.120	0.009	-0.005
-565.588	106.280	0.142	-0.171
-564.573	156.379	-0.046	-0.065
-563.558	74.080	0.180	0.192
-562.544	-131.628	-0.272	0.036
-561.529	248.693	0.086	-0.149
-560.515	800.000	0.089	-0.299
-559.500	426.305	0.052	-0.114
-558.485	-126.239	-0.332	-0.050
-557.471	-77.627	0.088	-0.031
-556.456	271.560	-0.171	-0.305
-555.442	-200.000	-0.006	-0.072
-554.427	108.124	-0.152	0.184
-553.412	189.288	-0.126	-0.192
-552.398	-78.522	0.305	0.106
-551.383	800.000	-0.105	0.320
-550.369	-200.000	-0.019	-0.258
-549.354	-48.698	-0.347	0.169
-548.339	-117.556	-0.069	0.013
-547.325	-109.693	0.129	0.028
-546.310	800.000	0.046	0.132
-545.296	440.510	0.110	-0.244
-544.281	-108.313	0.332	-0.073
-543.266	208.095	-0.093	-0.148
-542.252	800.000	-0.078	-0.242
-541.237	-26.232	-0.235	0.140
-540.223	67.502	0.155	0.161
-539.208	-200.000	0.015	-0.118
-538.193	20.757	0.194	-0.160
-537.179	-40.743	0.309	0.163
-536.164	570.494	-0.081	-0.199
-535.150	-54.442	-0.185	0.085
-534.135	-78.765	0.285	-0.099
-533.121	-144.718	0.096	-0.009
-532.106	-200.000	-0.039	-0.228
-531.091	-16.879	-0.113	0.073
-530.077	-112.889	-0.041	-0.008
-529.062	598.076	0.186	-0.468
-528.048	380.778	-0.124	-0.258
-527.033	674.213	-0.019	0.050
-526.018	-36.613	-0.273	-0.149
-525.004	196.001	-0.233	0.360
-523.989	163.841	-0.082	-0.117
-522.975	-54.729	0.247	-0.113
-521.960	-200.000	0.097	-0.487
-520.945	263.787	-0.169	-0.298
-519.931	-178.114	0.227	0.005
-518.916	-54.162	-0.029	0.013
-517.902	-200.000	0.013	0.131
-516.887	-200.000	0.025	-0.266
-515.872	170.143	-0.097	0.141
-514.858	412.784	0.136	-0.292
-513.843	800.000	-0.051	-0.185
-512.829	-200.000	-0.015	-0.109
-511.814	-200.000	0.027	-0.208
-510.799	-39.935	-0.165	0.087
-509.785	-16.904	-0.094	-0.060
-508.770	-68.406	0.382	0.150
-507.756	-100.995	0.279	-0.069
-506.741	289.257	-0.064	-0.117
-505.726	-34.551	0.187	-0.104
-504.712	-200.000	0.036	-0.191
-503.697	185.775	-0.073	0.110
-502.683	-69.738	0.114	0.044
-501.668	-87.019	0.035	-0.011
-500.653	800.000	-0.019	0.069
-499.639	-11.381	0.041	0.027
-498.624	35.382	0.282	-0.251
-497.610	161.390	0.194	-0.275
-496.595	-77.498	0.251	-0.088
-495.581	1.763	-0.096	-0.070
-494.566	-138.690	-0.129	-0.014
-493.551	697.619	0.094	0.251
-492.537	28.650	0.158	0.135
-491.522	-200.000	0.007	0.174
-490.508	-200.000	-0.003	-0.216
-489.493	-62.658	0.025	0.010
-488.478	-173.028	0.191	-0.006
-487.464	-63.665	0.154	-0.064
-486.449	-144.468	0.237	0.022
-485.435	213.577	0.092	-0.147
-484.420	-179.374	-0.251	0.006
-483.405	-200.000	0.021	0.098
-482.391	800.000	-0.047	0.197
-481.376	-200.000	-0.005	-0.273
-480.362	-111.943	0.322	-0.066
-479.347	-73.937	-0.207	-0.076
-478.332	747.197	0.167	-0.456
-477.318	-93.453	-0.169	-0.047
-476.303	240.116	0.107	0.180
-475.289	178.526	-0.045	-0.067
-474.274	-200.000	-0.004	0.058
-473.259	800.000	-0.096	-0.356
-472.245	40.953	0.160	0.146
-471.230	494.085	-0.019	0.045
-470.216	-2.424	-0.036	0.026
-469.201	435.240	0.199	0.437
-468.186	-200.000	0.011	-0.366
-467.172	126.933	0.247	-0.316
-466.157	-167.708	0.411	-0.016
-465.143	-68.535	-0.370	-0.145
-464.128	80.021	0.097	-0.105
-463.113	120.493	-0.255	0.320
-462.099	-200.000	0.051	0.302
-461.084	0.902	-0.141	0.102
-460.070	383.081	0.070	0.146
-459.055	800.000	0.098	-0.356
-458.040	800.000	-0.017	-0.051
-457.026	132.110	0.122	0.159
-456.011	-200.000	-0.018	0.105
-454.997	308.786	-0.067	0.126
-453.982	294.235	-0.086	-0.159
-452.968	11.247	0.187	-0.145
-451.953	8.743	0.242	0.185
-450.938	563.228	-0.104	-0.255
-449.924	426.231	0.187	-0.407
-448.909	199.248	-0.134	0.208
-447.895	29.035	0.315	0.270
-446.880	-13.656	0.156	-0.102
-445.865	8.514	-0.294	-0.224
-444.851	800.000	-0.044	0.191
-443.836	-73.971	0.150	0.055
-442.822	264.846	0.185	0.326
-441.807	-3.459	0.176	-0.124
-440.792	-92.582	-0.290	-0.082
-439.778	45.961	-0.050	-0.047
-438.763	800.000	-0.036	0.108
-437.749	221.894	-0.180	-0.293
-436.734	293.989	0.193	-0.357
-435.719	36.563	0.029	0.026
-434.705	142.328	0.161	-0.216
-433.690	-63.952	-0.115	-0.047
-432.676	-154.356	-0.391	-0.027
-431.661	800.000	-0.109	-0.348
-430.646	-200.000	-0.063	0.295
-429.632	-16.441	-0.273	-0.175
-428.617	-141.548	-0.244	0.025
-427.603	-200.000	0.029	-0.285
-426.588	-38.507	-0.245	-0.131
-425.573	49.994	0.239	-0.228
-424.559	-91.894	-0.300	0.086
-423.544	-200.000	0.021	-0.233
-422.530	-200.000	-0.031	0.204
-421.515	-200.000	0.008	-0.049
-420.500	-66.369	0.136	-0.055
-419.486	130.275	-0.105	-0.136
-418.471	-41.936	-0.271	-0.140
-417.457	800.000	0.102	-0.355
-416.442	99.406	-0.254	0.297
-415.428	-200.000	0.056	0.265
-414.413	62.043	-0.095	-0.096
-413.398	-47.900	0.212	0.104
-412.384	20.939	0.281	-0.230
-411.369	-163.347	-0.041	-0.002
-410.355	-1.013	0.050	0.036
-409.340	583.126	-0.053	0.132
-408.325	-144.442	0.183	-0.017
-407.311	130.313	0.236	-0.305
-406.296	93.556	0.088	-0.101
-405.282	676.519	-0.090	-0.237
-404.267	-86.699	-0.154	-0.048
-403.252	297.011	-0.155	0.287
-402.238	-94.011	0.272	0.075
-401.223	-200.000	0.000	-0.058
-400.209	9.085	-0.105	-0.080
-399.194	-60.114	-0.115	0.049
-398.179	800.000	-0.070	-0.213
-397.165	-95.164	-0.309	0.084
-396.150	800.000	-0.024	-0.084
-395.136	-139.534	-0.272	0.029
-394.121	110.539	0.132	0.160
-393.106	330.441	-0.097	0.188
-392.092	-200.000	0.002	0.192
-391.077	615.745	-0.058	0.148
-390.063	800.000	0.028	-0.095
-389.048	800.000	-0.018	0.052
-388.033	689.143	-0.052	0.138
-387.019	-200.000	-0.033	0.301
-386.004	101.933	-0.097	-0.115
-384.990	96.765	0.064	-0.074
-383.975	39.344	-0.258	-0.233
-382.960	-22.957	0.131	0.080
-381.946	-74.593	0.054	-0.020
-380.931	800.000	0.024	-0.086
-379.917	-86.571	0.135	0.042
-378.902	-9.342	0.063	-0.043
-377.888	-99.306	0.301	0.077
-376.873	-62.390	0.123	0.051
-375.858	800.000	0.072	0.294
-374.844	-200.000	0.022	0.268
-373.829	800.000	-0.149	0.479
-372.815	25.765	-0.182	0.153
-371.800	47.279	-0.066	0.062
-370.785	-200.000	-0.000	0.193
-369.771	408.394	-0.040	0.086
-368.756	165.122	0.066	0.094
-367.742	106.481	0.235	0.281
-366.727	49.028	-0.313	-0.296
-365.712	800.000	0.115	-0.489
-364.698	-152.615	-0.264	-0.019
-363.683	497.855	-0.182	-0.423
-362.669	-47.864	-0.202	-0.098
-361.654	217.930	0.119	0.191
-360.639	-68.940	-0.077	-0.030
-359.625	-62.631	0.124	-0.052
-358.610	-141.683	-0.051	-0.005
-357.596	165.577	-0.270	0.385
-356.581	800.000	0.088	0.286
-355.566	557.059	0.124	-0.302
-354.552	137.812	0.129	0.170
-353.537	435.078	-0.109	0.239
-352.523	-187.621	-0.158	-0.002
-351.508	572.143	0.112	0.274
-350.493	41.169	0.026	-0.024
-349.479	-16.798	-0.121	0.077
-348.464	40.969	-0.100	-0.090
-347.450	-56.903	0.105	-0.047
-346.435	-71.049	-0.392	0.149
-345.420	800.000	-0.057	-0.253
-344.406	-114.620	0.154	-0.030
-343.391	-78.353	0.218	0.075
-342.377	800.000	-0.127	-0.402
-341.362	-200.000	-0.049	0.435
-340.348	800.000	0.055	0.237
-339.333	-200.000	-0.026	-0.168
-338.318	-65.820	-0.241	0.097
-337.304	-46.912	-0.152	-0.075
-336.289	-124.930	0.177	0.027
-335.275	-200.000	-0.059	0.340
-334.260	-78.068	0.193	0.067
-333.245	56.837	0.142	-0.139
-332.231	-24.345	-0.082	-0.049
-331.216	210.405	-0.156	-0.246
-330.202	800.000	-0.079	0.333
-329.187	234.884	-0.066	0.109
-328.172	-200.000	-0.059	0.420
-327.158	-25.135	-0.301	0.179
-326.143	800.000	-0.085	-0.347
-325.129	-66.647	0.297	0.118
-324.114	-59.497	-0.260	-0.112
-323.099	-200.000	0.018	0.284
-322.085	635.490	0.061	-0.156
-321.070	-200.000	-0.021	-0.126
-320.056	-103.964	-0.286	-0.067
-319.041	73.539	-0.159	-0.168
-318.026	76.867	0.152	-0.162
-317.012	-200.000	0.024	-0.224
-315.997	-200.000	-0.025	-0.215
-314.983	-200.000	0.449	-0.001
-313.968	577.612	0.077	-0.189
-312.953	-88.163	0.377	-0.113
-311.939	4.811	-0.109	-0.081
-310.924	-166.240	-0.165	-0.007
-309.910	582.172	-0.120	-0.297
-308.895	-200.000	0.014	-0.183
-307.880	682.001	-0.046	0.119
-306.866	0.773	-0.112	0.080
-305.851	-110.144	-0.205	0.043
-304.837	800.000	-0.074	0.262
-303.822	-200.000	-0.036	-0.261
-302.807	166.642	-0.073	0.104
-301.793	225.366	0.201	0.328
-300.778	-120.052	0.230	0.040
-299.764	-94.976	0.201	-0.055
-298.749	716.890	0.100	0.267
-297.735	191.403	0.072	0.109
-296.720	-34.554	-0.159	-0.087
-295.705	224.931	0.056	0.091
-294.691	49.144	-0.135	-0.128
-293.676	-168.669	0.611	-0.023
-292.662	-59.678	0.208	-0.090
-291.647	-16.540	0.276	-0.176
-290.632	-149.380	0.177	-0.014
-289.618	-123.555	-0.278	-0.044
-288.603	-200.000	-0.003	-0.100
-287.589	-132.080	0.074	-0.010
-286.574	-147.789	0.307	0.026
-285.559	275.944	0.098	-0.175
-284.545	90.723	-0.151	0.170
-283.530	-55.823	-0.081	-0.036
-282.516	103.679	-0.058	0.068
-281.501	-85.449	-0.176	-0.055
-280.486	242.358	0.128	-0.215
-279.472	800.000	0.076	0.297
-278.457	444.306	-0.076	0.168
-277.443	800.000	-0.066	0.253
-276.428	-43.343	0.231	0.118
-275.413	-27.367	-0.051	0.030
-274.399	-92.247	-0.152	0.043
-273.384	145.636	0.230	0.310
-272.370	382.749	0.055	-0.114
-271.355	-119.534	-0.236	0.041
-270.340	174.198	0.140	0.203
-269.326	-37.105	-0.163	-0.087
-268.311	-106.172	0.254	-0.057
-267.297	800.000	-0.070	0.272
-266.282	87.850	-0.125	0.139
-265.267	466.685	0.050	-0.113
-264.253	-72.011	0.210	-0.078
-263.238	-34.000	0.338	0.186
-262.224	-119.071	0.123	-0.022
-261.209	-151.599	-0.176	0.013
-260.195	-200.000	-0.032	-0.169
-259.180	128.923	0.133	0.171
-258.165	-89.420	-0.227	0.067
-257.151	626.141	0.115	0.292
-256.136	427.366	0.159	-0.344
-255.122	800.000	0.083	0.255
-254.107	-85.171	0.245	0.077
-253.092	-200.000	0.053	0.247
-252.078	-200.000	0.008	-0.056
-251.063	476.943	0.197	-0.448
-250.049	373.954	-0.127	0.260
-249.034	21.232	-0.122	-0.100
-248.019	-168.643	-0.180	-0.007
-247.005	800.000	0.113	-0.328
-245.990	-200.000	-0.045	-0.228
-244.976	63.798	-0.337	0.340
-243.961	-152.929	0.250	-0.018
-242.946	13.107	-0.087	0.068
-241.932	-178.360	0.588	0.014
-240.917	25.551	-0.249	0.208
-239.903	11.899	-0.177	0.136
-238.888	489.594	0.118	0.271
-237.873	186.705	0.042	0.062
-236.859	142.984	0.155	-0.206
-235.844	-22.618	-0.110	0.067
-234.830	-42.357	0.174	-0.089
-233.815	52.182	-0.183	-0.175
-232.800	70.744	0.232	0.241
-231.786	348.061	-0.125	0.247
-230.771	325.921	0.220	0.422
-229.757	-111.185	0.265	-0.054
-228.742	-27.258	0.244	0.142
-227.727	77.451	0.023	-0.024
-226.713	-153.169	-0.165	-0.012
-225.698	337.582	0.062	0.121
-224.684	64.334	0.116	-0.117
-223.669	-149.390	0.094	0.008
-222.655	244.890	-0.073	-0.123
-221.640	316.121	-0.104	-0.196
-220.625	800.000	0.064	-0.261
-219.611	265.264	-0.066	-0.115
-218.596	-55.086	0.296	-0.134
-217.582	61.584	-0.155	0.154
-216.567	-68.018	-0.080	0.031
-215.552	595.823	-0.012	-0.029
-214.538	71.486	0.067	-0.070
-213.523	-200.000	-0.046	0.469
-212.509	102.065	-0.244	0.285
-211.494	-195.606	0.147	-0.001
-210.479	-39.813	-0.118	-0.062
-209.465	-108.480	-0.224	0.048
-208.450	-80.117	-0.346	0.116
-207.436	-162.128	0.114	0.006
-206.421	129.837	-0.110	-0.141
-205.406	-69.537	0.146	-0.056
-204.392	800.000	0.016	-0.047
-203.377	-106.007	-0.075	-0.017
-202.363	-96.350	-0.127	-0.034
-201.348	-27.150	0.093	-0.054
-200.333	800.000	0.113	-0.396
-199.319	-200.000	-0.031	0.159
-198.304	800.000	-0.073	0.304
-197.290	-191.836	-0.253	0.002
-196.275	-64.719	-0.196	-0.080
-195.260	800.000	-0.046	-0.172
-194.246	163.386	-0.057	0.081
-193.231	-43.780	0.207	-0.104
-192.217	25.564	0.393	0.328
-191.202	-200.000	-0.023	0.313
-190.187	-9.216	0.196	0.131
-189.173	335.040	-0.088	0.171
-188.158	288.615	-0.082	-0.150
-187.144	85.846	0.125	0.137
-186.129	800.000	-0.026	0.089
-185.114	-36.351	-0.231	-0.125
-184.100	768.726	-0.018	0.049
-183.085	-116.643	0.406	0.075
-182.071	800.000	0.044	0.158
-181.056	-69.936	0.463	0.177
-180.042	-26.825	0.271	0.159
-179.027	-200.000	-0.030	0.210
-178.012	188.358	-0.082	0.122
-176.998	-101.930	0.049	0.012
-175.983	-52.915	0.204	-0.094
-174.969	-19.092	-0.439	0.273
-173.954	551.030	-0.071	0.171
-172.939	-170.946	-0.171	-0.006
-171.925	128.954	-0.251	-0.320
-170.910	800.000	-0.017	0.063
-169.896	-200.000	0.017	0.244
-168.881	2.705	-0.167	0.121
-167.866	800.000	-0.091	0.369
-166.852	-14.001	0.186	0.120
-165.837	-168.185	-0.467	-0.018
-164.823	161.720	-0.207	-0.290
-163.808	-22.529	-0.166	-0.101
-162.793	675.823	0.106	0.277
-161.779	163.075	0.179	0.252
-160.764	800.000	-0.034	0.120
-159.750	-200.000	0.009	0.141
-158.735	626.667	0.051	-0.129
-157.720	-64.766	0.202	-0.082
-156.706	-200.000	-0.011	0.060
-155.691	392.526	0.194	0.402
-154.677	689.312	-0.043	-0.112
-153.662	800.000	-0.043	-0.153
-152.647	-200.000	-0.023	0.134
-151.633	-139.423	0.203	0.022
-150.618	740.079	0.053	0.142
-149.604	-86.437	-0.206	0.063
-148.589	-22.446	-0.180	0.109
-147.574	-58.064	0.223	-0.097
-146.560	747.311	0.168	-0.451
-145.545	-94.927	0.246	-0.067
-144.531	60.617	0.253	0.250
-143.516	-41.224	-0.100	0.051
-142.502	-3.924	-0.140	-0.097
-141.487	502.689	0.105	-0.242
-140.472	-124.751	-0.381	-0.059
-139.458	165.756	-0.048	-0.067
-138.443	514.904	-0.025	-0.059
-137.429	-78.498	0.089	-0.031
-136.414	26.640	-0.133	0.111
-135.399	-45.886	-0.357	-0.176
-134.385	-51.032	0.042	-0.019
-133.370	-150.141	-0.036	0.003
-132.356	163.290	0.145	-0.204
-131.341	-61.599	0.433	-0.182
-130.326	-200.000	0.018	-0.406
-129.312	-112.044	0.092	0.019
-128.297	248.937	0.117	0.198
-127.283	-37.552	0.258	0.137
-126.268	-112.765	0.297	0.059
-125.253	-150.280	-0.119	0.009
-124.239	-66.759	0.276	0.109
-123.224	-46.846	-0.187	-0.091
-122.210	-119.846	0.423	0.073
-121.195	-78.214	-0.369	0.127
-120.180	493.484	-0.073	-0.167
-119.166	-200.000	-0.029	-0.217
-118.151	184.159	-0.127	0.187
-117.137	-46.920	0.245	-0.120
-116.122	-142.320	-0.216	-0.021
-115.107	-17.452	-0.245	0.154
-114.093	800.000	-0.062	0.176
-113.078	-200.000	0.154	0.001
-112.064	206.914	0.072	-0.111
-111.049	245.708	0.240	0.403
-110.034	727.660	0.078	0.208
-109.020	-174.463	0.260	-0.007
-108.005	-168.661	0.138	-0.005
-106.991	234.237	-0.113	0.186
-105.976	-92.100	0.249	-0.070
-104.962	-51.501	-0.260	-0.121
-103.947	-47.656	0.276	-0.134
-102.932	759.367	-0.034	-0.091
-101.918	-125.470	-0.203	-0.031
-100.903	222.561	0.048	-0.077
-99.889	-0.026	0.109	-0.078
-98.874	-200.000	0.008	0.233
-97.859	-124.925	-0.242	0.037
-96.845	-50.591	0.160	-0.075
-95.830	159.213	-0.153	0.213
-94.816	-200.000	-0.020	0.163
-93.801	237.444	0.108	-0.179
-92.786	32.363	0.103	0.089
-91.772	-200.000	-0.003	-0.166
-90.757	-24.372	0.108	0.064
-89.743	-12.166	0.153	0.100
-88.728	800.000	0.045	0.174
-87.713	800.000	0.070	0.277
-86.699	303.799	-0.115	0.212
-85.684	-41.212	0.458	-0.236
-84.670	-200.000	0.020	0.103
-83.655	57.312	-0.179	-0.174
-82.640	-115.633	0.211	0.039
-81.626	-77.947	-0.352	-0.121
-80.611	-126.229	0.188	0.028
-79.597	254.746	0.126	-0.215
-78.582	155.946	-0.038	0.052
-77.567	-122.744	0.353	0.057
-76.553	-177.271	-0.185	0.005
-75.538	124.451	0.266	0.334
-74.524	175.010	-0.212	-0.306
-73.509	545.246	0.087	-0.207
-72.494	-88.180	0.111	0.033
-71.480	274.666	0.245	0.433
-70.465	-79.977	-0.231	0.077
-69.451	7.414	0.115	-0.086
-68.436	-102.996	0.341	-0.081
-67.422	337.861	-0.184	-0.357
-66.407	317.294	0.081	0.153
-65.392	271.008	-0.127	-0.223
-64.378	-64.751	-0.051	0.021
-63.363	800.000	0.049	0.150
-62.349	-4.997	0.227	0.156
-61.334	99.219	-0.786	-0.904
-60.319	-200.000	0.117	0.709
-59.305	800.000	0.294	-0.846
-58.290	735.936	0.281	0.750
-57.276	624.378	0.611	1.533
-56.261	-200.000	77.821	512.167
-55.246	511.012	1333.967	3090.632
-54.232	147.926	2558.273	3434.451
-53.217	114.026	2242.432	2715.201
-52.203	50.438	1772.070	1667.885
-51.188	43.439	1573.264	1431.357
-50.173	40.878	1543.199	1386.116
-49.159	56.831	1581.416	1533.144
-48.144	62.515	1601.037	1592.137
-47.130	44.147	1563.838	1427.538
-46.115	40.570	1549.079	1389.016
-45.100	40.392	1545.690	1384.683
-44.086	40.225	1543.905	1381.857
-43.071	40.216	1541.901	1379.951
-42.057	40.187	1540.063	1378.049
-41.042	40.212	1538.598	1376.852
-40.027	40.212	1537.176	1375.528
-39.013	40.172	1535.594	1373.782
-37.998	40.189	1534.166	1372.566
-36.984	40.275	1532.818	1371.901
-35.969	40.199	1531.694	1370.318
-34.954	40.248	1530.568	1369.590
-33.940	40.263	1528.581	1367.865
-32.925	40.306	1526.852	1366.563
-31.911	40.340	1525.497	1365.528
-30.896	40.318	1524.107	1364.074
-29.881	40.332	1523.433	1363.514
-28.867	40.301	1521.691	1361.687
-27.852	40.393	1520.267	1360.992
-26.838	40.333	1518.476	1358.926
-25.823	40.270	1517.212	1357.308
-24.809	40.217	1516.025	1355.825
-23.794	40.307	1514.055	1354.629
-22.779	40.214	1513.274	1353.242
-21.765	40.325	1511.477	1352.340
-20.750	40.326	1510.692	1351.588
-19.736	40.213	1510.031	1350.170
-18.721	40.207	1508.294	1348.525
-17.706	40.179	1507.335	1347.426
-16.692	40.311	1505.818	1346.911
-15.677	40.223	1504.941	1345.475
-14.663	40.192	1503.971	1344.344
-13.648	40.175	1502.892	1343.214
-12.633	40.208	1501.938	1342.530
-11.619	40.182	1501.383	1341.802
-10.604	40.197	1500.268	1340.855
-9.590	40.244	1499.322	1340.271
-8.575	40.177	1498.301	1338.856
-7.560	40.124	1497.712	1337.913
-6.546	40.160	1496.595	1337.113
-5.531	40.098	1496.033	1336.138
-4.517	40.188	1494.633	1335.440
-3.502	40.135	1493.530	1334.040
-2.487	40.219	1492.466	1333.606
-1.473	40.189	1491.650	1332.624
-0.458	40.223	1490.201	1331.503
0.556	40.522	1480.534	1319.974
1.571	37.433	1452.380	1274.549
2.586	33.264	1388.856	1192.484
3.600	31.235	1303.911	1107.436
4.615	29.434	1255.674	1056.077
5.629	25.060	1196.841	982.585
6.644	13.191	1105.521	847.045
7.659	4.011	1058.156	765.461
8.673	2.497	1052.377	753.764
9.688	2.266	1049.154	750.255
10.702	2.102	1047.704	748.349
11.717	2.115	1046.071	747.181
12.731	5.609	1050.181	767.191
13.746	16.373	1065.975	831.933
14.761	24.459	1076.058	879.757
15.775	25.654	1076.597	886.010
16.790	25.671	1076.364	885.824
17.804	25.524	1075.637	884.424
18.819	25.305	1074.959	882.711
19.834	25.441	1074.321	882.773
20.848	25.639	1073.384	882.898
21.863	25.669	1073.186	882.803
22.877	25.621	1073.199	882.504
23.892	25.617	1072.188	881.576
24.907	25.595	1071.311	880.668
25.921	25.529	1070.894	879.925
26.936	25.628	1069.729	879.370
27.950	25.631	1068.672	878.438
28.965	25.628	1067.696	877.547
29.980	25.388	1066.264	875.120
30.994	25.273	1065.175	873.588
32.009	25.660	1064.219	874.613
33.023	25.739	1063.815	874.587
34.038	25.483	1062.608	872.272
35.053	25.497	1061.690	871.513
36.067	25.646	1061.339	871.867
37.082	25.603	1060.730	871.081
38.096	25.600	1059.739	870.174
39.111	25.711	1058.899	869.947
40.126	25.833	1058.288	869.956
41.140	25.730	1056.945	868.279
42.155	25.495	1055.548	865.924
43.169	25.091	1054.617	863.138
44.184	25.230	1053.237	862.600
45.199	25.326	1052.623	862.483
46.213	25.222	1051.672	861.126
47.228	25.217	1050.701	860.231
48.242	25.436	1049.789	860.456
49.257	25.337	1050.002	860.082
50.271	25.404	1048.905	859.427
51.286	25.617	1048.031	859.651
52.301	25.600	1047.240	858.847
53.315	25.688	1046.614	858.677
54.330	25.560	1045.939	857.439
55.344	25.565	1044.773	856.430
56.359	25.659	1043.766	855.978
57.374	25.536	1043.198	854.847
58.388	25.432	1042.315	853.557
59.403	25.359	1041.638	852.581
60.417	25.333	1040.853	851.740
61.432	25.164	1040.331	850.432
62.447	25.168	1039.419	849.634
63.461	25.216	1039.537	849.883
64.476	25.387	1037.794	849.192
65.490	25.454	1036.942	848.734
66.505	25.181	1036.241	846.798
67.520	25.144	1035.731	846.131
68.534	25.435	1034.292	846.253
69.549	25.380	1033.052	844.904
70.563	24.909	1032.525	842.183
71.578	24.814	1031.687	840.976
72.593	24.790	1031.034	840.259
73.607	24.721	1029.420	838.547
74.622	24.763	1028.629	838.025
75.636	24.969	1028.352	838.689
76.651	25.192	1027.295	838.795
77.666	25.217	1026.611	838.279
78.680	24.861	1026.136	836.155
79.695	24.910	1025.624	835.893
80.709	24.994	1025.161	835.831
81.724	25.205	1023.863	835.685
82.739	25.213	1022.569	834.589
83.753	25.164	1022.156	833.950
84.768	25.388	1022.026	834.814
85.782	25.677	1021.579	835.717
86.797	25.863	1020.814	835.880
87.812	25.948	1019.458	835.090
88.826	25.741	1018.808	833.523
89.841	25.570	1018.326	832.265
90.855	25.661	1017.605	832.024
91.870	25.825	1016.664	831.937
92.884	25.879	1015.757	831.373
93.899	25.814	1014.592	830.045
94.914	25.580	1013.800	828.244
95.928	25.739	1013.115	828.346
96.943	25.878	1012.134	828.106
97.957	25.523	1011.143	825.593
98.972	25.227	1010.094	823.305
99.987	25.017	1008.902	821.299
101.001	25.259	1008.212	821.771
102.016	25.515	1007.520	822.305
103.030	25.575	1006.969	822.057
104.045	25.470	1006.003	820.717
105.060	25.481	1004.520	819.484
106.074	25.313	1003.249	817.613
107.089	25.118	1003.289	816.685
108.103	25.457	1002.643	817.628
109.118	25.616	1001.868	817.645
110.133	25.276	1000.765	815.131
111.147	25.261	1000.111	814.459
112.162	25.235	998.772	813.178
113.176	24.886	997.827	810.757
114.191	25.033	996.975	810.655
115.206	25.140	996.372	810.578
116.220	25.052	994.815	808.842
117.235	24.750	994.121	806.842
118.249	24.845	993.936	807.049
119.264	24.933	992.869	806.512
120.279	24.914	992.118	805.743
121.293	24.873	990.798	804.413
122.308	24.917	990.341	804.170
123.322	24.909	989.634	803.488
124.337	24.755	988.493	801.804
125.352	24.871	986.962	801.009
126.366	24.380	985.720	797.734
127.381	24.131	984.389	795.476
128.395	24.661	984.033	797.484
129.410	25.244	983.805	799.826
130.424	25.373	983.264	799.890
131.439	25.468	982.448	799.579
132.454	25.371	981.227	798.081
133.468	25.501	980.354	797.878
134.483	25.283	979.832	796.416
135.497	25.584	979.060	797.055
136.512	25.596	978.548	796.621
137.527	25.789	977.705	796.718
138.541	25.764	976.887	795.867
139.556	25.660	976.244	794.817
140.570	25.699	975.517	794.323
141.585	25.743	974.779	793.848
142.600	25.936	973.388	793.493
143.614	25.776	973.169	792.543
144.629	25.756	972.038	791.462
145.643	26.062	971.721	792.477
146.658	25.990	970.569	791.153
147.673	25.857	968.921	789.156
148.687	25.580	968.352	787.410
149.702	25.675	966.810	786.505
150.716	25.377	966.295	784.712
151.731	25.453	965.402	784.248
152.746	25.507	964.438	783.632
153.760	25.730	963.598	783.852
154.775	25.751	963.309	783.637
155.789	25.932	962.363	783.586
156.804	25.846	961.410	782.370
157.819	25.832	960.193	781.249
158.833	25.758	959.698	780.456
159.848	25.971	958.648	780.453
160.862	25.873	958.383	779.746
161.877	25.788	957.356	778.475
162.892	25.629	956.195	776.773
163.906	25.911	955.402	777.280
164.921	25.664	954.795	775.649
165.935	25.781	953.550	775.075
166.950	25.794	952.566	774.262
167.964	25.689	952.057	773.327
168.979	25.780	950.698	772.545
169.994	25.699	949.517	771.171
171.008	25.592	948.549	769.859
172.023	25.623	948.161	769.609
173.037	25.906	947.195	769.965
174.052	25.858	946.072	768.781
175.067	25.619	945.088	766.894
176.081	25.533	944.445	765.938
177.096	25.631	943.478	765.501
178.110	25.512	943.290	764.774
179.125	25.364	942.274	763.256
180.140	25.231	940.580	761.250
181.154	24.994	940.429	760.058
182.169	25.310	939.597	760.658
183.183	25.395	939.528	760.892
184.198	25.753	939.234	762.102
185.213	25.765	938.389	761.403
186.227	25.632	937.720	760.228
187.242	25.749	937.528	760.500
188.256	25.783	936.458	759.708
189.271	25.858	935.755	759.386
190.286	26.025	934.988	759.402
191.300	25.767	934.093	757.521
192.315	25.157	932.441	753.553
193.329	24.463	930.696	749.162
194.344	23.898	930.323	746.425
195.359	24.538	930.490	749.179
196.373	25.497	930.515	753.154
197.388	25.618	930.978	753.970
198.402	25.600	930.097	753.115
199.417	25.546	929.251	752.135
200.432	25.850	928.454	752.697
201.446	25.661	928.311	751.724
202.461	25.203	927.673	749.228
203.475	25.365	926.928	749.238
204.490	24.992	925.420	746.398
205.504	23.828	923.341	739.813
206.519	24.250	923.008	741.236
207.534	25.045	923.715	745.046
208.548	25.154	922.972	744.831
209.563	25.569	923.027	746.533
210.577	25.682	921.970	746.079
211.592	25.231	921.495	743.761
212.607	25.701	921.148	745.360
213.621	25.909	920.686	745.785
214.636	25.859	919.853	744.838
215.650	25.901	919.528	744.682
216.665	25.711	918.966	743.376
217.680	25.758	918.726	743.310
218.694	26.009	918.199	743.852
219.709	25.528	917.362	741.124
220.723	25.446	915.650	739.340
221.738	25.432	915.591	739.171
222.753	25.564	915.465	739.543
223.767	25.546	914.977	739.012
224.782	25.656	913.767	738.422
225.796	25.743	913.490	738.489
226.811	25.974	912.546	738.605
227.826	25.616	911.324	736.085
228.840	24.763	910.111	731.555
229.855	24.758	909.214	730.746
230.869	25.030	908.827	731.482
231.884	24.662	908.357	729.539
232.899	24.554	907.863	728.635
233.913	25.457	907.969	732.338
234.928	25.568	907.761	732.557
235.942	25.470	906.776	731.300
236.957	25.532	906.248	731.061
237.972	25.284	905.162	729.113
238.986	25.148	904.309	727.812
240.001	25.139	904.229	727.643
241.015	25.269	903.105	727.202
242.030	25.411	902.382	727.130
243.045	25.544	901.864	727.187
244.059	25.564	901.750	727.111
245.074	25.794	900.894	727.288
246.088	25.661	900.426	726.306
247.103	25.335	899.441	724.136
248.117	25.302	899.180	723.725
249.132	25.946	899.137	726.223
250.147	26.294	898.874	727.348
251.161	26.302	898.257	726.818
252.176	26.540	898.059	727.548
253.190	26.446	897.415	726.583
254.205	26.562	896.488	726.234
255.220	26.827	896.193	726.997
256.234	26.687	895.935	726.159
257.249	26.741	894.882	725.460
258.263	26.609	893.935	724.097
259.278	26.367	893.935	723.066
260.293	26.604	893.161	723.326
261.307	26.613	892.514	722.773
262.322	26.567	892.075	722.169
263.336	26.517	891.110	721.126
264.351	25.974	890.130	718.105
265.366	24.845	887.920	711.773
266.380	24.505	886.963	709.591
267.395	25.321	887.827	713.462
268.409	26.135	887.806	716.616
269.424	26.007	887.305	715.641
270.439	26.103	886.887	715.623
271.453	26.370	885.916	715.833
272.468	26.372	885.245	715.234
273.482	26.614	884.856	715.815
274.497	26.577	884.441	715.270
275.512	26.418	883.635	713.925
276.526	25.756	882.475	710.313
277.541	26.130	881.591	711.014
278.555	26.533	881.351	712.345
279.570	26.223	880.797	710.614
280.585	26.093	879.840	709.268
281.599	26.183	879.632	709.389
282.614	26.329	879.360	709.682
283.628	25.823	878.215	706.711
284.643	25.375	877.441	704.271
285.657	25.847	876.953	705.664
286.672	25.724	876.573	704.813
287.687	25.266	875.305	701.940
288.701	25.496	875.480	702.919
289.716	26.102	874.884	704.746
290.730	25.724	874.132	702.604
291.745	25.502	873.407	701.092
292.760	25.434	872.257	699.843
293.774	25.313	872.008	699.109
294.789	26.190	872.680	703.001
295.803	26.943	872.214	705.492
296.818	26.917	871.528	704.775
297.833	27.064	871.124	704.955
298.847	26.717	870.481	703.026
299.862	26.341	869.321	700.572
300.876	26.489	869.126	700.924
301.891	26.877	868.707	702.027
302.906	26.891	868.173	701.587
303.920	26.513	867.109	699.207
304.935	26.365	866.617	698.176
305.949	26.807	866.243	699.516
306.964	26.838	866.018	699.396
307.979	26.704	865.113	698.084
308.993	26.636	864.516	697.279
310.008	26.891	864.270	698.000
311.022	27.119	864.060	698.645
312.037	26.930	862.770	696.816
313.052	26.674	862.572	695.610
314.066	26.540	861.819	694.429
315.081	25.809	860.281	690.326
316.095	25.058	859.317	686.616
317.110	25.555	859.339	688.476
318.125	26.525	859.411	692.184
319.139	26.240	858.166	690.032
320.154	24.985	856.699	684.003
321.168	24.378	855.860	680.956
322.183	25.097	856.123	683.852
323.197	25.982	856.782	687.694
324.212	26.383	856.118	688.625
325.227	26.691	855.503	689.242
326.241	26.538	855.689	688.750
327.256	26.524	854.604	687.762
328.270	26.451	854.391	687.253
329.285	26.388	853.354	686.118
330.300	26.186	852.527	684.625
331.314	25.925	851.767	682.967
332.329	25.928	851.447	682.663
333.343	26.594	850.979	684.745
334.358	26.704	850.924	685.056
335.373	26.717	850.308	684.549
336.387	26.712	849.721	683.997
337.402	26.996	849.370	684.727
338.416	27.279	848.779	685.254
339.431	27.140	848.450	684.405
340.446	27.251	847.883	684.304
341.460	27.521	847.391	684.862
342.475	27.333	846.718	683.552
343.489	27.281	845.658	682.440
344.504	27.109	845.549	681.648
345.519	27.149	845.561	681.748
346.533	27.474	845.001	682.453
347.548	27.710	844.147	682.585
348.562	27.475	844.159	681.655
349.577	27.647	843.301	681.546
350.592	27.389	842.666	680.009
351.606	27.536	842.357	680.248
352.621	27.377	841.914	679.234
353.635	27.389	841.115	678.575
354.650	27.202	840.595	677.398
355.665	26.900	839.704	675.497
356.679	26.016	837.791	670.614
357.694	25.849	837.761	669.908
358.708	26.527	837.713	672.330
359.723	26.448	836.950	671.367
360.738	26.584	836.847	671.731
361.752	27.089	836.592	673.339
362.767	27.254	836.297	673.651
363.781	27.551	836.063	674.502
364.796	27.712	835.976	674.970
365.810	27.901	835.552	675.266
366.825	27.802	835.271	674.614
367.840	27.847	834.988	674.490
368.854	27.771	834.255	673.560
369.869	27.358	833.408	671.292
370.883	27.168	832.852	670.083
371.898	27.268	832.089	669.782
372.913	27.250	831.160	668.908
373.927	27.202	830.689	668.291
374.942	27.373	830.227	668.491
375.956	27.516	829.313	668.218
376.971	27.575	828.894	668.036
377.986	27.516	829.122	667.946
379.000	27.823	828.368	668.405
380.015	27.868	827.786	668.041
381.029	27.676	827.060	666.694
382.044	27.672	826.422	666.104
383.059	27.876	825.749	666.247
384.073	27.891	825.466	666.017
385.088	27.688	825.066	664.893
386.102	27.844	824.399	664.867
387.117	27.714	823.211	663.377
388.132	27.387	823.277	662.181
389.146	27.423	822.485	661.616
390.161	26.877	821.332	658.649
391.175	26.900	821.134	658.514
392.190	27.404	821.134	660.284
393.205	27.489	820.911	660.357
394.219	26.610	819.039	655.613
395.234	24.921	816.819	647.671
396.248	23.989	815.426	643.142
397.263	25.105	816.264	647.782
398.278	26.920	818.088	655.738
399.292	27.336	817.956	657.076
400.307	27.112	817.189	655.594
401.321	26.910	816.734	654.444
402.336	27.125	816.460	654.942
403.350	27.449	816.252	655.882
404.365	27.909	816.285	657.506
405.380	28.072	816.057	657.853
406.394	28.546	815.671	659.187
407.409	28.564	815.524	659.074
408.423	28.537	814.905	658.418
409.438	28.421	814.118	657.310
410.453	28.448	813.880	657.155
411.467	28.514	813.696	657.184
412.482	28.502	812.842	656.396
413.496	28.512	812.331	655.958
414.511	28.412	812.111	655.367
415.526	28.671	811.525	655.762
416.540	28.586	811.310	655.224
417.555	28.517	810.704	654.433
418.569	28.117	809.753	652.181
419.584	28.271	809.282	652.293
420.599	28.210	808.736	651.576
421.613	96.940	1267.570	1386.425
422.628	83.314	1334.448	1386.530
