DTS Sentinel unit serial number:	SN413079Multiplexer serial number:	ORYXHardware model number:	OX4-SRSoftware version number:	ORYX F/W v4.00 Oryx Data Collector v3.7.2.0data status	okinstallation	princeton_trtdifferential loss correction	single-endedforward channel	channel 3reverse channel	N/Adate	2019/09/13time	19:20:34forward acquisition time	60.00reverse acquisition time	0.00gamma	496.2192k internal	0.2325k external	0.2325temperature offset calibration	1.0090default loss term (dB/km)	0.3790temperature slope calibration	1.0000multiplexer offset coefficient	1.0000multiplexer slope coefficient	1.0000fibre end	0.00T internal ref (°C)	31.11T ext. ref 1 (°C)	3.78T ext. ref 2 (°C)	24.53length (m)	temperature (°C)	Stokes	anti-Stokes-747.200	-200.000	0.009	-0.205
-746.185	-71.305	0.022	0.008
-745.171	-11.289	-0.088	-0.059
-744.156	-200.000	0.068	0.341
-743.142	342.305	-0.023	-0.046
-742.127	200.555	-0.242	0.375
-741.112	156.867	0.207	-0.288
-740.098	800.000	-0.030	0.100
-739.083	-12.067	-0.056	-0.037
-738.069	99.906	-0.134	0.157
-737.054	800.000	-0.034	-0.138
-736.039	-114.950	-0.338	-0.065
-735.025	569.912	-0.064	0.156
-734.010	11.731	0.056	-0.044
-732.996	-13.481	-0.505	-0.330
-731.981	-200.000	0.005	0.448
-730.966	-200.000	-0.002	0.151
-729.952	11.424	-0.417	-0.322
-728.937	-5.523	0.271	-0.188
-727.923	-98.175	0.201	-0.052
-726.908	-60.391	-0.272	0.116
-725.894	94.908	-0.126	0.144
-724.879	130.434	-0.042	-0.055
-723.864	48.604	-0.274	0.259
-722.850	113.501	-0.093	0.114
-721.835	-116.311	-0.318	-0.059
-720.821	800.000	-0.065	-0.207
-719.806	-115.172	0.249	-0.048
-718.791	-163.537	-0.352	0.017
-717.777	-88.840	-0.121	0.036
-716.762	253.931	0.072	-0.124
-715.748	431.529	0.155	0.338
-714.733	330.988	-0.011	0.022
-713.718	75.705	0.071	0.076
-712.704	335.051	0.075	0.146
-711.689	800.000	-0.112	-0.473
-710.675	-200.000	0.047	-0.264
-709.660	87.747	-0.263	-0.293
-708.645	-12.435	0.197	0.129
-707.631	-41.796	-0.394	-0.203
-706.616	-58.943	0.074	0.032
-705.602	-74.047	0.380	-0.139
-704.587	370.892	-0.118	-0.241
-703.572	14.736	0.080	0.063
-702.558	143.557	-0.111	0.148
-701.543	-163.762	0.149	-0.007
-700.529	155.312	0.160	-0.222
-699.514	478.477	0.120	0.275
-698.499	95.266	-0.456	-0.523
-697.485	233.740	-0.081	-0.134
-696.470	47.121	-0.127	0.119
-695.456	350.941	-0.090	-0.179
-694.441	152.251	-0.192	0.264
-693.426	-200.000	-0.005	-0.332
-692.412	436.789	0.149	-0.326
-691.397	800.000	0.042	0.162
-690.383	-200.000	0.024	-0.111
-689.368	-57.509	-0.342	-0.151
-688.354	-112.335	-0.300	-0.060
-687.339	54.523	-0.204	0.198
-686.324	33.569	-0.105	-0.092
-685.310	-93.993	-0.218	0.060
-684.295	-200.000	-0.005	0.112
-683.281	126.919	-0.059	0.075
-682.266	-64.675	-0.153	-0.063
-681.251	95.490	0.112	-0.128
-680.237	643.828	0.124	-0.318
-679.222	115.769	-0.088	-0.108
-678.208	800.000	0.029	0.126
-677.193	268.953	-0.151	0.266
-676.178	-168.396	-0.166	0.006
-675.164	137.765	0.118	-0.156
-674.149	-97.192	-0.437	-0.115
-673.135	-122.302	0.076	0.013
-672.120	8.913	-0.274	0.208
-671.105	-200.000	0.052	0.276
-670.091	454.765	0.168	0.374
-669.076	-85.008	0.343	0.108
-668.062	-125.530	0.356	-0.054
-667.047	112.475	-0.113	-0.137
-666.032	12.209	0.164	0.127
-665.018	-200.000	0.019	-0.100
-664.003	800.000	-0.007	0.024
-662.989	-102.376	0.334	-0.081
-661.974	-53.112	-0.089	0.041
-660.959	-200.000	-0.020	0.161
-659.945	-200.000	0.009	0.070
-658.930	-153.414	-0.056	0.004
-657.916	445.614	-0.089	-0.197
-656.901	800.000	0.060	0.178
-655.886	-102.340	-0.246	-0.059
-654.872	-72.846	-0.347	-0.128
-653.857	-200.000	-0.043	0.197
-652.843	79.366	-0.137	-0.147
-651.828	88.159	0.176	0.196
-650.814	68.692	0.109	-0.112
-649.799	60.357	0.110	-0.109
-648.784	558.718	-0.038	0.092
-647.770	-200.000	0.001	0.176
-646.755	70.537	0.098	-0.102
-645.741	-200.000	-0.050	-0.305
-644.726	144.973	0.159	0.213
-643.711	-8.949	-0.140	0.094
-642.697	456.314	-0.012	0.026
-641.682	68.958	-0.176	-0.181
-640.668	6.401	-0.104	-0.078
-639.653	224.495	0.031	-0.051
-638.638	-200.000	-0.028	-0.283
-637.624	-12.993	0.201	-0.131
-636.609	800.000	0.075	0.212
-635.595	-31.045	-0.160	0.091
-634.580	-184.278	0.112	0.002
-633.565	-53.841	-0.060	0.027
-632.551	-104.840	-0.140	0.032
-631.536	-200.000	0.010	0.147
-630.522	800.000	-0.056	-0.206
-629.507	-18.794	-0.257	0.161
-628.492	43.710	-0.108	0.100
-627.478	86.566	-0.180	-0.199
-626.463	-160.002	-0.356	0.020
-625.449	800.000	-0.015	0.065
-624.434	748.661	-0.060	-0.164
-623.419	-122.811	0.464	-0.075
-622.405	-43.215	-0.279	0.142
-621.390	399.979	-0.148	0.311
-620.376	34.106	0.218	0.191
-619.361	-167.271	-0.140	0.006
-618.346	-200.000	-0.010	-0.345
-617.332	255.782	-0.077	-0.132
-616.317	502.241	0.029	0.068
-615.303	35.089	0.044	-0.039
-614.288	-115.552	-0.284	0.054
-613.273	-102.470	-0.405	-0.097
-612.259	-154.844	0.104	0.007
-611.244	800.000	-0.040	-0.157
-610.230	-27.590	0.445	-0.259
-609.215	-135.022	-0.165	-0.020
-608.201	291.744	-0.050	0.092
-607.186	30.308	-0.161	0.138
-606.171	800.000	-0.064	0.238
-605.157	39.353	0.057	0.052
-604.142	273.696	0.060	-0.106
-603.128	-126.333	0.101	0.015
-602.113	120.972	0.100	-0.125
-601.098	-57.312	-0.193	-0.085
-600.084	86.477	-0.200	0.221
-599.069	41.010	-0.261	-0.236
-598.055	2.846	-0.044	-0.032
-597.040	103.555	-0.223	0.263
-596.025	-29.492	0.095	0.054
-595.011	800.000	0.105	0.312
-593.996	800.000	-0.081	0.296
-592.982	41.544	-0.209	-0.190
-591.967	-153.389	-0.092	-0.006
-590.952	152.085	-0.229	0.313
-589.938	-180.051	-0.282	0.006
-588.923	-30.143	0.062	-0.035
-587.909	-158.944	-0.121	-0.007
-586.894	-200.000	0.028	-0.240
-585.879	-37.470	-0.136	-0.073
-584.865	3.892	0.216	0.159
-583.850	-59.954	0.307	0.132
-582.836	-60.415	-0.231	0.099
-581.821	284.291	-0.027	0.049
-580.806	-124.982	-0.222	-0.034
-579.792	800.000	-0.020	0.070
-578.777	-121.992	0.074	0.012
-577.763	-200.000	-0.092	0.572
-576.748	688.886	0.106	0.277
-575.733	365.630	0.036	0.073
-574.719	45.854	-0.156	0.145
-573.704	-200.000	0.018	0.112
-572.690	-44.393	-0.294	-0.147
-571.675	-162.853	0.150	-0.007
-570.661	352.625	0.151	-0.300
-569.646	-78.116	-0.220	0.076
-568.631	271.367	-0.071	0.125
-567.617	135.892	-0.143	0.186
-566.602	-17.547	-0.236	-0.148
-565.588	-200.000	-0.009	-0.135
-564.573	-146.404	-0.214	0.019
-563.558	-200.000	-0.029	-0.340
-562.544	-178.470	0.277	0.006
-561.529	-200.000	-0.152	0.000
-560.515	-132.534	-0.138	-0.018
-559.500	440.254	-0.144	-0.315
-558.485	-131.649	0.330	-0.043
-557.471	-43.246	0.275	-0.139
-556.456	-132.718	0.177	0.023
-555.442	7.832	-0.212	0.159
-554.427	103.213	-0.150	0.176
-553.412	-152.268	-0.431	0.031
-552.398	800.000	0.044	-0.154
-551.383	800.000	0.108	0.311
-550.369	400.653	0.099	0.208
-549.354	644.623	0.116	-0.298
-548.339	157.448	-0.268	0.371
-547.325	-43.366	-0.113	-0.057
-546.310	108.147	0.147	0.175
-545.296	-59.781	0.170	0.073
-544.281	-200.000	-0.019	-0.097
-543.266	364.313	-0.079	-0.159
-542.252	105.394	-0.079	-0.094
-541.237	-200.000	0.010	0.058
-540.223	452.388	-0.180	-0.399
-539.208	-200.000	-0.060	-0.381
-538.193	55.926	0.067	0.065
-537.179	-200.000	0.000	0.066
-536.164	-39.666	0.111	0.058
-535.150	800.000	-0.040	0.111
-534.135	31.916	0.221	-0.191
-533.121	318.224	-0.130	0.247
-532.106	800.000	-0.050	-0.200
-531.091	-101.057	-0.401	0.098
-530.077	56.792	0.117	0.114
-529.062	-132.243	-0.072	0.009
-528.048	-139.202	0.278	0.030
-527.033	-41.687	0.090	0.046
-526.018	-114.422	0.272	-0.052
-525.004	10.482	0.049	0.037
-523.989	800.000	-0.049	-0.158
-522.975	45.661	0.111	-0.103
-521.960	800.000	-0.019	-0.064
-520.945	-49.013	-0.062	-0.030
-519.931	76.585	0.094	-0.099
-518.916	-200.000	0.013	-0.089
-517.902	-77.225	0.048	0.017
-516.887	-61.501	0.207	0.087
-515.872	-200.000	0.012	0.155
-514.858	-134.415	0.475	-0.058
-513.843	58.062	0.138	0.135
-512.829	17.718	0.126	-0.100
-511.814	-55.534	0.281	-0.126
-510.799	18.307	0.357	0.285
-509.785	160.332	0.148	-0.207
-508.770	20.653	0.158	0.127
-507.756	-79.361	0.181	0.061
-506.741	-200.000	0.033	0.190
-505.726	-200.000	0.009	-0.093
-504.712	-156.492	-0.263	0.016
-503.697	-123.803	-0.063	0.010
-502.683	421.870	0.006	-0.013
-501.668	-116.416	-0.221	-0.041
-500.653	800.000	0.116	-0.375
-499.639	125.845	-0.097	0.122
-498.624	167.442	0.065	0.092
-497.610	-144.366	0.156	-0.014
-496.595	-200.000	-0.029	0.458
-495.581	138.510	-0.157	0.206
-494.566	257.416	-0.040	-0.068
-493.551	130.702	-0.244	-0.312
-492.537	-200.000	-0.044	-0.264
-491.522	5.899	0.186	-0.138
-490.508	-134.040	0.152	-0.019
-489.493	338.463	-0.067	-0.130
-488.478	13.872	0.231	0.180
-487.464	-54.128	-0.198	0.090
-486.449	-200.000	-0.041	0.188
-485.435	-34.008	-0.102	0.056
-484.420	-200.000	0.029	-0.266
-483.405	-80.333	-0.340	0.113
-482.391	49.686	0.110	-0.103
-481.376	800.000	-0.058	0.202
-480.362	645.282	0.038	0.097
-479.347	-200.000	0.001	-0.222
-478.332	-31.802	0.445	-0.249
-477.318	-200.000	0.053	-0.349
-476.303	-200.000	-0.015	-0.119
-475.289	376.472	0.099	0.201
-474.274	-68.988	0.249	0.096
-473.259	-12.607	-0.118	0.077
-472.245	268.804	-0.159	0.279
-471.230	-200.000	0.023	0.239
-470.216	-40.537	0.233	-0.120
-469.201	-62.598	-0.185	0.077
-468.186	117.221	0.105	0.129
-467.172	800.000	0.109	0.402
-466.157	431.179	-0.076	0.165
-465.143	-200.000	0.003	0.084
-464.128	184.817	-0.177	0.262
-463.113	-4.933	-0.203	-0.139
-462.099	-200.000	-0.014	-0.118
-461.084	-73.227	0.345	-0.126
-460.070	-111.814	0.352	0.071
-459.055	-130.198	0.273	0.037
-458.040	40.140	-0.329	-0.295
-457.026	24.298	-0.104	0.086
-456.011	-200.000	0.024	0.173
-454.997	-200.000	0.040	0.244
-453.982	-3.098	-0.320	-0.223
-452.968	-16.358	-0.232	-0.147
-451.953	-86.828	-0.048	0.015
-450.938	222.133	0.032	0.051
-449.924	517.845	-0.051	-0.119
-448.909	-71.717	0.322	-0.120
-447.895	800.000	0.060	-0.194
-446.880	-89.840	-0.164	0.048
-445.865	-200.000	-0.007	0.098
-444.851	-74.415	-0.233	-0.084
-443.836	-70.706	-0.205	0.077
-442.822	800.000	0.079	0.243
-441.807	705.919	-0.091	-0.239
-440.792	-199.590	0.414	0.002
-439.778	-52.890	-0.233	-0.107
-438.763	-200.000	0.011	-0.231
-437.749	-85.722	0.138	0.043
-436.734	19.116	0.236	-0.189
-435.719	686.140	0.028	0.073
-434.705	-39.907	-0.084	-0.044
-433.690	-5.033	0.101	-0.069
-432.676	59.295	0.067	0.065
-431.661	-200.000	0.013	-0.059
-430.646	-200.000	0.322	-0.001
-429.632	-118.767	-0.184	0.032
-428.617	46.255	-0.114	0.106
-427.603	-115.154	0.322	-0.061
-426.588	-200.000	0.006	-0.108
-425.573	344.502	-0.114	0.223
-424.559	-200.000	0.016	-0.100
-423.544	-26.917	-0.100	0.058
-422.530	-47.534	-0.110	0.053
-421.515	800.000	-0.095	-0.307
-420.500	-19.621	0.130	-0.080
-419.486	-106.247	-0.117	-0.026
-418.471	30.848	0.111	-0.095
-417.457	277.276	0.171	-0.303
-416.442	-200.000	0.033	0.212
-415.428	-56.465	-0.111	-0.049
-414.413	-200.000	-0.009	-0.463
-413.398	360.208	-0.060	0.120
-412.384	252.865	0.077	-0.131
-411.369	337.748	-0.105	-0.203
-410.355	-200.000	-0.055	-0.307
-409.340	530.326	0.104	0.245
-408.325	-91.525	-0.169	-0.048
-407.311	76.765	0.147	0.156
-406.296	-93.147	-0.236	-0.065
-405.282	800.000	0.019	0.052
-404.267	-14.401	-0.188	0.120
-403.252	-127.330	0.280	0.041
-402.238	800.000	0.012	-0.044
-401.223	-200.000	-0.024	0.187
-400.209	-200.000	0.015	-0.114
-399.194	75.768	-0.228	-0.240
-398.179	129.277	-0.080	-0.101
-397.165	-13.789	0.074	0.047
-396.150	-125.425	-0.186	0.028
-395.136	800.000	0.058	0.231
-394.121	97.236	0.131	-0.149
-393.106	-91.199	-0.176	0.050
-392.092	-200.000	0.029	0.172
-391.077	-57.885	-0.090	-0.039
-390.063	-73.821	0.116	-0.042
-389.048	-54.204	-0.103	0.046
-388.033	220.591	0.185	0.295
-387.019	248.518	-0.028	0.046
-386.004	340.266	-0.149	-0.289
-384.990	136.581	-0.045	-0.059
-383.975	-13.334	-0.116	0.075
-382.960	-132.394	0.323	0.041
-381.946	-200.000	-0.032	-0.371
-380.931	-13.892	0.102	-0.066
-379.917	800.000	0.081	-0.345
-378.902	-104.520	-0.058	0.013
-377.888	-69.426	0.389	0.148
-376.873	-197.216	-0.012	0.000
-375.858	-78.965	0.131	0.044
-374.844	-130.032	-0.074	0.010
-373.829	332.491	-0.142	0.273
-372.815	-142.040	0.336	-0.033
-371.800	41.850	-0.189	-0.171
-370.785	249.169	-0.053	0.090
-369.771	800.000	0.081	-0.324
-368.756	-200.000	-0.022	-0.201
-367.742	-200.000	-0.005	0.320
-366.727	12.518	0.313	-0.240
-365.712	-81.609	-0.301	-0.098
-364.698	89.454	-0.131	-0.145
-363.683	592.451	-0.046	-0.112
-362.669	-129.402	0.160	0.022
-361.654	481.019	-0.087	0.197
-360.639	-200.000	-0.006	0.059
-359.625	-66.298	0.241	-0.095
-358.610	-52.248	0.046	0.021
-357.596	800.000	-0.030	-0.111
-356.581	-96.129	-0.161	0.042
-355.566	-200.000	-0.023	0.195
-354.552	215.697	0.116	-0.184
-353.537	-75.872	0.214	-0.075
-352.523	76.544	-0.189	0.199
-351.508	-200.000	-0.021	-0.115
-350.493	800.000	0.064	0.182
-349.479	-50.538	0.087	0.041
-348.464	344.247	0.087	0.170
-347.450	191.264	0.068	-0.102
-346.435	22.366	0.013	0.010
-345.420	-157.771	-0.109	0.006
-344.406	-200.000	0.018	-0.379
-343.391	800.000	-0.082	0.295
-342.377	-200.000	-0.021	0.109
-341.362	-55.378	-0.190	-0.085
-340.348	182.871	0.169	-0.247
-339.333	73.209	0.122	0.127
-338.318	-142.960	-0.170	0.016
-337.304	77.516	-0.107	0.113
-336.289	-110.814	-0.254	-0.052
-335.275	539.060	-0.076	0.179
-334.260	-145.569	-0.311	-0.028
-333.245	-106.360	0.273	0.061
-332.231	-72.831	-0.164	0.060
-331.216	53.468	0.322	0.307
-330.202	-200.000	-0.044	0.198
-329.187	39.124	-0.195	-0.173
-328.172	621.728	0.105	0.263
-327.158	-91.980	0.390	0.109
-326.143	430.622	0.065	-0.139
-325.129	-80.765	0.187	0.062
-324.114	-49.026	0.180	-0.085
-323.099	-167.186	-0.161	-0.006
-322.085	422.440	0.045	0.096
-321.070	-118.243	-0.108	-0.019
-320.056	100.841	0.082	0.095
-319.041	800.000	-0.064	-0.211
-318.026	-172.372	-0.115	0.004
-317.012	405.899	-0.144	0.301
-315.997	662.008	0.103	0.263
-314.983	-85.459	-0.121	-0.037
-313.968	800.000	0.080	-0.257
-312.953	34.996	0.210	0.182
-311.939	-200.000	0.028	0.311
-310.924	181.656	-0.084	0.122
-309.910	-200.000	0.029	-0.214
-308.895	-200.000	-0.040	-0.193
-307.880	-200.000	-0.039	-0.348
-306.866	175.896	0.077	-0.111
-305.851	341.948	-0.090	-0.174
-304.837	-125.705	0.246	-0.037
-303.822	14.068	-0.069	-0.053
-302.807	110.597	-0.053	0.063
-301.793	40.772	0.063	0.056
-300.778	155.840	-0.163	0.223
-299.764	-12.077	-0.070	0.046
-298.749	-200.000	0.002	-0.088
-297.735	-86.743	-0.263	0.080
-296.720	800.000	0.119	-0.413
-295.705	-200.000	-0.026	-0.140
-294.691	653.657	0.091	-0.231
-293.676	-111.643	0.295	0.059
-292.662	-37.361	-0.275	0.146
-291.647	-115.387	0.138	0.026
-290.632	55.910	0.095	-0.092
-289.618	115.582	-0.168	-0.204
-288.603	728.205	0.039	0.103
-287.589	-26.428	0.252	-0.146
-286.574	-63.791	-0.324	-0.131
-285.559	68.554	0.083	-0.084
-284.545	72.108	0.071	-0.073
-283.530	-11.587	0.222	-0.145
-282.516	-6.972	-0.072	-0.048
-281.501	259.155	0.046	-0.079
-280.486	169.331	0.069	-0.097
-279.472	-76.817	0.130	0.045
-278.457	800.000	-0.060	-0.178
-277.443	-117.738	-0.278	-0.049
-276.428	42.058	-0.075	0.068
-275.413	64.431	0.067	-0.067
-274.399	524.030	-0.088	0.204
-273.384	-200.000	0.035	-0.191
-272.370	800.000	0.065	-0.239
-271.355	-129.153	-0.131	-0.018
-270.340	800.000	-0.103	-0.303
-269.326	128.207	0.264	-0.333
-268.311	-131.280	0.163	-0.021
-267.297	107.323	-0.190	0.223
-266.282	6.236	0.140	0.103
-265.267	70.341	-0.121	0.124
-264.253	173.402	-0.083	-0.119
-263.238	-14.283	-0.365	0.233
-262.224	0.336	-0.143	0.101
-261.209	183.218	-0.130	-0.189
-260.195	-103.879	0.036	0.008
-259.180	-113.889	0.298	-0.057
-258.165	-88.533	0.237	-0.070
-257.151	-200.000	0.020	0.173
-256.136	-200.000	0.023	-0.200
-255.122	800.000	-0.056	-0.197
-254.107	-93.319	-0.095	0.026
-253.092	-7.287	0.020	-0.014
-252.078	-140.927	0.174	0.018
-251.063	-200.000	-0.037	-0.175
-250.049	-200.000	-0.082	0.385
-249.034	141.784	0.045	0.059
-248.019	328.573	0.053	0.102
-247.005	123.096	-0.113	0.141
-245.990	-200.000	-0.016	-0.188
-244.976	-143.601	0.302	-0.028
-243.961	800.000	-0.030	0.112
-242.946	44.154	-0.266	0.241
-241.932	217.686	-0.118	0.186
-240.917	151.982	0.082	0.111
-239.903	-65.756	0.059	-0.024
-238.888	-144.107	-0.478	-0.044
-237.873	73.070	-0.221	-0.228
-236.859	62.890	-0.161	-0.160
-235.844	58.235	0.030	0.029
-234.830	-53.749	-0.147	0.067
-233.815	-200.000	0.047	-0.342
-232.800	-179.295	-0.315	-0.007
-231.786	-12.771	-0.101	0.065
-230.771	450.414	0.055	-0.120
-229.757	-200.000	0.017	-0.211
-228.742	-117.469	-0.135	-0.024
-227.727	264.395	-0.080	0.138
-226.713	-32.056	0.231	0.128
-225.698	-200.000	-0.056	0.418
-224.684	-93.723	-0.276	0.075
-223.669	-200.000	-0.018	0.217
-222.655	-170.863	-0.129	0.004
-221.640	-105.166	-0.116	0.026
-220.625	75.771	0.120	0.126
-219.611	29.005	0.313	0.262
-218.596	-200.000	-0.020	0.101
-217.582	-186.082	-0.170	-0.002
-216.567	-146.206	-0.317	0.028
-215.552	-124.417	0.152	0.023
-214.538	5.592	-0.052	-0.038
-213.523	-123.529	-0.161	0.025
-212.509	30.597	0.169	0.143
-211.494	292.410	0.078	-0.140
-210.479	-200.000	-0.074	-0.347
-209.465	601.050	-0.054	0.132
-208.450	252.271	0.031	0.052
-207.436	-139.897	0.191	0.020
-206.421	730.553	0.040	0.106
-205.406	216.511	-0.115	-0.180
-204.392	57.149	0.361	0.348
-203.377	433.820	0.108	0.233
-202.363	-200.000	0.001	-0.033
-201.348	-200.000	0.005	-0.229
-200.333	152.749	0.097	0.131
-199.319	-14.243	0.238	0.152
-198.304	-42.597	-0.293	-0.147
-197.290	-52.272	0.107	-0.049
-196.275	800.000	0.016	0.057
-195.260	-96.371	0.129	-0.034
-194.246	-164.068	0.131	0.006
-193.231	-200.000	-0.012	-0.102
-192.217	-11.084	-0.240	-0.156
-191.202	-118.314	-0.159	-0.028
-190.187	800.000	-0.015	-0.046
-189.173	72.859	-0.174	-0.180
-188.158	85.370	-0.166	0.180
-187.144	237.277	0.082	0.135
-186.129	-71.104	0.315	0.117
-185.114	378.442	-0.073	0.147
-184.100	-200.000	-0.005	-0.050
-183.085	-33.165	-0.266	0.145
-182.071	141.463	0.046	-0.061
-181.056	18.408	0.212	-0.167
-180.042	145.580	0.109	-0.144
-179.027	-72.533	0.544	0.198
-178.012	-117.429	-0.059	-0.010
-176.998	-19.146	0.145	0.089
-175.983	683.029	0.076	0.196
-174.969	-50.283	0.159	0.074
-173.954	35.947	0.118	-0.102
-172.939	-102.271	0.018	0.004
-171.925	-200.000	0.022	0.343
-170.910	43.652	-0.201	0.181
-169.896	-11.626	-0.082	0.053
-168.881	112.637	0.091	0.109
-167.866	-200.000	0.025	-0.220
-166.852	-92.193	0.495	0.138
-165.837	64.912	0.101	0.101
-164.823	-200.000	-0.033	0.324
-163.808	800.000	-0.060	0.209
-162.793	-200.000	0.063	0.395
-161.779	-80.227	0.220	0.073
-160.764	800.000	-0.039	-0.122
-159.750	-35.866	0.355	-0.190
-158.735	800.000	0.026	-0.098
-157.720	37.583	0.184	-0.161
-156.706	407.523	0.179	-0.374
-155.691	-37.349	0.316	-0.166
-154.677	-96.265	-0.190	0.050
-153.662	-48.523	0.203	-0.096
-152.647	152.030	-0.112	0.151
-151.633	110.711	-0.223	-0.264
-150.618	800.000	0.052	0.153
-149.604	-31.170	0.467	0.260
-148.589	-9.693	0.239	0.157
-147.574	671.933	-0.068	-0.174
-146.560	14.205	-0.153	0.117
-145.545	-20.237	0.052	-0.031
-144.531	219.901	-0.036	0.057
-143.516	246.709	0.312	0.519
-142.502	-200.000	-0.010	-0.047
-141.487	130.386	-0.006	0.008
-140.472	-200.000	-0.237	0.000
-139.458	-200.000	-0.003	-0.151
-138.443	-106.689	-0.197	0.043
-137.429	800.000	-0.012	0.048
-136.414	-22.066	0.269	-0.161
-135.399	-11.516	0.268	0.173
-134.385	-200.000	-0.005	-0.238
-133.370	-43.173	-0.173	0.087
-132.356	-200.000	0.025	-0.149
-131.341	-162.289	0.316	0.015
-130.326	-23.658	-0.303	0.179
-129.312	134.483	0.197	0.252
-128.297	800.000	0.140	0.545
-127.283	15.466	-0.197	0.152
-126.268	16.393	0.207	0.161
-125.253	59.838	0.379	-0.368
-124.239	-37.099	-0.091	0.048
-123.224	12.955	-0.152	-0.116
-122.210	-200.000	-0.012	-0.066
-121.195	-50.651	-0.235	0.109
-120.180	143.427	-0.133	0.174
-119.166	87.819	-0.156	-0.170
-118.151	-200.000	-0.001	0.348
-117.137	368.442	0.249	0.496
-116.122	402.671	0.115	0.238
-115.107	-45.594	-0.033	-0.016
-114.093	37.433	0.168	0.147
-113.078	214.569	0.050	-0.078
-112.064	102.915	0.083	-0.095
-111.049	91.189	-0.288	0.318
-110.034	-62.489	-0.283	-0.116
-109.020	21.050	0.139	0.111
-108.005	142.199	0.058	0.075
-106.991	106.559	0.087	0.102
-105.976	800.000	0.016	-0.045
-104.962	-64.934	0.254	-0.101
-103.947	80.440	0.160	-0.169
-102.932	-134.031	-0.466	0.057
-101.918	128.529	0.122	-0.153
-100.903	78.515	-0.133	-0.139
-99.889	-200.000	0.015	-0.067
-98.874	133.365	-0.123	0.157
-97.859	-31.547	0.151	0.083
-96.845	-88.711	-0.123	-0.036
-95.830	-75.796	-0.169	0.059
-94.816	-16.652	-0.310	-0.193
-93.801	800.000	-0.142	-0.564
-92.786	800.000	-0.037	0.149
-91.772	800.000	-0.041	-0.132
-90.757	122.631	0.039	-0.048
-89.743	-134.086	0.469	0.057
-88.728	-11.618	-0.153	-0.099
-87.713	-151.682	0.069	-0.005
-86.699	-24.985	-0.209	-0.122
-85.684	800.000	0.091	0.253
-84.670	-200.000	-0.017	0.182
-83.655	-110.473	0.460	0.094
-82.640	75.439	0.162	0.169
-81.626	-200.000	-0.020	0.150
-80.611	-200.000	0.027	0.150
-79.597	-101.863	-0.178	0.042
-78.582	-164.108	0.279	0.013
-77.567	-185.771	-0.188	-0.003
-76.553	223.205	-0.185	-0.293
-75.538	-16.554	0.097	0.060
-74.524	47.491	-0.322	-0.295
-73.509	-127.439	0.268	0.038
-72.494	-3.994	0.214	-0.146
-71.480	-200.000	-0.037	-0.166
-70.465	-41.605	0.217	0.110
-69.451	22.030	-0.072	-0.057
-68.436	-200.000	0.004	0.169
-67.422	256.878	0.100	0.168
-66.407	-132.570	0.153	0.019
-65.392	-89.180	0.413	0.120
-64.378	99.734	0.015	-0.017
-63.363	-105.644	-0.299	0.067
-62.349	-200.000	-0.002	0.155
-61.334	5.889	-1.029	-0.748
-60.319	249.669	0.346	0.577
-59.305	-200.000	0.069	-1.137
-58.290	10.307	0.947	0.708
-57.276	800.000	0.550	1.722
-56.261	-200.000	103.470	598.274
-55.246	561.335	1434.200	3405.018
-54.232	188.043	2618.299	3841.341
-53.217	115.696	2160.971	2595.110
-52.203	41.758	1695.481	1508.885
-51.188	34.314	1507.011	1290.908
-50.173	31.902	1479.479	1251.204
-49.159	53.137	1533.507	1441.663
-48.144	53.887	1550.847	1462.998
-47.130	34.353	1508.200	1291.981
-46.115	31.350	1493.051	1258.760
-45.100	31.184	1489.638	1254.720
-44.086	31.144	1487.757	1252.818
-43.071	31.122	1485.230	1250.493
-42.057	31.038	1484.230	1249.036
-41.042	31.079	1482.841	1248.091
-40.027	31.090	1481.142	1246.687
-39.013	31.134	1479.477	1245.533
-37.998	31.002	1478.887	1244.102
-36.984	31.138	1476.833	1243.230
-35.969	30.988	1475.986	1241.469
-34.954	30.988	1474.751	1240.383
-33.940	31.012	1473.556	1239.486
-32.925	31.103	1472.219	1238.915
-31.911	31.127	1470.487	1237.567
-30.896	31.130	1469.123	1236.395
-29.881	31.238	1468.209	1236.287
-28.867	31.107	1466.785	1234.175
-27.852	31.181	1465.411	1233.460
-26.838	31.248	1463.805	1232.502
-25.823	31.210	1462.261	1230.899
-24.809	31.100	1461.054	1229.109
-23.794	31.186	1459.354	1228.196
-22.779	31.182	1458.636	1227.522
-21.765	31.113	1457.409	1225.982
-20.750	31.188	1456.234	1225.441
-19.736	31.090	1455.400	1224.048
-18.721	31.098	1454.366	1223.181
-17.706	31.166	1452.521	1222.026
-16.692	31.163	1451.535	1221.129
-15.677	31.059	1450.677	1219.678
-14.663	31.091	1449.528	1218.875
-13.648	31.125	1448.754	1218.397
-12.633	31.184	1448.033	1218.126
-11.619	31.074	1447.463	1216.881
-10.604	31.120	1446.246	1216.108
-9.590	31.078	1445.518	1215.177
-8.575	31.123	1444.556	1214.609
-7.560	31.063	1443.589	1213.356
-6.546	31.042	1442.957	1212.646
-5.531	31.111	1442.321	1212.507
-4.517	30.942	1441.783	1210.912
-3.502	31.022	1440.391	1210.213
-2.487	31.014	1439.489	1209.356
-1.473	31.017	1438.125	1208.183
-0.458	30.997	1436.839	1206.922
0.556	31.739	1427.006	1194.437
1.571	27.972	1400.601	1148.609
2.586	23.783	1338.630	1072.463
3.600	21.807	1255.771	994.791
4.615	20.298	1212.028	951.786
5.629	17.481	1156.650	893.451
6.644	10.241	1075.122	794.960
7.659	4.681	1036.497	739.943
8.673	3.834	1031.479	732.284
9.688	3.779	1028.383	729.763
10.702	3.706	1026.808	728.234
11.717	3.801	1024.925	727.284
12.731	5.768	1026.174	737.361
13.746	12.863	1035.906	777.876
14.761	19.302	1044.195	814.555
15.775	20.737	1044.835	821.765
16.790	20.065	1043.807	817.710
17.804	19.149	1041.677	811.655
18.819	18.256	1039.429	805.628
19.834	17.813	1038.976	803.123
20.848	17.710	1037.364	801.322
21.863	17.532	1037.073	800.192
22.877	17.318	1036.188	798.432
23.892	17.109	1035.778	797.061
24.907	17.107	1034.531	796.024
25.921	17.152	1033.725	795.544
26.936	17.169	1033.014	795.006
27.950	17.041	1032.200	793.709
28.965	17.126	1031.055	793.155
29.980	17.255	1030.087	792.945
30.994	17.280	1029.154	792.272
32.009	17.380	1028.095	791.855
33.023	17.532	1027.434	791.979
34.038	17.445	1026.834	791.044
35.053	17.296	1025.580	789.315
36.067	17.292	1024.766	788.600
37.082	17.208	1024.153	787.670
38.096	17.243	1023.097	786.952
39.111	17.433	1022.416	787.236
40.126	17.505	1021.412	786.728
41.140	17.284	1020.758	785.134
42.155	17.123	1019.166	783.097
43.169	16.850	1018.737	781.436
44.184	16.846	1017.324	780.267
45.199	16.851	1016.277	779.416
46.213	16.956	1015.118	778.943
47.228	16.943	1014.508	778.345
48.242	17.118	1013.573	778.363
49.257	17.244	1012.905	778.357
50.271	17.211	1011.965	777.413
51.286	17.291	1010.824	776.834
52.301	17.309	1010.249	776.405
53.315	17.309	1009.550	775.800
54.330	17.176	1009.004	774.705
55.344	17.048	1007.796	773.125
56.359	17.043	1006.688	772.187
57.374	17.033	1006.001	771.544
58.388	17.014	1005.134	770.725
59.403	16.922	1004.201	769.523
60.417	16.784	1003.753	768.486
61.432	16.777	1003.135	767.914
62.447	16.849	1001.862	767.196
63.461	16.861	1000.959	766.493
64.476	16.761	1000.333	765.495
65.490	16.726	999.521	764.647
66.505	16.709	998.571	763.776
67.520	16.632	998.125	763.018
68.534	16.749	997.123	762.713
69.549	16.734	996.531	762.124
70.563	16.734	995.784	761.484
71.578	16.655	994.897	760.384
72.593	16.541	993.934	759.072
73.607	16.585	993.058	758.531
74.622	16.419	992.158	757.032
75.636	16.537	991.326	756.859
76.651	16.725	990.072	756.676
77.666	16.624	990.007	756.108
78.680	16.640	989.212	755.507
79.695	16.636	989.023	755.276
80.709	16.713	987.948	754.730
81.724	16.749	987.566	754.535
82.739	16.885	986.496	754.256
83.753	16.913	986.074	753.990
84.768	17.013	985.813	754.167
85.782	17.267	985.095	754.680
86.797	17.529	984.266	755.141
87.812	17.465	983.109	753.902
88.826	17.216	982.522	752.284
89.841	17.187	981.449	751.266
90.855	17.306	980.814	751.241
91.870	17.282	980.196	750.595
92.884	17.401	979.336	750.393
93.899	17.417	978.258	749.571
94.914	17.424	977.570	749.011
95.928	17.506	977.251	749.060
96.943	17.450	976.582	748.236
97.957	17.342	975.663	746.992
98.972	17.390	974.271	746.069
99.987	17.379	973.807	745.597
101.001	17.505	973.062	745.512
102.016	17.320	972.555	744.252
103.030	17.351	971.475	743.494
104.045	17.364	970.394	742.657
105.060	17.482	969.600	742.497
106.074	17.265	969.004	741.033
107.089	17.106	967.370	739.023
108.103	16.815	966.707	737.188
109.118	16.768	965.976	736.356
110.133	16.766	965.171	735.672
111.147	16.882	963.893	735.134
112.162	16.798	963.058	734.070
113.176	16.855	961.997	733.443
114.191	16.931	961.532	733.352
115.206	16.984	961.009	733.115
116.220	17.054	960.065	732.635
117.235	16.964	959.157	731.486
118.249	17.085	958.225	731.234
119.264	16.843	957.599	729.651
120.279	16.816	956.847	728.894
121.293	16.754	956.273	728.130
122.308	16.648	955.552	727.061
123.322	16.735	954.261	726.386
124.337	16.613	952.820	724.703
125.352	16.618	952.275	724.244
126.366	16.630	951.288	723.479
127.381	16.683	950.169	722.794
128.395	16.595	949.201	721.617
129.410	16.712	948.273	721.344
130.424	16.692	947.655	720.726
131.439	16.715	946.851	720.151
132.454	16.791	946.229	719.935
133.468	16.960	945.400	719.957
134.483	17.040	944.494	719.546
135.497	16.987	943.932	718.827
136.512	16.866	943.278	717.752
137.527	16.982	942.580	717.652
138.541	16.876	941.712	716.477
139.556	17.044	940.889	716.496
140.570	17.002	940.390	715.876
141.585	17.085	939.602	715.562
142.600	17.310	939.074	716.046
143.614	17.240	938.289	715.090
144.629	17.381	937.723	715.187
145.643	17.394	936.843	714.508
146.658	17.306	936.125	713.526
147.673	17.300	935.083	712.644
148.687	17.151	934.287	711.353
149.702	16.986	933.334	709.875
150.716	16.909	932.598	708.930
151.731	17.034	931.527	708.574
152.746	17.007	931.043	708.029
153.760	17.143	930.665	708.247
154.775	17.040	929.669	706.998
155.789	17.224	928.854	707.081
156.804	17.230	928.117	706.483
157.819	17.264	927.194	705.860
158.833	17.213	926.926	705.381
159.848	17.357	926.004	705.211
160.862	17.482	925.466	705.260
161.877	17.350	925.096	704.369
162.892	17.382	923.534	703.250
163.906	17.119	922.628	701.409
164.921	17.078	921.752	700.514
165.935	16.998	920.908	699.479
166.950	16.993	920.076	698.765
167.964	17.167	919.329	698.853
168.979	17.340	917.998	698.489
169.994	17.254	916.872	697.216
171.008	17.189	915.993	696.223
172.023	17.329	915.335	696.231
173.037	17.355	914.935	695.973
174.052	17.459	914.177	695.761
175.067	17.450	913.666	695.273
176.081	17.282	912.885	693.931
177.096	17.205	911.524	692.523
178.110	17.063	910.698	691.255
179.125	17.157	910.229	691.222
180.140	17.131	909.498	690.499
181.154	17.224	908.976	690.420
182.169	17.266	908.542	690.199
183.183	17.388	907.968	690.198
184.198	17.455	907.283	689.886
185.213	17.548	906.502	689.606
186.227	17.383	905.698	688.268
187.242	17.334	905.529	687.881
188.256	17.685	904.387	688.371
189.271	17.723	903.575	687.845
190.286	17.744	903.126	687.525
191.300	17.461	902.647	685.958
192.315	17.118	901.049	683.305
193.329	17.061	900.252	682.411
194.344	16.845	900.242	681.476
195.359	17.117	899.287	681.783
196.373	17.282	899.080	682.228
197.388	17.369	898.596	682.149
198.402	17.552	897.997	682.369
199.417	17.696	898.065	682.935
200.432	17.939	897.122	683.131
201.446	17.833	896.786	682.391
202.461	17.888	896.450	682.295
203.475	17.936	896.159	682.205
204.490	18.004	895.369	681.813
205.504	17.787	894.441	680.181
206.519	17.675	893.504	678.961
207.534	17.689	892.577	678.254
208.548	17.507	891.772	676.860
209.563	17.611	891.424	676.947
210.577	17.619	890.972	676.577
211.592	17.643	890.247	676.060
212.607	17.770	889.951	676.279
213.621	18.007	889.003	676.441
214.636	17.921	888.480	675.641
215.650	17.784	887.966	674.647
216.665	17.794	887.694	674.422
217.680	17.867	887.316	674.362
218.694	18.064	886.470	674.436
219.709	18.035	886.127	674.002
220.723	17.879	885.626	672.949
221.738	18.090	884.512	672.872
222.753	17.928	883.982	671.774
223.767	17.946	883.407	671.348
224.782	18.015	882.459	670.839
225.796	18.162	881.877	670.912
226.811	18.096	881.552	670.345
227.826	18.232	880.545	670.053
228.840	18.043	879.996	668.840
229.855	17.944	879.421	667.956
230.869	17.936	878.698	667.314
231.884	17.899	878.268	666.786
232.899	17.881	877.533	666.098
233.913	17.805	876.620	665.050
234.928	17.757	875.970	664.311
235.942	17.797	875.164	663.798
236.957	17.781	874.610	663.253
237.972	17.754	873.823	662.494
238.986	17.734	873.620	662.203
240.001	17.766	872.533	661.448
241.015	17.760	872.176	661.093
242.030	17.748	871.609	660.560
243.045	17.835	870.865	660.274
244.059	17.900	870.431	660.137
245.074	18.024	869.486	659.841
246.088	18.018	869.110	659.475
247.103	18.112	868.983	659.683
248.117	18.303	868.029	659.637
249.132	18.231	867.763	659.099
250.147	18.478	867.329	659.661
251.161	18.699	866.947	660.160
252.176	18.703	866.172	659.528
253.190	18.729	865.257	658.873
254.205	18.741	865.356	658.937
255.220	18.815	864.552	658.550
256.234	18.811	863.553	657.714
257.249	18.759	863.380	657.326
258.263	18.596	863.011	656.362
259.278	18.868	862.071	656.628
260.293	18.723	861.503	655.584
261.307	18.769	861.063	655.370
262.322	18.956	860.549	655.631
263.336	18.987	860.102	655.353
264.351	18.894	859.749	654.670
265.366	18.974	858.942	654.302
266.380	18.899	858.274	653.452
267.395	19.055	857.477	653.380
268.409	18.971	856.395	652.179
269.424	18.781	856.132	651.198
270.439	18.886	855.323	650.924
271.453	18.754	854.751	649.930
272.468	18.854	853.697	649.449
273.482	18.680	853.197	648.354
274.497	18.663	852.764	647.904
275.512	18.812	852.098	647.904
276.526	18.831	851.318	647.324
277.541	18.689	850.738	646.292
278.555	18.854	850.283	646.509
279.570	18.811	850.035	646.100
280.585	18.950	849.713	646.322
281.599	18.993	849.037	645.912
282.614	19.007	848.430	645.445
283.628	18.915	847.281	644.171
284.643	18.923	846.691	643.696
285.657	18.957	846.328	643.488
286.672	18.763	846.066	642.507
287.687	18.871	845.425	642.369
288.701	19.034	844.821	642.459
289.716	18.785	844.749	641.418
290.730	18.826	843.840	640.823
291.745	18.971	843.194	640.817
292.760	19.006	842.297	640.209
293.774	19.109	841.657	640.051
294.789	19.104	841.497	639.851
295.803	19.048	840.776	639.040
296.818	19.112	839.639	638.357
297.833	18.948	839.357	637.478
298.847	19.037	838.480	637.084
299.862	18.991	838.257	636.690
300.876	18.986	837.688	636.181
301.891	19.118	836.799	635.937
302.906	19.341	835.938	636.049
303.920	19.349	835.714	635.854
304.935	19.469	835.231	635.872
305.949	19.582	834.772	635.883
306.964	19.566	834.081	635.240
307.979	19.608	832.953	634.479
308.993	19.374	832.710	633.378
310.008	19.379	832.591	633.251
311.022	19.446	832.023	633.008
312.037	19.398	831.598	632.451
313.052	19.225	831.098	631.383
314.066	19.250	829.951	630.548
315.081	19.166	829.264	629.663
316.095	19.055	828.524	628.639
317.110	19.257	828.092	628.992
318.125	19.115	827.891	628.268
319.139	19.136	827.367	627.890
320.154	19.151	827.056	627.653
321.168	19.137	826.605	627.206
322.183	19.114	825.962	626.578
323.197	19.297	825.109	626.539
324.212	19.258	824.844	626.142
325.227	19.279	824.368	625.800
326.241	19.145	823.976	624.963
327.256	19.226	823.531	624.864
328.270	19.298	822.741	624.467
329.285	19.308	822.148	624.000
330.300	19.317	821.564	623.534
331.314	19.164	821.148	622.612
332.329	19.291	820.678	622.657
333.343	19.363	819.693	622.115
334.358	19.486	819.239	622.159
335.373	19.465	818.873	621.751
336.387	19.542	817.942	621.263
337.402	19.558	817.869	621.212
338.416	19.634	817.304	621.001
339.431	19.730	816.872	620.964
340.446	19.795	816.287	620.698
341.460	19.956	815.647	620.734
342.475	19.917	815.190	620.192
343.489	19.969	814.817	620.036
344.504	19.987	814.496	619.804
345.519	20.101	813.564	619.447
346.533	20.073	813.488	619.234
347.548	20.219	812.416	618.882
348.562	19.945	811.836	617.409
349.577	19.665	811.688	616.246
350.592	19.611	811.444	615.811
351.606	19.650	810.663	615.302
352.621	19.589	810.435	614.860
353.635	19.725	809.391	614.495
354.650	19.672	809.263	614.157
355.665	19.778	809.044	614.312
356.679	19.925	808.340	614.244
357.694	19.978	807.754	613.934
358.708	19.881	807.311	613.197
359.723	19.895	806.681	612.716
360.738	19.983	806.009	612.461
361.752	19.878	806.100	612.107
362.767	19.839	805.418	611.397
363.781	19.944	805.311	611.631
364.796	20.004	805.232	611.729
365.810	20.252	804.519	612.009
366.825	20.378	804.183	612.142
367.840	20.380	803.801	611.805
368.854	20.449	802.967	611.358
369.869	20.167	802.999	610.337
370.883	20.155	802.319	609.724
371.898	20.239	801.913	609.656
372.913	20.287	801.043	609.108
373.927	20.367	800.462	608.895
374.942	20.376	799.614	608.227
375.956	20.371	799.060	607.736
376.971	20.491	798.666	607.799
377.986	20.464	798.373	607.429
379.000	20.632	797.836	607.555
380.015	20.565	797.562	607.056
381.029	20.696	796.527	606.673
382.044	20.583	795.898	605.746
383.059	20.497	795.637	605.194
384.073	20.509	795.018	604.713
385.088	20.477	794.550	604.190
386.102	20.322	794.138	603.284
387.117	20.336	793.073	602.471
388.132	20.248	792.841	601.938
389.146	20.346	792.306	601.819
390.161	20.204	792.324	601.287
391.175	20.450	791.906	601.766
392.190	20.534	791.192	601.461
393.205	20.510	790.982	601.168
394.219	20.427	790.108	600.162
395.234	20.285	789.849	599.420
396.248	20.364	788.961	598.968
397.263	20.224	788.738	598.261
398.278	20.192	788.174	597.670
399.292	20.124	787.803	597.102
400.307	20.126	787.716	596.990
401.321	20.068	787.222	596.364
402.336	20.155	786.879	596.351
403.350	20.219	786.646	596.339
404.365	20.406	786.070	596.494
405.380	20.570	785.286	596.410
406.394	20.555	785.479	596.453
407.409	20.738	784.771	596.490
408.423	20.837	784.469	596.544
409.438	20.738	783.998	595.795
410.453	20.911	783.447	595.915
411.467	20.762	783.404	595.321
412.482	21.031	782.761	595.697
413.496	20.996	782.333	595.200
414.511	20.901	782.394	594.869
415.526	20.946	782.023	594.687
416.540	20.917	781.583	594.201
417.555	21.031	780.647	593.827
418.569	21.020	780.314	593.484
419.584	21.025	779.670	592.956
420.599	21.098	779.313	592.881
421.613	161.173	1369.278	1794.386
422.628	139.249	1455.235	1794.491
