DTS Sentinel unit serial number:	SN413079Multiplexer serial number:	ORYXHardware model number:	OX4-SRSoftware version number:	ORYX F/W v4.00 Oryx Data Collector v3.7.2.0data status	okinstallation	princeton_trtdifferential loss correction	single-endedforward channel	channel 3reverse channel	N/Adate	2019/09/15time	11:52:35forward acquisition time	60.00reverse acquisition time	0.00gamma	496.2192k internal	0.2306k external	0.2306temperature offset calibration	0.9976default loss term (dB/km)	0.3790temperature slope calibration	1.0000multiplexer offset coefficient	1.0000multiplexer slope coefficient	1.0000fibre end	0.00T internal ref (°C)	34.37T ext. ref 1 (°C)	5.06T ext. ref 2 (°C)	30.09length (m)	temperature (°C)	Stokes	anti-Stokes-747.200	781.971	-0.128	0.356
-746.185	-156.262	0.305	-0.019
-745.171	-200.000	-0.008	-0.109
-744.156	-37.411	0.191	0.104
-743.142	31.602	0.288	0.252
-742.127	800.000	-0.042	-0.121
-741.112	-0.420	0.125	0.090
-740.098	121.017	0.107	-0.135
-739.083	-103.562	0.054	0.013
-738.069	31.324	0.284	0.248
-737.054	-200.000	-0.049	-0.263
-736.039	36.078	-0.071	-0.064
-735.025	3.411	0.204	0.151
-734.010	-200.000	0.009	-0.424
-732.996	-29.178	0.231	-0.135
-731.981	-48.825	-0.238	0.116
-730.966	20.495	0.163	0.134
-729.952	-92.483	-0.197	-0.056
-728.937	89.374	-0.229	-0.259
-727.923	26.543	0.130	0.111
-726.908	-134.909	-0.192	0.024
-725.894	-34.847	-0.196	0.109
-724.879	-26.577	0.135	-0.080
-723.864	-4.107	0.169	-0.119
-722.850	422.494	-0.182	-0.397
-721.835	9.463	0.426	-0.328
-720.821	436.976	0.083	-0.185
-719.806	14.575	-0.099	0.078
-718.791	20.979	0.230	-0.189
-717.777	-187.165	-0.204	-0.003
-716.762	-157.241	-0.282	-0.017
-715.748	-57.544	-0.212	-0.094
-714.733	139.577	0.114	0.152
-713.718	-124.828	0.224	0.035
-712.704	800.000	0.037	0.165
-711.689	146.468	-0.109	0.148
-710.675	-67.049	0.451	-0.181
-709.660	266.261	0.083	0.148
-708.645	108.674	0.062	0.075
-707.631	800.000	0.192	-0.593
-706.616	-84.422	-0.314	-0.101
-705.602	250.386	0.074	-0.128
-704.587	62.216	0.133	-0.135
-703.572	269.020	-0.123	-0.219
-702.558	2.794	0.316	0.233
-701.543	23.272	0.169	0.141
-700.529	800.000	-0.041	0.137
-699.514	800.000	-0.053	0.227
-698.499	120.260	0.212	-0.267
-697.485	800.000	0.020	-0.060
-696.470	-49.848	0.293	0.141
-695.456	-200.000	0.212	0.001
-694.441	-69.655	-0.022	0.008
-693.426	65.120	0.126	0.129
-692.412	-200.000	0.080	-0.357
-691.397	62.051	-0.107	0.108
-690.383	800.000	0.088	0.290
-689.368	-24.763	-0.173	0.104
-688.354	267.462	-0.124	0.221
-687.339	-200.000	-0.014	-0.333
-686.324	-40.627	-0.263	-0.138
-685.310	117.887	-0.036	0.045
-684.295	66.056	-0.227	-0.234
-683.281	49.385	-0.171	-0.163
-682.266	-48.813	0.278	-0.135
-681.251	32.722	0.028	-0.024
-680.237	47.110	0.151	0.142
-679.222	-57.939	-0.138	0.061
-678.208	262.958	0.201	0.354
-677.193	542.404	0.057	-0.139
-676.178	-96.892	0.142	0.038
-675.164	-40.946	-0.295	0.155
-674.149	210.269	0.084	-0.133
-673.135	112.165	-0.081	-0.100
-672.120	-35.046	0.320	-0.177
-671.105	-200.000	0.004	0.153
-670.091	-44.142	0.048	-0.024
-669.076	73.082	-0.276	-0.293
-668.062	-105.936	0.128	0.029
-667.047	-200.000	0.003	0.020
-666.032	379.114	-0.063	0.131
-665.018	-200.000	0.005	-0.101
-664.003	67.885	-0.106	-0.110
-662.989	-114.117	-0.113	-0.022
-661.974	638.534	0.089	-0.230
-660.959	800.000	-0.085	0.241
-659.945	21.087	0.211	0.173
-658.930	-116.062	0.261	0.049
-657.916	62.913	-0.187	-0.190
-656.901	73.819	-0.247	0.263
-655.886	-15.194	0.039	0.025
-654.872	55.484	0.070	-0.069
-653.857	515.439	-0.069	0.164
-652.843	73.019	-0.150	-0.159
-651.828	-137.814	0.367	0.042
-650.814	18.711	0.215	0.174
-649.799	-179.685	0.339	0.007
-648.784	138.030	0.040	0.053
-647.770	-110.475	0.221	0.047
-646.755	51.377	0.182	0.175
-645.741	-200.000	-0.052	-0.369
-644.726	38.588	-0.236	-0.214
-643.711	-200.000	-0.002	-0.125
-642.697	11.085	-0.168	-0.130
-641.682	158.950	0.070	-0.098
-640.668	-200.000	-0.014	0.263
-639.653	191.249	-0.115	0.175
-638.638	-200.000	0.006	0.138
-637.624	-200.000	-0.024	-0.116
-636.609	-23.783	-0.067	0.040
-635.595	800.000	-0.052	0.204
-634.580	-103.844	-0.100	0.024
-633.565	58.678	-0.215	-0.214
-632.551	-200.000	0.012	-0.209
-631.536	-200.000	0.014	-0.069
-630.522	105.180	0.196	-0.235
-629.507	-16.877	-0.129	-0.082
-628.492	234.106	-0.146	-0.244
-627.478	-39.319	-0.309	0.164
-626.463	-200.000	0.002	0.267
-625.449	59.245	-0.207	0.206
-624.434	10.681	-0.179	0.138
-623.419	19.346	-0.386	-0.314
-622.405	193.052	0.194	0.297
-621.390	41.434	0.226	0.207
-620.376	-57.323	0.232	0.103
-619.361	-200.000	0.037	-0.175
-618.346	-77.371	-0.127	-0.045
-617.332	347.831	0.065	0.130
-616.317	0.669	0.032	-0.023
-615.303	-149.545	0.517	-0.041
-614.288	-111.283	-0.116	-0.024
-613.273	800.000	0.051	0.214
-612.259	-137.761	0.275	0.031
-611.244	19.232	0.132	-0.107
-610.230	-200.000	-0.024	0.220
-609.215	231.783	-0.061	0.101
-608.201	342.785	-0.118	-0.234
-607.186	543.839	0.106	0.257
-606.171	44.527	-0.066	-0.061
-605.157	201.848	0.126	0.196
-604.142	89.367	0.122	-0.138
-603.128	-166.801	-0.407	0.017
-602.113	40.439	0.145	-0.132
-601.098	10.082	0.089	-0.069
-600.084	-175.471	0.145	0.004
-599.069	-200.000	-0.041	0.290
-598.055	76.822	-0.030	-0.033
-597.040	1.110	-0.074	-0.054
-596.025	800.000	0.051	-0.155
-595.011	800.000	-0.056	0.205
-593.996	106.608	0.168	0.202
-592.982	-85.582	0.242	0.076
-591.967	348.230	-0.078	0.156
-590.952	279.814	0.064	0.115
-589.938	-108.519	-0.245	-0.053
-588.923	234.823	0.031	0.051
-587.909	800.000	-0.034	0.111
-586.894	-149.052	-0.190	0.015
-585.879	-68.611	-0.199	-0.078
-584.865	-71.957	-0.403	0.151
-583.850	97.998	-0.143	-0.166
-582.836	-51.608	-0.125	-0.059
-581.821	-47.400	-0.223	-0.110
-580.806	281.108	-0.163	0.295
-579.792	-152.935	0.142	-0.010
-578.777	-200.000	-0.021	-0.203
-577.763	800.000	-0.123	0.431
-576.748	22.429	-0.096	0.079
-575.733	800.000	0.037	-0.108
-574.719	-80.951	-0.134	0.045
-573.704	-81.444	-0.062	-0.021
-572.690	-45.975	0.017	0.008
-571.675	-9.094	-0.205	-0.139
-570.661	-3.171	-0.295	-0.208
-569.646	-45.136	0.509	0.256
-568.631	559.203	-0.027	0.065
-567.617	167.105	0.112	0.160
-566.602	-146.219	-0.229	-0.020
-565.588	-200.000	0.050	0.277
-564.573	-107.112	0.078	0.017
-563.558	-67.272	0.373	-0.148
-562.544	-111.113	-0.354	0.073
-561.529	22.948	-0.082	-0.068
-560.515	311.659	0.187	0.355
-559.500	-200.000	-0.005	0.286
-558.485	104.458	-0.064	0.077
-557.471	239.441	-0.050	0.085
-556.456	342.969	-0.042	0.083
-555.442	-95.991	-0.187	0.050
-554.427	46.428	-0.294	-0.275
-553.412	-178.314	0.138	0.003
-552.398	-61.615	-0.120	0.051
-551.383	-200.000	-0.020	-0.252
-550.369	291.235	-0.231	-0.424
-549.354	170.607	-0.043	-0.062
-548.339	-200.000	-0.018	0.213
-547.325	-81.441	-0.245	-0.082
-546.310	-200.000	0.029	-0.198
-545.296	17.478	0.275	0.221
-544.281	800.000	-0.081	0.309
-543.266	-200.000	-0.022	0.258
-542.252	39.431	-0.170	-0.153
-541.237	-113.151	0.068	-0.014
-540.223	-200.000	0.024	-0.281
-539.208	132.866	-0.247	-0.322
-538.193	-31.873	-0.253	-0.143
-537.179	26.059	0.219	0.184
-536.164	-64.332	0.173	0.071
-535.150	-170.494	-0.456	-0.016
-534.135	19.710	-0.215	-0.174
-533.121	-200.000	0.019	0.110
-532.106	137.039	-0.099	0.130
-531.091	-183.115	0.423	0.008
-530.077	103.106	-0.022	-0.027
-529.062	-43.264	0.179	-0.091
-528.048	-34.938	0.308	0.170
-527.033	-200.000	0.018	0.439
-526.018	-82.162	0.323	0.106
-525.004	-200.000	0.034	0.161
-523.989	-200.000	-0.014	-0.350
-522.975	113.764	-0.113	-0.138
-521.960	-165.416	-0.157	-0.007
-520.945	771.083	0.020	0.056
-519.931	-68.781	-0.181	-0.071
-518.916	61.324	0.067	0.067
-517.902	800.000	-0.045	-0.173
-516.887	-200.000	0.218	0.001
-515.872	-200.000	-0.010	0.277
-514.858	-118.269	0.021	-0.004
-513.843	109.310	-0.087	0.105
-512.829	-115.616	0.318	-0.060
-511.814	-200.000	0.010	0.189
-510.799	800.000	-0.186	-0.639
-509.785	-109.218	-0.095	0.020
-508.770	-200.000	0.034	-0.320
-507.756	800.000	0.110	0.373
-506.741	29.166	-0.104	0.089
-505.726	800.000	-0.063	-0.251
-504.712	-200.000	0.003	-0.014
-503.697	-200.000	-0.004	0.036
-502.683	-200.000	-0.085	0.405
-501.668	-149.139	0.214	0.017
-500.653	271.874	0.103	0.183
-499.639	-119.429	0.221	-0.039
-498.624	25.363	0.237	0.198
-497.610	-119.312	0.131	0.023
-496.595	42.016	-0.225	-0.206
-495.581	-92.785	0.247	-0.069
-494.566	-42.265	-0.225	-0.116
-493.551	-200.000	-0.031	0.253
-492.537	41.627	0.188	-0.171
-491.522	-200.000	0.011	0.051
-490.508	31.383	0.179	0.154
-489.493	-200.000	0.016	-0.122
-488.478	-129.028	-0.057	0.008
-487.464	-14.791	-0.369	-0.239
-486.449	186.352	-0.082	0.123
-485.435	752.176	-0.079	-0.215
-484.420	-17.014	-0.263	-0.167
-483.405	-76.990	0.105	0.037
-482.391	-30.566	0.069	-0.039
-481.376	-185.041	0.199	0.003
-480.362	598.362	-0.013	0.033
-479.347	-161.471	-0.203	-0.011
-478.332	81.546	0.129	0.140
-477.318	-85.560	0.236	0.074
-476.303	17.670	-0.160	-0.128
-475.289	800.000	0.083	-0.284
-474.274	235.609	-0.126	-0.209
-473.259	-119.434	0.330	-0.058
-472.245	81.866	0.031	0.034
-471.230	-200.000	0.005	0.335
-470.216	662.781	-0.035	-0.091
-469.201	-200.000	0.006	-0.161
-468.186	-192.259	-0.141	-0.001
-467.172	-31.491	-0.114	0.065
-466.157	-48.493	-0.231	-0.112
-465.143	-131.466	0.206	-0.027
-464.128	-46.768	0.253	-0.125
-463.113	-48.719	-0.131	-0.063
-462.099	229.680	-0.036	-0.060
-461.084	-200.000	0.021	0.128
-460.070	-70.579	0.318	-0.121
-459.055	800.000	0.076	0.274
-458.040	-120.432	-0.099	-0.017
-457.026	-72.777	0.068	-0.025
-456.011	-165.862	-0.079	0.003
-454.997	-17.739	0.198	-0.125
-453.982	-149.951	0.316	0.025
-452.968	-72.494	-0.118	0.044
-451.953	61.073	0.078	-0.078
-450.938	-200.000	0.017	0.163
-449.924	176.143	0.194	0.284
-448.909	-1.894	-0.147	-0.104
-447.895	-89.366	0.144	0.043
-446.880	-200.000	-0.011	0.117
-445.865	16.409	0.098	0.078
-444.851	-34.752	-0.273	-0.150
-443.836	142.182	0.061	-0.081
-442.822	-200.000	0.033	0.197
-441.807	-200.000	-0.005	-0.274
-440.792	-200.000	-0.006	-0.174
-439.778	-84.153	0.091	-0.029
-438.763	128.769	-0.098	-0.125
-437.749	-184.103	0.177	0.003
-436.734	-75.086	-0.353	0.127
-435.719	438.752	-0.183	0.402
-434.705	445.809	0.077	0.170
-433.690	-200.000	0.027	-0.127
-432.676	-182.909	0.229	-0.004
-431.661	-200.000	0.024	-0.168
-430.646	-200.000	0.024	0.227
-429.632	-115.509	-0.263	0.050
-428.617	-96.083	-0.196	-0.052
-427.603	-56.789	-0.252	-0.112
-426.588	-74.720	-0.065	-0.023
-425.573	-166.055	0.191	0.008
-424.559	-60.294	0.263	0.112
-423.544	-64.084	0.218	-0.089
-422.530	126.493	0.094	0.120
-421.515	-127.332	0.215	0.031
-420.500	120.128	0.129	0.161
-419.486	419.966	-0.133	0.285
-418.471	52.996	0.212	0.204
-417.457	7.456	-0.233	-0.175
-416.442	-4.850	0.141	-0.098
-415.428	11.581	0.126	-0.097
-414.413	135.982	-0.271	0.355
-413.398	673.249	0.086	-0.225
-412.384	59.010	0.242	-0.239
-411.369	108.861	0.280	0.336
-410.355	-125.099	0.049	-0.008
-409.340	800.000	0.033	0.109
-408.325	-200.000	-0.002	0.012
-407.311	234.852	-0.048	-0.080
-406.296	-74.291	-0.079	-0.029
-405.282	-144.498	-0.158	0.015
-404.267	-119.736	0.224	-0.039
-403.252	800.000	-0.072	0.265
-402.238	-46.279	-0.205	-0.101
-401.223	800.000	-0.045	-0.132
-400.209	29.630	-0.180	0.154
-399.194	-72.009	0.248	0.092
-398.179	-112.323	0.390	-0.078
-397.165	-1.295	-0.251	0.178
-396.150	-99.618	0.249	0.063
-395.136	218.885	-0.091	-0.146
-394.121	0.225	0.292	0.209
-393.106	31.364	-0.341	-0.294
-392.092	105.405	0.071	-0.085
-391.077	-136.480	0.326	0.038
-390.063	-83.714	0.125	0.040
-389.048	88.066	0.188	0.209
-388.033	325.658	-0.051	-0.098
-387.019	-25.650	0.278	0.164
-386.004	-200.000	-0.029	-0.539
-384.990	45.162	-0.170	0.157
-383.975	-200.000	-0.012	0.230
-382.960	-3.006	-0.033	-0.023
-381.946	-200.000	-0.048	0.234
-380.931	150.995	0.048	-0.065
-379.917	35.870	0.265	0.234
-378.902	-200.000	-0.015	-0.173
-377.888	153.562	0.131	-0.180
-376.873	-200.000	0.001	0.020
-375.858	-28.962	-0.223	0.129
-374.844	-139.161	-0.086	0.009
-373.829	800.000	0.034	-0.147
-372.815	-200.000	-0.018	0.085
-371.800	800.000	0.134	0.378
-370.785	241.662	0.147	0.247
-369.771	-22.046	0.063	-0.039
-368.756	-200.000	-0.052	0.256
-367.742	-107.677	0.212	-0.046
-366.727	304.903	-0.042	-0.078
-365.712	182.082	-0.235	-0.347
-364.698	259.376	-0.112	-0.193
-363.683	65.607	0.133	0.135
-362.669	-200.000	0.022	-0.330
-361.654	665.736	0.033	-0.084
-360.639	-200.000	0.003	0.015
-359.625	-100.830	-0.097	-0.024
-358.610	0.935	0.345	-0.248
-357.596	0.590	-0.187	0.134
-356.581	186.850	0.030	0.045
-355.566	600.143	0.048	0.120
-354.552	28.228	0.377	0.319
-353.537	53.473	0.167	-0.160
-352.523	-0.828	-0.042	0.030
-351.508	-41.874	-0.144	-0.074
-350.493	-94.263	-0.301	0.083
-349.479	-28.420	-0.273	0.158
-348.464	-139.715	-0.178	0.019
-347.450	-7.789	0.082	0.055
-346.435	-118.874	-0.204	-0.036
-345.420	553.083	-0.097	-0.234
-344.406	371.303	-0.087	0.177
-343.391	-87.435	-0.298	0.090
-342.377	-58.806	0.270	-0.117
-341.362	432.148	0.150	-0.327
-340.348	53.011	0.360	0.345
-339.333	-61.109	-0.265	0.112
-338.318	-42.820	-0.254	-0.129
-337.304	-200.000	-0.042	0.187
-336.289	7.944	0.133	-0.100
-335.275	401.858	0.109	0.229
-334.260	-191.164	-0.085	0.001
-333.245	89.743	-0.188	-0.210
-332.231	800.000	-0.156	0.521
-331.216	-135.360	0.113	-0.013
-330.202	51.217	-0.205	0.195
-329.187	-87.294	-0.080	0.024
-328.172	9.414	-0.086	-0.065
-327.158	19.199	-0.155	0.124
-326.143	276.357	0.135	0.241
-325.129	-21.187	-0.093	0.057
-324.114	800.000	-0.013	0.046
-323.099	-200.000	-0.018	-0.136
-322.085	492.269	0.041	0.094
-321.070	9.765	0.088	-0.067
-320.056	133.805	-0.166	-0.215
-319.041	-36.211	-0.140	-0.076
-318.026	-71.434	0.100	0.037
-317.012	-200.000	-0.027	-0.142
-315.997	-58.007	-0.142	0.062
-314.983	179.960	-0.093	0.136
-313.968	-200.000	0.036	0.205
-312.953	-39.272	-0.160	0.084
-311.939	-147.398	0.091	-0.008
-310.924	-109.837	-0.214	0.045
-309.910	-141.523	0.073	0.007
-308.895	509.875	-0.027	-0.062
-307.880	-115.651	0.105	-0.020
-306.866	-47.640	0.117	-0.057
-305.851	187.119	-0.141	0.210
-304.837	67.863	-0.079	0.081
-303.822	369.828	0.078	0.157
-302.807	-93.406	0.355	0.098
-301.793	-16.820	0.253	0.160
-300.778	-200.000	-0.008	-0.050
-299.764	396.709	-0.114	0.238
-298.749	-187.469	0.013	0.000
-297.735	-25.621	-0.184	-0.109
-296.720	-200.000	0.016	-0.122
-295.705	800.000	0.059	-0.218
-294.691	800.000	0.098	-0.321
-293.676	70.391	-0.175	-0.181
-292.662	390.730	0.075	-0.155
-291.647	-123.687	-0.233	-0.037
-290.632	-86.212	-0.056	-0.017
-289.618	271.333	0.154	0.270
-288.603	-82.560	0.134	0.044
-287.589	-133.702	-0.469	-0.059
-286.574	-129.410	0.194	-0.027
-285.559	-100.119	-0.137	0.034
-284.545	-200.000	-0.006	0.059
-283.530	-200.000	0.004	0.078
-282.516	-95.087	-0.135	-0.037
-281.501	-61.075	0.247	0.104
-280.486	-29.761	-0.227	0.129
-279.472	-43.634	0.143	-0.072
-278.457	800.000	-0.037	-0.116
-277.443	159.106	-0.262	-0.364
-276.428	-32.750	0.143	-0.079
-275.413	159.030	-0.178	-0.246
-274.399	-67.608	0.099	0.039
-273.384	131.472	-0.059	0.075
-272.370	800.000	-0.054	0.200
-271.355	-200.000	-0.035	-0.266
-270.340	-200.000	0.023	0.477
-269.326	522.934	0.052	0.123
-268.311	800.000	0.077	-0.213
-267.297	-78.628	-0.222	0.076
-266.282	-66.717	-0.067	-0.027
-265.267	-55.051	0.445	0.200
-264.253	-2.395	0.090	-0.063
-263.238	59.915	-0.254	-0.251
-262.224	-200.000	-0.202	-0.001
-261.209	43.062	-0.096	-0.088
-260.195	86.560	-0.131	0.144
-259.180	-200.000	0.027	0.167
-258.165	-165.125	0.266	0.012
-257.151	3.001	-0.175	-0.127
-256.136	-127.627	0.360	-0.052
-255.122	56.788	-0.317	-0.308
-254.107	351.330	-0.062	0.123
-253.092	-18.652	-0.297	0.185
-252.078	-5.273	0.113	-0.078
-251.063	-119.590	-0.408	-0.070
-250.049	-93.068	0.221	-0.061
-249.034	595.250	0.130	-0.321
-248.019	141.522	0.226	-0.298
-247.005	-200.000	-0.014	0.070
-245.990	116.720	0.175	-0.214
-244.976	-57.941	0.257	-0.112
-243.961	-200.000	-0.046	-0.311
-242.946	-105.282	0.278	0.063
-241.932	-70.760	0.141	0.053
-240.917	-76.196	-0.184	0.065
-239.903	-37.876	-0.292	-0.155
-238.888	-121.037	0.254	0.042
-237.873	25.214	0.098	-0.081
-236.859	-130.730	-0.208	-0.028
-235.844	800.000	0.077	-0.233
-234.830	-200.000	-0.006	0.100
-233.815	56.575	0.228	-0.221
-232.800	626.398	0.096	-0.243
-231.786	-200.000	0.001	0.153
-230.771	-200.000	0.017	0.296
-229.757	-136.844	-0.068	0.008
-228.742	-200.000	0.023	0.204
-227.727	-91.394	-0.292	-0.083
-226.713	194.398	-0.108	0.164
-225.698	-10.792	-0.205	0.135
-224.684	-190.233	0.053	0.001
-223.669	-200.000	-0.020	0.288
-222.655	208.871	-0.157	-0.245
-221.640	-107.225	0.278	-0.061
-220.625	58.645	0.320	-0.314
-219.611	-200.000	-0.026	0.186
-218.596	-200.000	0.018	-0.110
-217.582	-129.396	-0.184	0.025
-216.567	-200.000	-0.012	0.064
-215.552	80.292	0.417	0.447
-214.538	-116.735	-0.240	-0.044
-213.523	-200.000	-0.096	-0.456
-212.509	-121.365	0.134	-0.022
-211.494	123.663	0.212	-0.265
-210.479	-47.781	-0.261	0.126
-209.465	445.765	0.051	-0.112
-208.450	-140.032	0.233	0.024
-207.436	800.000	-0.043	0.138
-206.421	800.000	0.057	0.214
-205.406	-7.336	-0.031	0.021
-204.392	-97.990	-0.243	0.063
-203.377	202.966	-0.118	-0.181
-202.363	800.000	-0.090	-0.300
-201.348	-200.000	-0.045	-0.336
-200.333	115.753	0.172	-0.209
-199.319	290.568	-0.100	0.181
-198.304	-200.000	0.033	-0.237
-197.290	-200.000	-0.038	-0.252
-196.275	-14.043	0.183	0.117
-195.260	-87.138	0.173	-0.052
-194.246	-94.378	-0.341	-0.093
-193.231	-200.000	-0.024	0.162
-192.217	-102.738	-0.112	-0.027
-191.202	-170.526	0.295	-0.010
-190.187	-200.000	0.042	0.267
-189.173	213.105	0.160	-0.252
-188.158	466.100	0.101	-0.224
-187.144	-200.000	-0.006	0.029
-186.129	408.380	-0.027	-0.056
-185.114	371.163	-0.105	-0.211
-184.100	121.839	0.164	-0.203
-183.085	424.036	-0.020	0.042
-182.071	-173.697	-0.260	0.008
-181.056	-148.217	0.197	-0.016
-180.042	108.702	0.104	-0.124
-179.027	-113.725	-0.247	0.048
-178.012	-134.014	-0.019	0.002
-176.998	-109.544	0.036	0.008
-175.983	-176.905	-0.213	-0.005
-174.969	-200.000	0.010	-0.110
-173.954	-200.000	0.010	-0.091
-172.939	131.818	0.132	0.169
-171.925	98.323	-0.030	0.035
-170.910	-136.882	-0.302	0.034
-169.896	349.944	-0.159	-0.313
-168.881	74.317	-0.144	-0.150
-167.866	800.000	0.041	-0.165
-166.852	3.484	0.100	-0.073
-165.837	35.981	0.109	-0.096
-164.823	122.126	-0.059	-0.073
-163.808	800.000	-0.121	-0.368
-162.793	230.930	-0.138	-0.225
-161.779	-153.084	0.317	-0.022
-160.764	-154.814	0.177	0.012
-159.750	296.037	0.110	0.201
-158.735	194.692	0.135	0.203
-157.720	480.845	-0.023	-0.052
-156.706	-88.331	0.061	0.018
-155.691	-200.000	-0.030	-0.146
-154.677	175.906	-0.110	-0.159
-153.662	-139.737	0.357	-0.038
-152.647	-200.000	0.014	0.293
-151.633	515.786	0.077	0.179
-150.618	-74.863	0.063	-0.023
-149.604	-160.546	-0.347	0.018
-148.589	69.308	-0.129	-0.132
-147.574	-158.920	0.128	0.007
-146.560	-200.000	-0.060	-0.337
-145.545	117.112	0.026	0.031
-144.531	-200.000	0.016	0.257
-143.516	-39.978	0.122	-0.063
-142.502	-200.000	0.044	-0.196
-141.487	-114.407	-0.299	0.057
-140.472	-110.339	0.149	0.031
-139.458	42.896	-0.046	0.042
-138.443	358.870	-0.033	0.066
-137.429	-141.528	0.488	0.049
-136.414	-200.000	-0.008	0.057
-135.399	-200.000	0.019	-0.380
-134.385	-200.000	0.039	-0.235
-133.370	592.697	0.233	0.573
-132.356	333.219	0.084	0.161
-131.341	-200.000	-0.001	-0.135
-130.326	-200.000	0.000	0.154
-129.312	-97.037	0.307	0.080
-128.297	-48.277	-0.277	-0.133
-127.283	-47.058	-0.227	-0.110
-126.268	-92.157	0.263	-0.074
-125.253	-200.000	0.022	0.251
-124.239	104.059	0.150	-0.175
-123.224	-90.320	-0.145	-0.042
-122.210	-200.000	0.155	-0.000
-121.195	800.000	-0.035	0.149
-120.180	16.063	0.365	0.285
-119.166	-168.335	0.085	0.003
-118.151	51.274	-0.022	-0.020
-117.137	230.043	-0.049	0.079
-116.122	-115.983	-0.145	-0.027
-115.107	49.080	0.077	0.072
-114.093	-110.386	-0.161	0.033
-113.078	-183.972	0.054	-0.001
-112.064	-200.000	-0.002	-0.094
-111.049	38.565	-0.202	-0.178
-110.034	-47.123	-0.167	0.081
-109.020	510.999	0.077	0.179
-108.005	111.543	-0.199	-0.238
-106.991	466.369	-0.081	0.181
-105.976	190.108	0.204	0.304
-104.962	72.585	0.128	-0.133
-103.947	-77.651	-0.060	-0.020
-102.932	174.173	0.056	0.080
-101.918	-31.098	0.210	0.118
-100.903	800.000	-0.022	0.097
-99.889	-7.098	0.068	-0.046
-98.874	-200.000	0.000	0.289
-97.859	-44.036	-0.071	-0.036
-96.845	460.156	-0.081	0.179
-95.830	-200.000	-0.028	-0.356
-94.816	346.365	0.035	-0.069
-93.801	-115.549	0.274	0.051
-92.786	-102.742	-0.201	0.048
-91.772	314.353	-0.013	0.024
-90.757	305.663	0.144	-0.266
-89.743	65.001	-0.091	0.091
-88.728	-200.000	0.048	-0.235
-87.713	-178.100	0.113	-0.003
-86.699	434.775	-0.090	-0.194
-85.684	-71.932	-0.062	-0.023
-84.670	24.645	-0.090	0.074
-83.655	-118.647	-0.332	-0.058
-82.640	62.958	0.074	-0.074
-81.626	191.974	0.130	-0.194
-80.611	292.038	-0.137	-0.248
-79.597	68.508	0.265	-0.269
-78.582	-35.089	-0.277	0.150
-77.567	-2.969	0.213	0.147
-76.553	7.728	0.190	0.141
-75.538	91.152	0.210	0.233
-74.524	-200.000	-0.009	0.054
-73.509	-200.000	-0.003	-0.238
-72.494	588.348	0.031	0.076
-71.480	-200.000	0.052	0.252
-70.465	800.000	0.040	0.131
-69.451	109.680	0.109	-0.130
-68.436	151.635	-0.088	0.119
-67.422	-53.740	-0.267	-0.121
-66.407	-116.114	0.132	0.024
-65.392	-200.000	-0.009	-0.055
-64.378	800.000	-0.049	-0.161
-63.363	-197.965	-0.181	0.001
-62.349	-34.117	0.186	-0.101
-61.334	-29.969	-1.148	-0.647
-60.319	-13.601	0.469	0.301
-59.305	800.000	-0.281	-1.206
-58.290	-11.014	0.781	0.511
-57.276	276.693	0.863	1.519
-56.261	-200.000	96.133	562.735
-55.246	627.091	1389.953	3475.287
-54.232	186.808	2601.746	3837.885
-53.217	119.506	2202.881	2700.810
-52.203	44.759	1736.108	1581.317
-51.188	37.476	1546.719	1358.130
-50.173	35.065	1519.106	1317.271
-49.159	53.040	1569.219	1486.905
-48.144	56.708	1588.676	1530.963
-47.130	37.910	1543.918	1358.478
-46.115	34.680	1528.278	1322.346
-45.100	34.467	1524.998	1317.984
-44.086	34.423	1523.605	1316.426
-43.071	34.277	1522.099	1314.062
-42.057	34.263	1520.402	1312.451
-41.042	34.354	1518.533	1311.411
-40.027	34.262	1517.387	1309.738
-39.013	34.405	1515.447	1308.989
-37.998	34.379	1514.434	1307.888
-36.984	34.395	1512.982	1306.692
-35.969	34.407	1511.747	1305.653
-34.954	34.397	1509.944	1303.975
-33.940	34.403	1508.957	1303.110
-32.925	34.414	1507.931	1302.250
-31.911	34.452	1506.510	1301.229
-30.896	34.384	1505.300	1299.672
-29.881	34.425	1503.918	1298.704
-28.867	34.355	1502.521	1296.968
-27.852	34.338	1501.211	1295.675
-26.838	34.532	1499.151	1295.161
-25.823	34.449	1498.409	1293.902
-24.809	34.366	1496.380	1291.541
-23.794	34.429	1494.970	1290.699
-22.779	34.318	1494.250	1289.277
-21.765	34.486	1493.438	1289.660
-20.750	34.462	1491.748	1287.988
-19.736	34.446	1490.617	1286.853
-18.721	34.399	1489.846	1285.816
-17.706	34.376	1488.907	1284.800
-16.692	34.377	1487.553	1283.585
-15.677	34.469	1486.356	1283.123
-14.663	34.328	1485.541	1281.420
-13.648	34.300	1484.477	1280.261
-12.633	34.304	1483.791	1279.650
-11.619	34.272	1482.704	1278.446
-10.604	34.343	1481.638	1277.948
-9.590	34.296	1480.926	1276.972
-8.575	34.270	1480.156	1276.082
-7.560	34.290	1479.390	1275.502
-6.546	34.409	1478.351	1275.354
-5.531	34.319	1477.189	1273.698
-4.517	34.184	1477.003	1272.587
-3.502	34.300	1475.573	1272.078
-2.487	34.281	1474.670	1271.123
-1.473	34.347	1473.183	1270.229
-0.458	34.362	1471.849	1269.132
0.556	33.094	1463.311	1258.234
1.571	30.459	1436.995	1218.243
2.586	26.950	1374.404	1143.024
3.600	25.070	1290.885	1062.337
4.615	23.604	1244.481	1015.673
5.629	20.777	1188.025	954.045
6.644	12.758	1102.964	844.697
7.659	6.191	1061.192	780.143
8.673	5.261	1055.525	771.321
9.688	5.038	1052.594	768.012
10.702	4.977	1050.674	766.246
11.717	4.974	1049.022	764.954
12.731	7.770	1051.494	780.429
13.746	15.354	1062.285	825.836
14.761	19.712	1067.004	850.936
15.775	18.621	1065.336	844.166
16.790	17.465	1062.607	836.250
17.804	16.455	1060.563	829.611
18.819	15.472	1058.875	823.400
19.834	15.049	1057.280	820.014
20.848	14.709	1056.479	817.657
21.863	14.419	1055.686	815.551
22.877	14.208	1054.649	813.649
23.892	14.044	1053.924	812.216
24.907	13.931	1053.300	811.112
25.921	14.039	1052.127	810.661
26.936	13.956	1051.582	809.768
27.950	13.999	1050.671	809.204
28.965	14.081	1049.207	808.404
29.980	14.210	1048.171	808.158
30.994	14.166	1047.403	807.280
32.009	14.254	1046.177	806.689
33.023	14.343	1045.426	806.471
34.038	14.203	1045.114	805.482
35.053	14.157	1043.945	804.289
36.067	14.133	1042.664	803.113
37.082	14.037	1041.956	802.032
38.096	14.110	1041.270	801.789
39.111	14.160	1040.489	801.355
40.126	14.192	1039.310	800.530
41.140	14.081	1038.081	798.982
42.155	13.891	1037.397	797.471
43.169	13.904	1036.561	796.820
44.184	13.879	1035.010	795.439
45.199	13.824	1033.999	794.325
46.213	13.900	1033.205	794.012
47.228	13.920	1032.232	793.287
48.242	14.012	1030.894	792.626
49.257	14.098	1030.234	792.460
50.271	14.055	1029.154	791.353
51.286	14.107	1028.255	790.841
52.301	14.091	1027.713	790.278
53.315	14.111	1026.977	789.738
54.330	14.028	1026.057	788.567
55.344	13.987	1025.148	787.603
56.359	13.840	1024.084	786.019
57.374	13.956	1023.161	785.791
58.388	13.970	1022.402	785.204
59.403	14.039	1021.295	784.611
60.417	13.853	1020.828	783.306
61.432	13.859	1019.911	782.561
62.447	13.853	1019.370	782.045
63.461	13.891	1018.186	781.249
64.476	13.855	1017.723	780.653
65.490	13.682	1017.167	779.345
66.505	13.771	1016.437	779.137
67.520	13.794	1015.352	778.345
68.534	13.744	1014.534	777.414
69.549	13.792	1013.733	776.953
70.563	13.866	1012.712	776.450
71.578	13.849	1011.933	775.705
72.593	13.657	1011.758	774.606
73.607	13.750	1010.067	773.677
74.622	13.865	1009.039	773.353
75.636	13.712	1008.876	772.449
76.651	13.709	1007.934	771.646
77.666	13.795	1006.998	771.261
78.680	13.819	1006.297	770.766
79.695	13.789	1005.677	770.083
80.709	13.751	1005.250	769.515
81.724	13.738	1004.375	768.713
82.739	13.863	1003.742	768.742
83.753	13.858	1003.375	768.371
84.768	14.005	1002.127	768.024
85.782	14.054	1002.015	768.097
86.797	14.163	1000.699	767.524
87.812	14.160	999.797	766.751
88.826	14.164	998.827	765.957
89.841	14.092	998.380	765.216
90.855	14.132	997.634	764.757
91.870	14.154	996.763	764.127
92.884	14.163	996.121	763.608
93.899	14.208	995.644	763.380
94.914	14.155	995.015	762.588
95.928	14.227	993.953	762.036
96.943	14.199	993.392	761.409
97.957	14.203	992.548	760.716
98.972	14.125	991.728	759.663
99.987	14.137	990.749	758.897
101.001	14.132	990.501	758.619
102.016	14.181	989.263	757.829
103.030	14.209	988.254	757.116
104.045	14.233	987.533	756.604
105.060	14.164	986.666	755.558
106.074	14.190	985.583	754.781
107.089	14.032	984.805	753.401
108.103	13.990	983.912	752.461
109.118	13.971	982.986	751.603
110.133	13.930	982.076	750.654
111.147	13.920	981.319	749.963
112.162	13.862	980.708	749.170
113.176	13.970	979.621	748.761
114.191	13.973	978.525	747.867
115.206	13.888	978.077	747.078
116.220	14.008	977.453	747.073
117.235	14.016	976.261	746.136
118.249	13.837	975.735	744.863
119.264	13.870	974.664	744.128
120.279	14.084	973.509	744.137
121.293	13.955	972.831	742.976
122.308	13.810	972.730	742.184
123.322	13.998	971.263	741.839
124.337	13.880	970.335	740.537
125.352	13.875	969.141	739.540
126.366	13.899	968.128	738.808
127.381	13.864	966.924	737.668
128.395	13.919	965.750	736.950
129.410	13.818	964.895	735.784
130.424	13.816	964.058	735.074
131.439	14.005	963.073	735.095
132.454	13.935	962.452	734.246
133.468	13.958	962.212	734.099
134.483	14.016	961.093	733.438
135.497	14.030	960.315	732.840
136.512	13.964	959.555	731.906
137.527	13.992	958.677	731.291
138.541	13.907	958.299	730.566
139.556	14.050	957.442	730.477
140.570	14.048	956.658	729.805
141.585	14.091	955.806	729.281
142.600	14.192	955.496	729.418
143.614	14.196	954.523	728.632
144.629	14.275	953.461	728.101
145.643	14.284	952.952	727.688
146.658	14.331	951.648	726.832
147.673	14.136	951.254	725.616
148.687	14.175	950.220	724.931
149.702	14.146	949.588	724.260
150.716	14.051	948.671	723.086
151.731	14.074	947.575	722.284
152.746	14.067	946.798	721.598
153.760	14.108	946.668	721.612
154.775	14.099	945.762	720.820
155.789	14.274	944.742	720.739
156.804	14.179	944.015	719.706
157.819	14.321	943.323	719.728
158.833	14.265	942.845	719.057
159.848	14.215	942.107	718.217
160.862	14.357	941.613	718.390
161.877	14.400	940.815	717.904
162.892	14.248	939.876	716.467
163.906	14.189	938.582	715.166
164.921	14.152	938.253	714.691
165.935	14.134	937.134	713.700
166.950	14.128	936.298	712.973
167.964	14.119	935.532	712.289
168.979	14.240	934.135	711.680
169.994	14.300	933.301	711.235
171.008	14.177	932.837	710.296
172.023	14.224	931.867	709.693
173.037	14.276	931.438	709.525
174.052	14.299	930.416	708.785
175.067	14.282	929.819	708.194
176.081	14.253	928.759	707.202
177.096	14.223	927.755	706.247
178.110	14.288	926.934	705.836
179.125	14.374	926.160	705.546
180.140	14.326	925.734	704.958
181.154	14.349	924.951	704.395
182.169	14.357	924.557	704.065
183.183	14.441	923.953	703.900
184.198	14.441	922.805	702.962
185.213	14.466	922.264	702.592
186.227	14.505	921.758	702.310
187.242	14.463	921.384	701.785
188.256	14.609	920.365	701.563
189.271	14.537	919.738	700.721
190.286	14.500	918.968	699.914
191.300	14.554	917.815	699.200
192.315	14.361	917.135	697.814
193.329	14.243	916.688	696.919
194.344	14.284	915.731	696.298
195.359	14.255	915.621	696.032
196.373	14.286	914.942	695.582
197.388	14.477	914.078	695.665
198.402	14.541	913.771	695.633
199.417	14.639	913.671	695.908
200.432	14.670	912.920	695.402
201.446	14.837	912.336	695.589
202.461	14.666	912.410	694.875
203.475	14.824	911.995	695.152
204.490	14.946	910.647	694.570
205.504	14.893	909.806	693.648
206.519	14.771	908.951	692.430
207.534	14.799	908.389	692.057
208.548	14.774	907.794	691.437
209.563	14.638	907.156	690.328
210.577	14.635	906.631	689.855
211.592	14.841	905.867	690.063
212.607	14.922	905.107	689.757
213.621	14.921	904.769	689.434
214.636	14.876	904.198	688.753
215.650	14.856	903.190	687.844
216.665	14.715	903.238	687.239
217.680	14.754	902.949	687.117
218.694	14.940	902.294	687.322
219.709	14.981	901.635	686.927
220.723	14.970	900.711	686.116
221.738	15.022	899.812	685.587
222.753	14.950	899.174	684.743
223.767	14.960	898.720	684.380
224.782	15.079	897.586	683.942
225.796	14.985	897.252	683.240
226.811	15.114	896.585	683.199
227.826	15.221	895.758	682.945
228.840	15.014	895.501	681.845
229.855	14.933	894.551	680.733
230.869	15.021	893.841	680.491
231.884	15.002	893.245	679.899
232.899	14.843	892.890	678.921
233.913	15.004	891.999	678.839
234.928	14.956	891.256	678.018
235.942	14.938	890.807	677.543
236.957	14.890	889.875	676.579
237.972	14.932	889.099	676.101
238.986	14.957	888.510	675.693
240.001	15.085	888.083	675.827
241.015	15.054	887.316	675.059
242.030	15.032	886.606	674.370
243.045	15.138	885.676	674.028
244.059	15.068	885.804	673.786
245.074	15.101	885.171	673.376
246.088	15.245	884.039	673.035
247.103	15.327	883.606	672.973
248.117	15.265	883.042	672.237
249.132	15.383	882.397	672.157
250.147	15.369	882.119	671.829
251.161	15.457	881.195	671.420
252.176	15.539	880.860	671.431
253.190	15.637	879.779	670.940
254.205	15.469	879.856	670.271
255.220	15.675	878.988	670.370
256.234	15.583	878.151	669.305
257.249	15.736	877.611	669.444
258.263	15.652	876.811	668.441
259.278	15.620	876.814	668.257
260.293	15.631	876.018	667.636
261.307	15.581	875.822	667.229
262.322	15.718	875.100	667.164
263.336	15.826	874.146	666.804
264.351	15.872	873.271	666.259
265.366	15.871	872.817	665.851
266.380	15.735	872.379	664.920
267.395	15.761	872.037	664.701
268.409	15.775	871.184	664.047
269.424	15.645	870.389	662.871
270.439	15.768	869.128	662.338
271.453	15.750	868.431	661.675
272.468	15.864	867.689	661.502
273.482	15.812	867.560	661.140
274.497	15.784	866.648	660.276
275.512	15.761	866.321	659.877
276.526	15.774	865.597	659.319
277.541	15.713	865.137	658.672
278.555	15.785	864.275	658.238
279.570	15.780	863.676	657.705
280.585	16.003	862.953	657.966
281.599	16.060	862.834	658.040
282.614	15.978	861.892	656.945
283.628	15.966	861.562	656.588
284.643	15.909	861.208	656.037
285.657	16.018	860.170	655.613
286.672	15.873	859.883	654.771
287.687	15.981	859.249	654.652
288.701	15.948	858.972	654.254
289.716	15.983	858.419	653.911
290.730	15.863	858.081	653.129
291.745	16.180	856.603	653.173
292.760	16.066	856.692	652.743
293.774	16.084	855.594	651.920
294.789	16.239	855.057	652.049
295.803	16.182	854.422	651.288
296.818	16.166	853.854	650.737
297.833	16.268	853.186	650.563
298.847	16.120	852.899	649.716
299.862	16.257	851.660	649.240
300.876	16.262	851.107	648.784
301.891	16.385	850.481	648.721
302.906	16.335	850.181	648.241
303.920	16.229	849.293	647.101
304.935	16.404	848.676	647.244
305.949	16.443	848.597	647.276
306.964	16.399	847.600	646.289
307.979	16.304	847.345	645.675
308.993	16.327	846.850	645.330
310.008	16.344	846.218	644.856
311.022	16.432	845.559	644.632
312.037	16.274	845.692	644.074
313.052	16.436	844.530	643.747
314.066	16.387	844.033	643.124
315.081	16.111	843.566	641.663
316.095	16.303	842.948	641.865
317.110	16.308	842.490	641.481
318.125	16.354	841.586	640.910
319.139	16.308	841.300	640.459
320.154	16.401	840.736	640.328
321.168	16.350	840.078	639.574
322.183	16.423	839.379	639.264
323.197	16.410	839.041	638.899
324.212	16.448	838.538	638.602
325.227	16.312	838.164	637.748
326.241	16.536	837.414	637.965
327.256	16.312	837.197	636.899
328.270	16.424	836.475	636.717
329.285	16.514	835.566	636.308
330.300	16.454	835.486	635.962
331.314	16.474	834.458	635.202
332.329	16.506	833.914	634.851
333.343	16.460	833.229	634.102
334.358	16.615	832.917	634.389
335.373	16.556	832.488	633.784
336.387	16.573	832.098	633.492
337.402	16.562	831.270	632.767
338.416	16.633	830.749	632.579
339.431	16.840	829.904	632.653
340.446	16.888	829.527	632.489
341.460	16.848	829.075	631.939
342.475	16.847	828.495	631.439
343.489	16.779	828.189	630.896
344.504	16.981	827.408	630.996
345.519	16.903	827.400	630.644
346.533	16.942	826.692	630.194
347.548	17.019	825.974	629.874
348.562	17.002	825.216	629.179
349.577	16.942	824.526	628.374
350.592	16.829	824.309	627.735
351.606	16.953	823.585	627.586
352.621	16.814	823.621	627.045
353.635	16.845	822.810	626.488
354.650	16.865	822.463	626.242
355.665	16.898	822.037	625.982
356.679	16.876	821.671	625.569
357.694	16.948	821.218	625.431
358.708	17.005	820.657	625.162
359.723	16.962	820.030	624.471
360.738	17.092	819.196	624.257
361.752	17.039	818.778	623.689
362.767	17.073	818.572	623.601
363.781	17.019	817.913	622.846
364.796	17.183	817.705	623.235
365.810	17.161	817.113	622.647
366.825	17.298	816.704	622.781
367.840	17.168	816.628	622.194
368.854	17.325	815.905	622.162
369.869	17.293	815.248	621.489
370.883	17.089	814.854	620.388
371.898	17.282	814.536	620.795
372.913	17.352	813.640	620.313
373.927	17.303	813.386	619.886
374.942	17.434	812.472	619.611
375.956	17.381	811.882	618.914
376.971	17.383	811.431	618.523
377.986	17.394	811.228	618.353
379.000	17.641	810.205	618.416
380.015	17.608	809.732	617.881
381.029	17.474	809.722	617.331
382.044	17.626	809.025	617.295
383.059	17.488	808.203	616.113
384.073	17.565	807.859	616.077
385.088	17.519	807.075	615.257
386.102	17.429	806.576	614.499
387.117	17.531	805.841	614.251
388.132	17.462	805.701	613.842
389.146	17.522	805.287	613.689
390.161	17.525	804.612	613.129
391.175	17.480	804.523	612.845
392.190	17.676	803.914	613.033
393.205	17.602	803.855	612.668
394.219	17.516	803.323	611.898
395.234	17.523	802.821	611.488
396.248	17.585	801.906	610.958
397.263	17.613	801.275	610.526
398.278	17.612	801.044	610.290
399.292	17.513	800.795	609.695
400.307	17.380	800.493	608.933
401.321	17.556	799.750	608.945
402.336	17.410	799.697	608.327
403.350	17.664	799.030	608.671
404.365	17.690	798.643	608.417
405.380	17.628	798.347	607.918
406.394	17.817	797.621	607.983
407.409	17.834	797.426	607.841
408.423	17.705	797.078	607.063
409.438	17.878	796.234	606.982
410.453	17.831	795.817	606.443
411.467	17.907	795.826	606.666
412.482	17.827	795.418	606.018
413.496	18.002	794.921	606.208
414.511	18.022	794.461	605.874
415.526	18.022	793.730	605.261
416.540	18.116	793.322	605.229
417.555	17.915	793.190	604.363
418.569	18.029	792.597	604.262
419.584	18.049	792.025	603.841
420.599	18.117	791.653	603.746
421.613	153.089	1368.935	1790.425
422.628	132.375	1453.043	1790.553
