DTS Sentinel unit serial number:	SN413079Multiplexer serial number:	ORYXHardware model number:	OX4-SRSoftware version number:	ORYX F/W v4.00 Oryx Data Collector v3.7.2.0data status	okinstallation	princeton_trtdifferential loss correction	single-endedforward channel	channel 3reverse channel	N/Adate	2019/09/14time	07:04:35forward acquisition time	60.00reverse acquisition time	0.00gamma	496.2192k internal	0.2340k external	0.2340temperature offset calibration	1.0056default loss term (dB/km)	0.3790temperature slope calibration	1.0000multiplexer offset coefficient	1.0000multiplexer slope coefficient	1.0000fibre end	0.00T internal ref (°C)	26.19T ext. ref 1 (°C)	3.44T ext. ref 2 (°C)	20.99length (m)	temperature (°C)	Stokes	anti-Stokes-747.200	488.436	-0.131	0.300
-746.185	-150.008	0.100	0.008
-745.171	-81.081	0.394	-0.131
-744.156	177.245	0.092	0.134
-743.142	800.000	-0.094	0.328
-742.127	140.125	0.103	0.136
-741.112	70.634	-0.271	0.281
-740.098	65.411	-0.296	-0.300
-739.083	-200.000	0.039	-0.174
-738.069	-130.910	-0.447	-0.060
-737.054	331.616	-0.069	0.134
-736.039	-147.855	-0.145	-0.012
-735.025	-0.449	0.434	0.309
-734.010	283.991	-0.155	-0.279
-732.996	-27.017	-0.196	-0.115
-731.981	-200.000	0.005	-0.311
-730.966	-121.656	0.245	-0.041
-729.952	238.464	0.026	-0.044
-728.937	-200.000	0.005	-0.096
-727.923	-200.000	0.061	-0.316
-726.908	-200.000	0.045	0.227
-725.894	800.000	-0.050	-0.152
-724.879	-18.668	0.151	0.095
-723.864	-139.134	-0.054	-0.006
-722.850	800.000	0.019	-0.077
-721.835	-11.354	0.189	0.124
-720.821	-173.691	-0.139	-0.004
-719.806	-11.633	0.083	-0.054
-718.791	800.000	-0.069	0.216
-717.777	-49.348	0.155	-0.074
-716.762	-60.789	-0.210	0.089
-715.748	190.746	-0.195	-0.294
-714.733	-200.000	0.092	-0.462
-713.718	-74.582	-0.216	-0.078
-712.704	167.350	-0.067	0.095
-711.689	64.465	0.076	-0.076
-710.675	-200.000	-0.017	0.130
-709.660	-97.349	0.306	-0.080
-708.645	-37.837	0.187	-0.100
-707.631	45.269	-0.241	0.223
-706.616	-92.106	-0.220	-0.062
-705.602	2.947	-0.592	0.430
-704.587	-11.746	0.145	-0.095
-703.572	330.669	0.069	-0.133
-702.558	68.973	0.063	-0.065
-701.543	297.924	0.057	-0.104
-700.529	-95.178	0.617	0.167
-699.514	-178.140	0.204	0.005
-698.499	-200.000	-0.012	0.206
-697.485	14.000	-0.074	0.058
-696.470	-92.686	0.150	0.042
-695.456	-154.514	0.119	-0.008
-694.441	-98.781	-0.111	0.028
-693.426	-38.684	-0.090	-0.047
-692.412	120.199	0.123	-0.153
-691.397	-35.100	-0.264	-0.144
-690.383	-200.000	0.016	0.194
-689.368	-133.676	-0.289	-0.036
-688.354	187.662	0.185	-0.277
-687.339	77.164	-0.262	0.278
-686.324	-129.921	-0.386	-0.053
-685.310	29.166	-0.260	-0.221
-684.295	-183.395	-0.170	-0.003
-683.281	84.216	0.175	0.191
-682.266	74.841	0.070	0.074
-681.251	-84.845	-0.053	-0.017
-680.237	-132.936	0.355	0.045
-679.222	10.590	-0.072	0.055
-678.208	630.823	0.016	0.040
-677.193	-60.901	-0.127	0.054
-676.178	-200.000	0.015	0.267
-675.164	97.044	0.222	-0.255
-674.149	316.474	0.064	0.120
-673.135	1.285	-0.198	0.142
-672.120	572.034	-0.067	-0.163
-671.105	-200.000	0.019	-0.170
-670.091	64.787	-0.168	0.170
-669.076	800.000	0.024	-0.085
-668.062	-89.035	0.041	0.012
-667.047	630.513	-0.014	0.036
-666.032	-143.429	-0.280	-0.027
-665.018	7.103	-0.010	0.008
-664.003	-200.000	0.007	0.173
-662.989	64.368	-0.210	0.212
-661.974	-81.417	0.306	-0.101
-660.959	-90.923	-0.049	0.014
-659.945	-42.894	-0.129	0.065
-658.930	-41.711	-0.267	0.137
-657.916	-200.000	-0.046	0.205
-656.901	-139.669	-0.033	-0.003
-655.886	-156.731	-0.433	-0.027
-654.872	388.070	0.057	0.118
-653.857	-77.152	0.228	-0.079
-652.843	-200.000	0.005	0.169
-651.828	299.278	-0.171	0.315
-650.814	800.000	-0.035	0.123
-649.799	-200.000	0.000	-0.008
-648.784	312.508	0.128	0.241
-647.770	-76.145	0.214	-0.075
-646.755	-42.024	-0.236	0.120
-645.741	-122.998	-0.131	0.021
-644.726	-99.380	-0.326	-0.082
-643.711	-200.000	0.014	0.216
-642.697	307.012	0.137	0.256
-641.682	560.282	-0.082	0.197
-640.668	-72.964	0.243	0.089
-639.653	800.000	-0.055	0.220
-638.638	-69.413	0.035	-0.014
-637.624	-200.000	0.008	-0.172
-636.609	-132.403	0.237	0.031
-635.595	800.000	-0.073	0.202
-634.580	-72.639	-0.250	0.092
-633.565	800.000	-0.080	-0.262
-632.551	800.000	0.037	-0.119
-631.536	-116.258	0.109	-0.020
-630.522	-6.799	0.182	0.124
-629.507	-29.125	0.073	-0.042
-628.492	-127.312	-0.096	0.014
-627.478	-127.501	-0.387	-0.056
-626.463	-164.269	-0.118	-0.005
-625.449	-200.000	-0.006	-0.093
-624.434	330.440	0.198	0.380
-623.419	721.236	-0.097	-0.257
-622.405	-111.969	0.208	0.042
-621.390	-114.581	-0.227	0.044
-620.376	-134.873	0.111	0.013
-619.361	-108.668	-0.193	0.041
-618.346	-16.982	-0.213	0.134
-617.332	-93.250	0.219	0.061
-616.317	166.940	-0.075	0.106
-615.303	-9.377	0.079	-0.052
-614.288	12.857	0.110	0.085
-613.273	-200.000	0.002	0.058
-612.259	-200.000	-0.078	0.411
-611.244	-133.086	0.351	0.044
-610.230	-200.000	-0.025	-0.146
-609.215	274.371	-0.039	0.069
-608.201	800.000	0.098	-0.396
-607.186	-16.168	-0.220	-0.140
-606.171	172.251	-0.177	0.254
-605.157	-94.165	-0.236	0.064
-604.142	-93.959	-0.350	-0.096
-603.128	-200.000	0.042	-0.365
-602.113	-33.290	0.328	-0.181
-601.098	123.923	0.027	-0.033
-600.084	146.464	-0.263	-0.352
-599.069	552.302	-0.065	0.156
-598.055	-200.000	0.033	0.282
-597.040	45.487	0.264	0.243
-596.025	-107.646	-0.247	0.054
-595.011	800.000	-0.035	-0.111
-593.996	21.947	0.086	0.070
-592.982	46.498	0.173	0.160
-591.967	-131.438	-0.204	-0.027
-590.952	-100.530	-0.219	0.054
-589.938	800.000	0.051	0.199
-588.923	800.000	0.033	0.146
-587.909	13.345	-0.105	-0.081
-586.894	-200.000	-0.001	-0.294
-585.879	214.267	-0.114	-0.180
-584.865	800.000	-0.116	-0.337
-583.850	48.703	-0.202	0.189
-582.836	-200.000	0.011	-0.162
-581.821	155.817	-0.048	-0.066
-580.806	508.424	0.316	-0.731
-579.792	549.464	0.096	0.230
-578.777	-76.879	0.212	-0.074
-577.763	684.920	0.076	0.197
-576.748	-83.653	-0.271	0.086
-575.733	-200.000	0.061	-0.411
-574.719	635.877	0.086	-0.216
-573.704	-11.875	0.222	-0.145
-572.690	-97.581	-0.171	0.044
-571.675	-200.000	0.017	0.372
-570.661	-65.204	0.352	0.141
-569.646	94.870	0.092	0.104
-568.631	800.000	-0.042	0.126
-567.617	599.149	0.118	-0.292
-566.602	434.136	-0.102	-0.220
-565.588	-187.223	-0.071	0.001
-564.573	638.642	-0.096	0.243
-563.558	54.032	-0.262	0.251
-562.544	800.000	-0.089	-0.303
-561.529	800.000	0.055	-0.195
-560.515	-200.000	-0.043	-0.232
-559.500	-23.504	0.283	0.169
-558.485	-121.720	0.193	-0.032
-557.471	25.467	0.137	0.113
-556.456	-200.000	0.060	-0.329
-555.442	-200.000	-0.015	0.131
-554.427	-94.031	-0.191	0.052
-553.412	274.917	-0.007	-0.013
-552.398	278.227	0.078	-0.138
-551.383	-149.520	-0.295	-0.023
-550.369	-200.000	-0.066	0.497
-549.354	294.026	0.049	0.089
-548.339	210.230	0.063	0.098
-547.325	-121.369	-0.226	-0.037
-546.310	454.777	-0.038	-0.083
-545.296	631.724	-0.218	-0.550
-544.281	800.000	-0.036	0.109
-543.266	65.568	-0.216	0.217
-542.252	800.000	-0.032	-0.137
-541.237	760.164	-0.057	-0.154
-540.223	72.202	0.083	-0.086
-539.208	-1.967	-0.101	0.071
-538.193	75.498	0.143	-0.150
-537.179	-30.775	0.372	-0.209
-536.164	800.000	0.051	-0.199
-535.150	137.001	-0.051	-0.066
-534.135	-63.106	-0.151	-0.062
-533.121	-139.247	-0.511	-0.055
-532.106	800.000	-0.054	0.154
-531.091	419.862	0.099	0.210
-530.077	-106.301	0.105	0.023
-529.062	-134.109	0.049	-0.006
-528.048	456.130	-0.137	0.302
-527.033	36.636	0.076	-0.067
-526.018	-58.130	0.374	0.162
-525.004	-200.000	-0.012	0.158
-523.989	-121.083	0.090	-0.015
-522.975	-200.000	-0.023	-0.137
-521.960	800.000	-0.068	0.213
-520.945	32.616	0.126	-0.108
-519.931	-200.000	-0.022	0.209
-518.916	55.332	0.052	-0.050
-517.902	-46.578	-0.187	-0.091
-516.887	-11.513	0.046	0.030
-515.872	-200.000	-0.027	-0.276
-514.858	-116.391	0.183	0.034
-513.843	800.000	-0.096	0.312
-512.829	-76.368	-0.171	-0.060
-511.814	346.090	-0.087	0.169
-510.799	-74.548	-0.136	-0.049
-509.785	-49.816	0.163	0.077
-508.770	96.253	-0.283	-0.322
-507.756	75.057	0.134	0.140
-506.741	356.561	0.038	0.076
-505.726	-200.000	-0.015	0.303
-504.712	-106.471	-0.079	-0.017
-503.697	-137.792	-0.325	0.036
-502.683	800.000	-0.050	0.143
-501.668	-53.714	0.159	-0.072
-500.653	-145.149	0.310	-0.028
-499.639	-45.123	-0.167	0.083
-498.624	-7.851	-0.263	0.176
-497.610	-46.233	0.354	-0.173
-496.595	-75.469	-0.288	-0.102
-495.581	602.945	-0.071	0.175
-494.566	740.799	-0.025	-0.066
-493.551	-200.000	0.097	0.472
-492.537	800.000	-0.120	-0.332
-491.522	-108.296	0.301	-0.065
-490.508	-65.249	-0.116	0.047
-489.493	-39.761	0.476	-0.247
-488.478	-200.000	-0.009	0.065
-487.464	86.043	0.113	0.123
-486.449	-94.971	-0.151	-0.040
-485.435	-200.000	-0.048	-0.420
-484.420	456.156	0.086	-0.190
-483.405	-130.424	-0.288	0.039
-482.391	-118.118	-0.199	-0.035
-481.376	-200.000	0.033	0.171
-480.362	170.239	-0.146	-0.207
-479.347	-200.000	-0.030	-0.200
-478.332	97.917	0.152	-0.173
-477.318	91.566	-0.130	-0.145
-476.303	670.270	0.038	-0.098
-475.289	259.237	0.188	-0.321
-474.274	639.862	0.133	-0.335
-473.259	-73.014	0.378	-0.138
-472.245	-200.000	-0.024	-0.311
-471.230	-101.819	-0.549	-0.132
-470.216	115.970	-0.156	-0.189
-469.201	-200.000	0.059	0.368
-468.186	800.000	-0.066	0.204
-467.172	169.190	0.052	-0.073
-466.157	340.218	0.145	-0.280
-465.143	-60.612	0.083	0.035
-464.128	-200.000	0.006	0.043
-463.113	-200.000	0.030	-0.228
-462.099	-200.000	0.009	0.135
-461.084	-122.647	0.140	0.023
-460.070	-200.000	-0.011	-0.256
-459.055	-200.000	-0.055	0.289
-458.040	-154.557	-0.089	-0.006
-457.026	-162.768	-0.129	-0.006
-456.011	-31.172	0.081	-0.045
-454.997	-200.000	-0.038	-0.199
-453.982	-129.018	0.401	-0.056
-452.968	800.000	0.059	-0.209
-451.953	144.376	-0.195	-0.258
-450.938	229.909	-0.095	0.154
-449.924	-185.556	0.242	-0.004
-448.909	-200.000	-0.002	-0.167
-447.895	-36.484	-0.128	-0.069
-446.880	56.491	-0.185	-0.178
-445.865	717.626	-0.078	-0.206
-444.851	116.570	0.247	-0.300
-443.836	-86.032	0.090	-0.028
-442.822	-200.000	0.011	0.190
-441.807	-200.000	0.004	0.174
-440.792	-8.753	-0.050	0.033
-439.778	-143.807	0.137	-0.013
-438.763	77.834	-0.080	-0.084
-437.749	-39.762	-0.233	-0.121
-436.734	338.735	-0.105	-0.203
-435.719	275.812	-0.075	-0.132
-434.705	14.714	-0.067	0.052
-433.690	-20.350	0.245	0.149
-432.676	-200.000	0.007	-0.227
-431.661	-64.628	0.199	-0.080
-430.646	-200.000	0.060	-0.289
-429.632	-8.001	-0.235	0.157
-428.617	-25.750	-0.105	0.061
-427.603	-132.339	0.179	-0.023
-426.588	-200.000	0.035	0.176
-425.573	-122.934	-0.131	-0.021
-424.559	-48.664	0.482	0.229
-423.544	-200.000	-0.007	0.184
-422.530	-130.078	0.108	0.015
-421.515	-35.630	0.068	-0.037
-420.500	31.546	0.183	0.156
-419.486	-42.956	-0.154	-0.077
-418.471	-200.000	-0.030	-0.290
-417.457	-21.992	0.187	-0.112
-416.442	522.404	-0.097	-0.226
-415.428	464.844	0.030	0.067
-414.413	302.591	0.219	0.400
-413.398	30.905	0.058	0.049
-412.384	183.033	0.166	0.242
-411.369	800.000	0.065	0.213
-410.355	-200.000	-0.011	0.196
-409.340	117.495	0.106	-0.129
-408.325	-200.000	0.012	-0.342
-407.311	-200.000	-0.035	-0.303
-406.296	-200.000	-0.050	0.415
-405.282	800.000	-0.038	-0.111
-404.267	-23.073	0.168	-0.100
-403.252	-50.781	-0.165	0.077
-402.238	-91.316	0.169	0.048
-401.223	-200.000	0.015	-0.325
-400.209	376.879	-0.183	-0.370
-399.194	-78.275	-0.231	-0.078
-398.179	-91.801	0.188	0.053
-397.165	618.041	0.133	0.329
-396.150	-200.000	-0.062	-0.286
-395.136	-36.707	-0.159	-0.084
-394.121	-136.154	-0.424	-0.049
-393.106	-200.000	-0.010	0.201
-392.092	-111.591	-0.105	0.021
-391.077	-200.000	0.014	-0.164
-390.063	-49.389	0.207	-0.098
-389.048	-47.560	-0.360	0.173
-388.033	-125.795	-0.183	0.027
-387.019	21.555	0.019	0.015
-386.004	415.325	0.049	-0.103
-384.990	222.107	0.168	0.267
-383.975	92.118	0.219	0.244
-382.960	365.535	0.095	0.189
-381.946	42.634	-0.163	-0.147
-380.931	-109.339	0.109	0.023
-379.917	-171.773	0.197	-0.006
-378.902	-200.000	-0.007	0.215
-377.888	-6.540	-0.035	-0.024
-376.873	-111.561	-0.155	0.031
-375.858	-87.450	0.087	0.026
-374.844	-200.000	0.081	0.486
-373.829	44.855	0.115	0.104
-372.815	-200.000	0.046	0.485
-371.800	-64.384	-0.137	0.055
-370.785	-123.555	-0.419	-0.066
-369.771	-135.890	-0.312	0.036
-368.756	-4.155	0.280	0.192
-367.742	-162.460	-0.194	-0.009
-366.727	-43.693	0.140	0.070
-365.712	558.335	-0.058	0.138
-364.698	129.312	-0.162	0.205
-363.683	800.000	-0.051	-0.181
-362.669	-200.000	-0.019	-0.526
-361.654	-59.560	0.299	0.127
-360.639	671.299	0.147	0.375
-359.625	397.579	-0.054	-0.112
-358.610	-69.130	0.190	-0.072
-357.596	319.467	0.099	-0.186
-356.581	-200.000	-0.241	0.001
-355.566	800.000	0.041	-0.141
-354.552	-200.000	0.022	-0.410
-353.537	70.457	-0.099	0.102
-352.523	342.781	0.083	-0.160
-351.508	-200.000	0.040	-0.301
-350.493	168.356	0.061	-0.085
-349.479	-51.424	-0.241	0.111
-348.464	-73.370	-0.343	0.124
-347.450	-70.846	0.105	-0.039
-346.435	-132.916	0.252	-0.032
-345.420	251.398	-0.131	0.220
-344.406	-110.529	-0.259	-0.053
-343.391	800.000	-0.109	-0.338
-342.377	-29.444	0.303	0.171
-341.362	-200.000	-0.001	0.177
-340.348	-35.939	-0.487	-0.260
-339.333	-200.000	0.100	0.497
-338.318	61.732	-0.073	0.071
-337.304	6.182	0.166	-0.121
-336.289	83.471	0.068	0.073
-335.275	800.000	-0.069	0.277
-334.260	35.505	0.064	-0.055
-333.245	85.698	-0.135	-0.147
-332.231	-200.000	-0.089	-0.459
-331.216	-200.000	-0.024	0.143
-330.202	39.740	-0.454	-0.402
-329.187	7.944	-0.249	0.184
-328.172	53.234	0.139	-0.131
-327.158	106.143	-0.207	-0.241
-326.143	133.733	-0.042	0.053
-325.129	-29.826	-0.158	0.089
-324.114	101.525	0.181	0.207
-323.099	50.847	-0.325	-0.304
-322.085	-50.633	-0.237	0.110
-321.070	-200.000	0.053	0.434
-320.056	-45.661	0.109	-0.053
-319.041	800.000	-0.058	0.165
-318.026	-109.976	-0.210	-0.043
-317.012	15.768	0.361	-0.280
-315.997	-64.352	0.263	0.105
-314.983	-142.659	0.171	0.016
-313.968	334.776	-0.154	-0.294
-312.953	-96.285	0.166	-0.043
-311.939	-87.091	0.060	0.018
-310.924	146.439	0.137	-0.181
-309.910	-163.008	0.347	0.017
-308.895	29.394	-0.229	0.192
-307.880	48.509	0.181	0.167
-306.866	24.219	0.062	-0.051
-305.851	-200.000	0.016	-0.196
-304.837	167.437	-0.135	0.190
-303.822	-145.479	-0.210	-0.019
-302.807	201.105	-0.138	0.210
-301.793	-8.292	0.130	0.086
-300.778	100.878	0.104	-0.119
-299.764	-107.900	-0.146	0.031
-298.749	-91.777	0.332	-0.093
-297.735	-59.819	-0.254	-0.107
-296.720	13.510	-0.219	-0.168
-295.705	304.662	0.132	-0.242
-294.691	-200.000	0.013	-0.107
-293.676	-70.617	0.122	0.046
-292.662	-138.849	0.309	-0.033
-291.647	-166.790	0.115	0.005
-290.632	-200.000	0.059	0.311
-289.618	-200.000	-0.001	-0.003
-288.603	30.514	-0.203	-0.171
-287.589	572.809	0.031	0.074
-286.574	58.648	-0.285	0.275
-285.559	165.570	0.147	-0.205
-284.545	-200.000	0.034	-0.258
-283.530	758.512	0.119	0.317
-282.516	-54.977	0.295	0.131
-281.501	154.100	0.106	-0.143
-280.486	-200.000	0.030	-0.230
-279.472	58.989	-0.274	-0.266
-278.457	-200.000	0.016	0.223
-277.443	-180.186	0.011	-0.000
-276.428	632.111	0.049	-0.123
-275.413	-77.783	-0.090	-0.031
-274.399	-200.000	0.090	0.442
-273.384	113.870	0.130	0.155
-272.370	-200.000	0.011	0.072
-271.355	-200.000	-0.009	0.093
-270.340	-125.013	-0.145	0.022
-269.326	270.466	0.135	0.233
-268.311	-99.280	-0.075	-0.019
-267.297	-47.004	-0.187	-0.090
-266.282	-100.017	0.267	-0.065
-265.267	-133.934	0.127	0.016
-264.253	81.910	-0.081	-0.086
-263.238	-53.285	0.172	-0.078
-262.224	-200.000	0.012	0.335
-261.209	61.849	0.122	-0.120
-260.195	-126.586	0.310	-0.045
-259.180	87.423	0.180	0.196
-258.165	-117.875	-0.164	-0.029
-257.151	-138.653	0.199	-0.021
-256.136	322.344	-0.102	0.191
-255.122	-116.786	0.116	-0.021
-254.107	-129.492	-0.302	-0.041
-253.092	4.694	0.125	0.090
-252.078	420.055	0.059	-0.124
-251.063	800.000	0.028	0.111
-250.049	38.010	-0.302	-0.264
-249.034	-200.000	-0.019	0.140
-248.019	-200.000	0.020	-0.223
-247.005	-19.933	-0.030	0.018
-245.990	-200.000	-0.024	-0.125
-244.976	128.020	0.249	0.311
-243.961	425.757	-0.030	0.064
-242.946	73.066	-0.245	-0.252
-241.932	-135.891	0.329	-0.038
-240.917	800.000	0.146	-0.499
-239.903	666.894	-0.047	-0.118
-238.888	-124.599	0.263	0.040
-237.873	-98.463	-0.429	0.108
-236.859	-20.365	0.017	-0.010
-235.844	761.144	0.011	-0.030
-234.830	380.626	-0.171	0.346
-233.815	65.075	-0.295	0.293
-232.800	556.118	0.119	-0.282
-231.786	-60.243	0.183	-0.077
-230.771	20.147	-0.193	-0.153
-229.757	800.000	0.091	-0.289
-228.742	10.210	0.131	-0.098
-227.727	800.000	0.095	-0.318
-226.713	-7.311	-0.141	0.094
-225.698	-103.399	0.420	-0.097
-224.684	-114.485	-0.148	0.028
-223.669	-200.000	0.020	0.188
-222.655	17.513	-0.080	0.062
-221.640	-127.786	-0.204	-0.029
-220.625	-58.871	-0.114	-0.049
-219.611	-78.527	-0.278	-0.093
-218.596	580.957	0.068	-0.163
-217.582	-200.000	-0.076	-0.374
-216.567	-200.000	0.054	0.234
-215.552	-89.123	0.293	-0.085
-214.538	-54.485	0.441	0.196
-213.523	-6.263	0.029	-0.020
-212.509	-200.000	0.008	-0.161
-211.494	638.467	0.152	0.379
-210.479	-110.498	-0.235	0.048
-209.465	-200.000	0.033	0.389
-208.450	212.170	0.135	0.209
-207.436	-200.000	0.003	0.058
-206.421	5.322	0.185	0.134
-205.406	128.961	-0.281	-0.352
-204.392	-161.824	0.064	0.003
-203.377	-141.704	0.151	0.015
-202.363	-155.885	0.087	0.005
-201.348	216.981	-0.117	0.183
-200.333	-136.003	-0.110	-0.013
-199.319	4.952	-0.195	-0.140
-198.304	22.486	0.367	0.295
-197.290	-200.000	0.008	-0.056
-196.275	111.570	0.064	-0.076
-195.260	62.229	-0.072	-0.071
-194.246	65.561	-0.059	0.058
-193.231	484.386	-0.017	0.038
-192.217	-119.930	-0.062	0.010
-191.202	-87.326	-0.139	-0.041
-190.187	194.752	0.103	0.153
-189.173	-74.704	0.036	0.013
-188.158	-67.825	0.099	-0.038
-187.144	176.956	-0.126	0.179
-186.129	-145.116	-0.349	0.031
-185.114	-200.000	0.030	0.132
-184.100	-104.622	0.360	-0.081
-183.085	-59.599	-0.407	0.171
-182.071	-200.000	-0.016	0.235
-181.056	-85.859	0.333	0.101
-180.042	143.614	-0.163	-0.213
-179.027	131.017	-0.172	0.217
-178.012	42.999	0.131	0.117
-176.998	508.673	0.113	0.257
-175.983	27.135	-0.271	0.223
-174.969	-153.886	-0.208	0.014
-173.954	800.000	0.112	0.404
-172.939	-200.000	-0.010	0.258
-171.925	-9.953	0.203	-0.133
-170.910	-87.137	0.224	0.067
-169.896	-26.387	-0.168	-0.097
-168.881	-82.064	0.267	0.086
-167.866	-89.117	0.109	0.032
-166.852	-147.671	-0.283	-0.023
-165.837	-200.000	0.007	0.208
-164.823	-112.291	-0.075	0.015
-163.808	-200.000	0.021	-0.351
-162.793	-200.000	0.051	-0.365
-161.779	-101.818	0.199	0.047
-160.764	51.856	0.090	0.084
-159.750	-200.000	-0.004	0.181
-158.735	367.169	0.127	0.252
-157.720	-127.155	-0.237	-0.034
-156.706	-160.223	-0.045	0.002
-155.691	63.375	-0.073	-0.072
-154.677	179.168	-0.145	0.207
-153.662	-136.422	0.109	0.012
-152.647	61.378	0.346	0.337
-151.633	-99.758	0.096	0.024
-150.618	58.822	0.163	0.157
-149.604	-200.000	0.004	-0.069
-148.589	-68.199	-0.242	-0.092
-147.574	-34.649	0.114	0.061
-146.560	-116.130	-0.238	-0.043
-145.545	-200.000	-0.023	-0.214
-144.531	-8.751	0.202	-0.132
-143.516	117.728	-0.201	0.242
-142.502	800.000	-0.152	0.463
-141.487	-130.875	0.365	-0.048
-140.472	-156.414	0.269	-0.016
-139.458	-200.000	0.011	-0.086
-138.443	800.000	0.014	-0.046
-137.429	113.442	0.189	0.224
-136.414	-109.112	0.147	-0.031
-135.399	800.000	-0.043	0.126
-134.385	240.069	-0.203	-0.330
-133.370	800.000	-0.041	0.137
-132.356	800.000	-0.065	0.247
-131.341	-26.070	0.084	0.049
-130.326	-83.050	0.331	0.104
-129.312	-81.059	0.165	-0.053
-128.297	800.000	0.072	0.221
-127.283	-200.000	-0.014	-0.125
-126.268	197.965	0.113	0.169
-125.253	26.280	-0.085	-0.070
-124.239	800.000	-0.132	0.361
-123.224	-200.000	0.039	0.275
-122.210	-30.326	0.134	0.074
-121.195	-130.453	0.275	0.036
-120.180	-200.000	0.019	-0.145
-119.166	800.000	0.068	-0.200
-118.151	54.747	0.150	-0.142
-117.137	-100.320	-0.088	0.021
-116.122	-134.745	-0.124	0.015
-115.107	800.000	0.086	0.266
-114.093	436.967	0.118	0.252
-113.078	158.636	0.225	0.306
-112.064	234.138	-0.131	-0.211
-111.049	307.142	-0.148	0.269
-110.034	800.000	-0.138	0.374
-109.020	159.319	-0.088	0.120
-108.005	-45.123	-0.286	0.139
-106.991	-200.000	0.042	0.230
-105.976	-49.568	-0.188	-0.088
-104.962	4.851	-0.146	0.105
-103.947	-5.977	0.122	-0.082
-102.932	-36.348	-0.338	0.178
-101.918	-200.000	0.009	0.075
-100.903	360.193	0.135	-0.265
-99.889	153.491	-0.217	-0.291
-98.874	404.595	0.113	-0.234
-97.859	-40.515	-0.139	0.070
-96.845	272.542	-0.044	0.076
-95.830	143.119	0.022	0.028
-94.816	484.841	-0.063	0.140
-93.801	-31.629	-0.251	-0.138
-92.786	-94.193	0.169	0.045
-91.772	145.931	-0.276	0.362
-90.757	519.784	0.102	0.234
-89.743	421.965	0.124	0.261
-88.728	800.000	0.056	0.213
-87.713	-92.960	0.276	0.075
-86.699	715.475	0.122	0.315
-85.684	-121.582	-0.189	0.031
-84.670	177.751	0.148	-0.211
-83.655	-42.760	0.271	0.135
-82.640	800.000	0.113	-0.347
-81.626	-200.000	-0.002	0.090
-80.611	41.823	0.221	0.196
-79.597	53.342	0.242	0.227
-78.582	174.392	-0.092	-0.130
-77.567	800.000	0.087	-0.278
-76.553	-132.113	-0.217	-0.028
-75.538	444.784	-0.091	0.194
-74.524	-162.956	0.067	-0.003
-73.509	800.000	0.019	-0.064
-72.494	119.430	-0.074	0.089
-71.480	478.148	-0.108	-0.238
-70.465	-200.000	-0.000	0.027
-69.451	-60.253	-0.210	0.087
-68.436	303.249	-0.074	-0.134
-67.422	-123.341	-0.211	0.033
-66.407	517.039	0.097	-0.222
-65.392	6.538	-0.121	-0.088
-64.378	89.043	-0.173	-0.188
-63.363	136.620	-0.016	0.021
-62.349	-120.079	-0.493	-0.082
-61.334	66.631	-1.151	-1.143
-60.319	29.377	0.595	0.493
-59.305	-200.000	-0.170	-0.940
-58.290	400.350	0.533	1.090
-57.276	508.028	0.609	1.379
-56.261	-200.000	117.380	638.915
-55.246	482.283	1553.387	3443.912
-54.232	174.222	2723.848	3841.476
-53.217	104.475	2181.327	2506.373
-52.203	37.108	1695.256	1464.299
-51.188	29.383	1509.888	1251.946
-50.173	27.142	1485.145	1216.398
-49.159	49.311	1546.399	1418.892
-48.144	47.910	1560.792	1422.462
-47.130	29.289	1515.948	1256.129
-46.115	26.365	1500.501	1223.522
-45.100	26.247	1496.617	1219.513
-44.086	26.174	1495.521	1218.076
-43.071	26.173	1493.239	1216.165
-42.057	26.084	1492.048	1214.545
-41.042	26.123	1490.233	1213.284
-40.027	26.155	1488.695	1212.198
-39.013	26.177	1487.018	1210.935
-37.998	26.148	1486.565	1210.325
-36.984	26.168	1484.995	1209.129
-35.969	26.209	1483.675	1208.279
-34.954	26.188	1482.259	1206.938
-33.940	26.152	1481.027	1205.648
-32.925	26.175	1479.426	1204.453
-31.911	26.167	1478.401	1203.515
-30.896	26.193	1476.905	1202.423
-29.881	26.234	1476.036	1201.937
-28.867	26.252	1474.583	1200.832
-27.852	26.171	1473.419	1199.293
-26.838	26.148	1472.244	1198.136
-25.823	26.246	1469.757	1196.714
-24.809	26.265	1468.606	1195.857
-23.794	26.168	1467.926	1194.614
-22.779	26.269	1466.056	1193.713
-21.765	26.217	1464.982	1192.446
-20.750	26.271	1463.297	1191.383
-19.736	26.287	1462.555	1190.836
-18.721	26.179	1461.953	1189.590
-17.706	26.189	1460.609	1188.516
-16.692	26.153	1459.881	1187.641
-15.677	26.239	1458.363	1186.920
-14.663	26.203	1457.902	1186.264
-13.648	26.165	1456.984	1185.220
-12.633	26.178	1455.767	1184.266
-11.619	26.128	1454.898	1183.188
-10.604	26.143	1454.052	1182.552
-9.590	26.142	1452.730	1181.421
-8.575	26.204	1452.563	1181.642
-7.560	26.200	1451.076	1180.360
-6.546	26.224	1450.463	1179.975
-5.531	26.145	1449.818	1178.884
-4.517	26.146	1448.656	1177.900
-3.502	26.015	1448.112	1176.556
-2.487	26.206	1446.428	1176.386
-1.473	26.179	1445.716	1175.583
-0.458	26.240	1444.174	1174.680
0.556	26.465	1433.786	1162.908
1.571	23.302	1409.835	1123.349
2.586	19.986	1350.678	1055.936
3.600	18.393	1268.993	982.853
4.615	17.235	1224.586	941.960
5.629	14.878	1168.102	885.959
6.644	8.556	1087.407	793.405
7.659	4.029	1051.746	745.558
8.673	3.404	1046.569	738.827
9.688	3.432	1043.168	736.493
10.702	3.386	1041.624	735.117
11.717	3.539	1039.369	734.189
12.731	5.133	1040.466	742.487
13.746	11.437	1049.427	778.987
14.761	17.627	1057.083	814.270
15.775	19.431	1058.486	823.902
16.790	19.053	1057.143	820.980
17.804	17.970	1055.832	814.727
18.819	17.143	1053.885	809.215
19.834	16.762	1052.322	806.130
20.848	16.529	1051.300	804.168
21.863	16.384	1050.591	802.864
22.877	16.308	1049.972	801.958
23.892	15.970	1049.354	799.811
24.907	16.049	1047.948	799.046
25.921	16.062	1047.441	798.650
26.936	15.913	1046.688	797.301
27.950	15.966	1046.122	797.047
28.965	16.165	1044.417	796.618
29.980	16.135	1043.580	795.768
30.994	16.308	1042.042	795.339
32.009	16.385	1041.289	795.057
33.023	16.435	1041.035	795.028
34.038	16.238	1040.150	793.357
35.053	16.271	1038.692	792.329
36.067	16.270	1037.869	791.627
37.082	16.110	1036.906	790.071
38.096	16.193	1036.093	789.773
39.111	16.272	1035.582	789.679
40.126	16.167	1034.902	788.600
41.140	16.285	1033.668	788.144
42.155	15.954	1032.455	785.604
43.169	15.882	1031.486	784.464
44.184	15.909	1030.299	783.615
45.199	15.809	1028.972	782.074
46.213	15.858	1028.310	781.727
47.228	15.972	1026.716	780.973
48.242	16.061	1026.436	781.106
49.257	16.113	1025.750	780.756
50.271	16.119	1024.761	779.960
51.286	16.224	1023.597	779.491
52.301	16.193	1022.984	778.813
53.315	16.206	1022.543	778.466
54.330	16.056	1022.071	777.349
55.344	16.040	1020.766	776.212
56.359	15.911	1019.734	774.764
57.374	15.966	1018.698	774.160
58.388	16.043	1018.078	773.975
59.403	15.924	1016.523	772.179
60.417	15.877	1016.248	771.687
61.432	15.836	1015.284	770.700
62.447	15.900	1014.826	770.578
63.461	15.670	1014.063	768.878
64.476	15.777	1012.972	768.472
65.490	15.724	1012.239	767.604
66.505	15.730	1011.306	766.859
67.520	15.711	1010.507	766.095
68.534	15.788	1009.492	765.609
69.549	15.799	1009.104	765.296
70.563	15.839	1008.494	764.948
71.578	15.832	1007.480	764.083
72.593	15.785	1006.351	762.946
73.607	15.603	1005.975	761.768
74.622	15.562	1004.637	760.498
75.636	15.652	1003.625	760.075
76.651	15.722	1002.347	759.353
77.666	15.572	1002.498	758.727
78.680	15.711	1001.441	758.482
79.695	15.683	1001.363	758.230
80.709	15.762	1000.363	757.764
81.724	15.858	999.662	757.596
82.739	15.799	999.332	757.017
83.753	15.853	998.203	756.337
84.768	16.026	997.825	756.760
85.782	16.139	997.355	756.843
86.797	16.336	996.576	757.066
87.812	16.335	995.521	756.197
88.826	16.069	994.865	754.438
89.841	16.124	993.968	753.938
90.855	16.300	992.858	753.818
91.870	16.206	992.188	752.822
92.884	16.394	991.316	752.929
93.899	16.465	990.438	752.514
94.914	16.335	990.265	751.736
95.928	16.386	989.167	751.063
96.943	16.382	989.093	750.922
97.957	16.370	987.523	749.610
98.972	16.287	986.892	748.698
99.987	16.371	986.343	748.587
101.001	16.188	985.573	747.127
102.016	16.198	984.836	746.546
103.030	16.341	983.230	745.895
104.045	16.268	982.528	744.975
105.060	16.271	981.899	744.446
106.074	16.280	980.524	743.376
107.089	16.089	979.859	741.965
108.103	15.955	978.932	740.607
109.118	15.829	977.988	739.275
110.133	15.817	977.374	738.691
111.147	15.739	976.437	737.578
112.162	15.716	975.578	736.763
113.176	15.915	974.394	736.671
114.191	16.107	973.706	736.929
115.206	16.049	972.929	736.021
116.220	16.030	972.234	735.345
117.235	16.034	971.524	734.760
118.249	15.909	970.692	733.523
119.264	15.940	969.759	732.888
120.279	15.748	968.896	731.335
121.293	15.800	968.404	731.127
122.308	15.825	967.171	730.242
123.322	15.677	966.467	729.000
124.337	15.772	965.194	728.389
125.352	15.708	964.159	727.265
126.366	15.638	963.331	726.276
127.381	15.659	962.290	725.518
128.395	15.744	961.035	724.875
129.410	15.702	960.328	724.096
130.424	15.753	959.397	723.548
131.439	15.882	958.308	723.217
132.454	15.935	957.864	723.043
133.468	15.962	957.116	722.532
134.483	15.857	956.697	721.702
135.497	15.819	956.426	721.270
136.512	15.938	955.078	720.700
137.527	15.979	954.297	720.224
138.541	15.838	953.986	719.323
139.556	15.970	952.915	719.014
140.570	15.860	952.560	718.211
141.585	16.058	951.760	718.391
142.600	16.250	950.663	718.314
143.614	16.180	950.183	717.591
144.629	16.260	949.727	717.523
145.643	16.336	948.887	717.149
146.658	16.446	947.658	716.622
147.673	16.170	947.033	714.915
148.687	16.168	945.472	713.667
149.702	16.035	944.755	712.498
150.716	16.014	944.066	711.828
151.731	16.105	943.106	711.425
152.746	16.141	942.535	711.085
153.760	16.092	941.782	710.245
154.775	16.131	941.327	710.003
155.789	16.294	940.176	709.760
156.804	16.224	940.194	709.415
157.819	16.196	938.970	708.312
158.833	16.282	938.580	708.315
159.848	16.392	937.906	708.207
160.862	16.506	937.255	708.129
161.877	16.456	936.281	707.122
162.892	16.188	935.586	705.412
163.906	16.166	934.367	704.341
164.921	15.979	934.067	703.270
165.935	15.984	932.710	702.209
166.950	16.084	931.944	701.986
167.964	16.174	931.318	701.827
168.979	16.176	930.005	700.783
169.994	16.201	928.913	700.001
171.008	16.211	928.278	699.503
172.023	16.264	927.511	699.081
173.037	16.368	926.493	698.681
174.052	16.328	926.139	698.189
175.067	16.419	925.146	697.753
176.081	16.251	924.682	696.651
177.096	16.197	923.493	695.468
178.110	16.046	922.846	694.297
179.125	16.113	922.226	694.046
180.140	16.244	921.332	693.851
181.154	16.171	920.768	693.064
182.169	16.255	920.158	692.888
183.183	16.455	919.836	693.406
184.198	16.453	919.134	692.806
185.213	16.643	918.232	692.844
186.227	16.537	917.367	691.697
187.242	16.578	917.317	691.765
188.256	16.493	916.591	690.811
189.271	16.710	915.846	691.072
190.286	16.632	915.147	690.167
191.300	16.591	914.001	689.073
192.315	16.248	913.108	686.945
193.329	16.006	912.762	685.637
194.344	16.106	911.979	685.398
195.359	16.211	911.531	685.427
196.373	16.468	911.032	686.033
197.388	16.379	910.489	685.200
198.402	16.477	909.699	684.945
199.417	16.615	909.576	685.349
200.432	16.873	909.208	686.056
201.446	16.860	909.119	685.874
202.461	16.808	908.821	685.378
203.475	16.869	908.215	685.109
204.490	16.889	907.307	684.444
205.504	16.818	905.991	683.103
206.519	16.767	905.424	682.411
207.534	16.590	904.428	680.887
208.548	16.640	904.205	680.861
209.563	16.602	903.444	680.076
210.577	16.629	902.730	679.586
211.592	16.617	902.094	678.998
212.607	16.923	901.189	679.481
213.621	17.094	901.001	679.965
214.636	16.900	900.386	678.664
215.650	16.832	899.799	677.890
216.665	16.875	899.261	677.596
217.680	16.895	898.744	677.227
218.694	17.073	898.312	677.551
219.709	17.142	897.741	677.338
220.723	17.159	896.610	676.492
221.738	16.988	896.161	675.412
222.753	17.080	895.499	675.220
223.767	17.022	894.707	674.331
224.782	17.134	893.952	674.148
225.796	17.231	893.132	673.856
226.811	17.211	892.869	673.516
227.826	17.140	892.175	672.655
228.840	17.131	891.212	671.831
229.855	16.898	890.842	670.571
230.869	17.021	890.230	670.539
231.884	17.011	889.341	669.772
232.899	17.075	888.599	669.404
233.913	16.905	887.980	668.207
234.928	16.912	887.426	667.761
235.942	16.887	886.705	667.060
236.957	16.846	885.999	666.308
237.972	17.003	885.058	666.158
238.986	16.970	884.492	665.543
240.001	17.018	883.763	665.126
241.015	16.974	883.477	664.678
242.030	16.803	882.943	663.549
243.045	17.037	881.938	663.648
244.059	17.096	881.591	663.561
245.074	16.969	880.830	662.432
246.088	17.107	880.335	662.540
247.103	17.175	879.487	662.110
248.117	17.131	879.181	661.649
249.132	17.351	878.797	662.158
250.147	17.303	878.442	661.646
251.161	17.627	877.491	662.130
252.176	17.734	876.668	661.865
253.190	17.722	876.264	661.456
254.205	17.697	875.730	660.898
255.220	17.742	875.130	660.559
256.234	17.744	874.606	660.113
257.249	17.755	873.970	659.617
258.263	17.668	873.573	658.924
259.278	17.744	872.583	658.412
260.293	17.832	872.038	658.280
261.307	17.882	871.408	657.940
262.322	17.852	871.241	657.640
263.336	17.970	870.164	657.222
264.351	17.873	869.986	656.659
265.366	18.050	869.204	656.688
266.380	17.991	868.733	656.050
267.395	17.903	868.518	655.491
268.409	17.670	867.677	653.903
269.424	17.875	866.252	653.558
270.439	17.864	865.830	653.138
271.453	17.793	865.205	652.340
272.468	17.744	864.442	651.520
273.482	17.765	863.739	651.013
274.497	17.711	862.867	650.091
275.512	17.976	862.297	650.612
276.526	17.817	861.698	649.499
277.541	17.747	860.946	648.606
278.555	17.946	860.401	648.897
279.570	17.823	860.287	648.287
280.585	18.179	859.501	648.987
281.599	18.080	859.172	648.305
282.614	18.073	858.250	647.528
283.628	18.102	857.550	647.051
284.643	17.929	857.126	646.020
285.657	17.893	857.021	645.747
286.672	17.936	856.332	645.331
287.687	18.056	855.555	645.144
288.701	18.097	855.429	645.145
289.716	18.067	854.451	644.236
290.730	18.118	853.809	643.888
291.745	18.069	853.457	643.380
292.760	17.994	852.557	642.362
293.774	18.061	851.952	642.105
294.789	18.251	851.778	642.630
295.803	18.339	850.969	642.293
296.818	18.114	850.247	640.848
297.833	18.169	849.509	640.438
298.847	18.070	849.382	639.916
299.862	18.101	848.129	639.031
300.876	18.224	847.536	638.987
301.891	18.070	847.161	638.075
302.906	18.180	846.877	638.215
303.920	18.449	845.921	638.440
304.935	18.333	845.337	637.509
305.949	18.465	844.932	637.641
306.964	18.478	843.964	636.901
307.979	18.392	843.669	636.303
308.993	18.492	843.062	636.158
310.008	18.354	842.794	635.388
311.022	18.516	842.156	635.452
312.037	18.413	841.745	634.703
313.052	18.352	841.388	634.154
314.066	18.273	840.112	632.844
315.081	18.162	839.598	631.989
316.095	18.190	838.924	631.531
317.110	18.226	838.514	631.297
318.125	18.296	837.923	631.054
319.139	18.217	837.750	630.580
320.154	18.232	837.338	630.268
321.168	18.462	836.288	630.269
322.183	18.343	835.740	629.361
323.197	18.388	835.587	629.357
324.212	18.353	834.987	628.721
325.227	18.379	834.511	628.401
326.241	18.511	833.623	628.159
327.256	18.531	833.228	627.879
328.270	18.484	832.613	627.190
329.285	18.301	832.453	626.343
330.300	18.349	831.473	625.726
331.314	18.362	831.170	625.492
332.329	18.378	830.732	625.166
333.343	18.653	829.650	625.296
334.358	18.632	829.511	625.059
335.373	18.639	828.811	624.501
336.387	18.671	828.291	624.173
337.402	18.757	827.546	623.867
338.416	18.736	827.541	623.734
339.431	18.737	827.043	623.307
340.446	18.786	826.633	623.119
341.460	18.961	825.731	623.020
342.475	18.942	825.173	622.474
343.489	19.095	824.271	622.293
344.504	18.949	824.189	621.646
345.519	19.099	823.231	621.410
346.533	19.133	823.115	621.391
347.548	19.196	822.492	621.092
348.562	19.034	821.772	619.910
349.577	18.848	821.362	618.878
350.592	18.781	820.754	618.124
351.606	18.720	820.436	617.610
352.621	18.616	820.485	617.217
353.635	18.728	819.683	616.962
354.650	18.757	819.145	616.606
355.665	18.863	818.637	616.549
356.679	18.978	817.960	616.395
357.694	19.080	817.411	616.293
358.708	19.010	817.112	615.764
359.723	18.884	817.125	615.268
360.738	19.060	816.118	615.086
361.752	18.948	815.440	614.118
362.767	19.035	815.075	614.101
363.781	19.092	814.851	614.081
364.796	19.123	814.375	613.777
365.810	19.323	814.138	614.256
366.825	19.404	813.822	614.254
367.840	19.366	813.431	613.771
368.854	19.394	813.178	613.624
369.869	19.263	812.480	612.577
370.883	19.372	811.549	612.206
371.898	19.289	810.776	611.276
372.913	19.523	810.433	611.792
373.927	19.327	810.537	611.120
374.942	19.407	809.628	610.666
375.956	19.317	808.871	609.722
376.971	19.374	808.158	609.332
377.986	19.426	807.701	609.116
379.000	19.636	807.186	609.415
380.015	19.747	806.716	609.399
381.029	19.679	806.265	608.767
382.044	19.638	805.474	607.968
383.059	19.515	805.195	607.271
384.073	19.631	804.665	607.228
385.088	19.587	804.364	606.791
386.102	19.453	803.726	605.785
387.117	19.540	802.809	605.345
388.132	19.343	802.459	604.337
389.146	19.258	802.363	603.915
390.161	19.476	801.653	604.089
391.175	19.719	801.192	604.541
392.190	19.459	801.242	603.614
393.205	19.670	800.561	603.783
394.219	19.386	800.278	602.526
395.234	19.649	799.157	602.547
396.248	19.448	798.622	601.387
397.263	19.494	798.324	601.272
398.278	19.277	797.959	600.187
399.292	19.332	797.293	599.827
400.307	19.405	796.742	599.610
401.321	19.358	796.547	599.248
402.336	19.401	796.374	599.215
403.350	19.583	795.848	599.396
404.365	19.423	795.779	598.738
405.380	19.608	795.210	598.898
406.394	19.771	794.651	598.986
407.409	19.982	794.169	599.303
408.423	19.769	793.824	598.250
409.438	20.146	792.894	598.799
410.453	20.065	792.855	598.438
411.467	20.050	792.496	598.061
412.482	19.906	792.331	597.389
413.496	20.147	791.834	597.791
414.511	20.117	791.442	597.340
415.526	20.145	790.869	596.949
416.540	20.037	790.690	596.391
417.555	20.068	790.275	596.133
418.569	20.027	789.677	595.487
419.584	20.008	789.284	595.073
420.599	20.111	788.564	594.830
421.613	162.314	1370.587	1796.374
422.628	140.571	1455.376	1796.460
