DTS Sentinel unit serial number:	SN413079Multiplexer serial number:	ORYXHardware model number:	OX4-SRSoftware version number:	ORYX F/W v4.00 Oryx Data Collector v3.7.2.0data status	okinstallation	princeton_trtdifferential loss correction	single-endedforward channel	channel 3reverse channel	N/Adate	2019/09/16time	17:36:35forward acquisition time	60.00reverse acquisition time	0.00gamma	496.2192k internal	0.2298k external	0.2298temperature offset calibration	0.9944default loss term (dB/km)	0.3790temperature slope calibration	1.0000multiplexer offset coefficient	1.0000multiplexer slope coefficient	1.0000fibre end	0.00T internal ref (°C)	38.31T ext. ref 1 (°C)	15.52T ext. ref 2 (°C)	32.28length (m)	temperature (°C)	Stokes	anti-Stokes-747.200	800.000	0.026	0.098
-746.185	800.000	0.035	0.132
-745.171	-16.215	-0.085	-0.055
-744.156	-200.000	0.041	0.574
-743.142	-153.998	0.084	0.006
-742.127	-200.000	0.019	0.448
-741.112	265.657	0.141	-0.251
-740.098	-131.189	-0.361	-0.049
-739.083	124.077	0.200	0.256
-738.069	259.730	-0.187	0.329
-737.054	722.245	-0.117	0.317
-736.039	102.327	-0.096	0.114
-735.025	-83.049	0.185	-0.061
-734.010	-200.000	0.002	-0.060
-732.996	189.597	-0.209	-0.320
-731.981	192.593	0.047	-0.073
-730.966	-78.681	0.266	0.093
-729.952	62.697	0.098	0.100
-728.937	-55.145	-0.449	0.206
-727.923	174.840	0.053	0.078
-726.908	92.211	-0.116	-0.133
-725.894	27.601	0.326	-0.280
-724.879	800.000	-0.060	-0.234
-723.864	-94.843	0.434	-0.120
-722.850	-200.000	0.023	-0.431
-721.835	-94.941	0.428	0.118
-720.821	-200.000	-0.019	0.092
-719.806	-200.000	0.023	-0.292
-718.791	-140.585	-0.312	0.033
-717.777	250.841	-0.129	-0.223
-716.762	-56.403	0.106	0.048
-715.748	-21.402	0.186	0.116
-714.733	-11.463	0.244	-0.164
-713.718	-134.523	-0.112	0.014
-712.704	-11.737	-0.158	0.106
-711.689	800.000	0.077	0.331
-710.675	456.636	0.079	0.179
-709.660	290.135	-0.064	0.119
-708.645	-130.208	0.103	0.014
-707.631	-200.000	0.033	-0.163
-706.616	-36.042	-0.104	0.058
-705.602	-34.801	0.171	0.095
-704.587	-16.835	-0.183	-0.118
-703.572	153.880	-0.053	0.074
-702.558	-94.932	-0.303	-0.084
-701.543	63.484	-0.237	0.242
-700.529	-92.488	0.263	0.075
-699.514	-92.505	0.247	-0.071
-698.499	800.000	0.048	-0.164
-697.485	489.485	-0.102	0.238
-696.470	68.710	0.076	-0.080
-695.456	-91.554	0.146	-0.042
-694.441	-119.848	0.119	0.021
-693.426	-200.000	0.007	0.184
-692.412	-31.347	-0.166	0.095
-691.397	800.000	-0.117	-0.408
-690.383	-200.000	0.008	-0.109
-689.368	80.979	0.020	-0.022
-688.354	112.517	-0.182	0.224
-687.339	-78.697	-0.111	-0.039
-686.324	-86.570	-0.321	0.100
-685.310	-43.046	-0.307	-0.159
-684.295	213.422	0.132	0.213
-683.281	-85.222	-0.122	0.039
-682.266	670.309	-0.039	0.102
-681.251	-2.595	-0.039	-0.027
-680.237	-50.850	0.199	-0.095
-679.222	-79.741	0.150	0.051
-678.208	-40.578	-0.253	0.134
-677.193	64.487	0.275	-0.282
-676.178	11.728	0.196	-0.153
-675.164	-128.331	-0.276	-0.040
-674.149	-116.555	-0.266	-0.050
-673.135	-192.056	0.137	-0.001
-672.120	800.000	0.098	-0.315
-671.105	53.302	0.161	-0.157
-670.091	46.601	0.033	-0.032
-669.076	-200.000	-0.002	0.195
-668.062	-133.349	-0.283	0.036
-667.047	-200.000	-0.047	-0.342
-666.032	-147.928	0.153	0.013
-665.018	45.804	-0.103	0.097
-664.003	283.676	-0.098	-0.179
-662.989	96.557	-0.078	0.090
-661.974	-67.767	-0.302	0.120
-660.959	47.090	-0.287	-0.272
-659.945	800.000	0.074	-0.228
-658.930	800.000	0.038	-0.150
-657.916	-200.000	0.017	-0.085
-656.901	-200.000	-0.016	-0.074
-655.886	800.000	-0.141	-0.554
-654.872	252.590	-0.046	-0.080
-653.857	-146.672	0.038	-0.003
-652.843	-100.743	-0.146	-0.037
-651.828	-99.420	-0.069	-0.018
-650.814	208.016	0.091	0.145
-649.799	-151.835	-0.056	0.004
-648.784	-93.464	-0.384	-0.108
-647.770	-184.701	-0.249	0.004
-646.755	-80.529	-0.171	-0.058
-645.741	-154.388	0.169	-0.012
-644.726	91.066	0.159	-0.181
-643.711	-200.000	0.030	-0.161
-642.697	533.544	0.116	-0.279
-641.682	-183.930	0.194	0.003
-640.668	-51.635	-0.296	-0.140
-639.653	81.329	-0.152	0.167
-638.638	246.834	0.055	-0.094
-637.624	800.000	0.037	0.125
-636.609	631.992	-0.067	-0.172
-635.595	159.311	-0.260	-0.368
-634.580	800.000	0.104	0.412
-633.565	305.579	-0.217	0.409
-632.551	-200.000	0.007	-0.154
-631.536	-73.362	-0.322	-0.120
-630.522	-200.000	0.012	-0.134
-629.507	-13.174	-0.267	0.176
-628.492	-76.553	0.139	0.050
-627.478	800.000	-0.065	0.237
-626.463	-12.715	-0.172	0.114
-625.449	-27.453	0.209	-0.124
-624.434	2.686	0.230	0.169
-623.419	27.269	-0.003	0.002
-622.405	656.176	0.114	-0.297
-621.390	-94.497	-0.213	0.059
-620.376	379.738	-0.027	-0.056
-619.361	-74.567	-0.044	-0.016
-618.346	-200.000	0.051	-0.342
-617.332	800.000	0.035	-0.146
-616.317	-200.000	-0.029	0.347
-615.303	-200.000	0.007	-0.121
-614.288	94.907	-0.145	-0.168
-613.273	-6.733	-0.186	0.129
-612.259	169.195	0.062	-0.090
-611.244	470.017	0.105	0.239
-610.230	102.047	0.113	0.134
-609.215	-15.559	0.049	-0.032
-608.201	-29.431	0.243	-0.141
-607.186	-200.000	-0.071	0.378
-606.171	-200.000	-0.038	0.255
-605.157	-200.000	0.036	0.202
-604.142	129.356	0.135	-0.175
-603.128	-5.537	0.096	0.067
-602.113	-45.601	0.359	0.180
-601.098	210.013	0.098	-0.155
-600.084	-144.292	0.270	-0.026
-599.069	800.000	-0.069	-0.257
-598.055	-51.420	-0.238	0.113
-597.040	-87.074	0.198	-0.061
-596.025	-200.000	0.089	0.461
-595.011	74.070	0.229	-0.244
-593.996	800.000	-0.060	-0.212
-592.982	38.984	-0.151	-0.137
-591.967	-74.298	-0.217	0.079
-590.952	-80.255	0.152	-0.051
-589.938	-137.260	-0.336	-0.039
-588.923	112.027	0.074	0.091
-587.909	-35.311	0.075	-0.042
-586.894	-97.364	-0.256	0.068
-585.879	-94.191	-0.421	-0.117
-584.865	-49.331	0.131	-0.064
-583.850	235.205	-0.123	0.205
-582.836	-122.271	-0.260	-0.043
-581.821	-87.970	0.188	0.057
-580.806	800.000	0.096	-0.331
-579.792	772.785	0.111	-0.307
-578.777	283.578	-0.093	-0.169
-577.763	249.748	-0.162	0.278
-576.748	47.601	-0.109	0.103
-575.733	494.535	0.127	0.297
-574.719	327.806	0.165	0.321
-573.704	-71.790	-0.242	0.091
-572.690	50.262	-0.132	-0.127
-571.675	-71.130	-0.155	0.059
-570.661	-120.083	-0.127	0.022
-569.646	532.388	0.079	0.189
-568.631	-119.151	0.250	-0.044
-567.617	-200.000	0.047	-0.354
-566.602	56.313	0.165	-0.163
-565.588	-134.571	-0.271	0.034
-564.573	-142.231	-0.521	0.052
-563.558	-200.000	-0.029	0.190
-562.544	-116.375	-0.367	-0.069
-561.529	785.061	0.033	0.092
-560.515	187.810	-0.094	-0.143
-559.500	-65.153	-0.137	0.056
-558.485	-200.000	-0.057	0.398
-557.471	-37.113	0.140	0.076
-556.456	-200.000	0.045	-0.332
-555.442	-25.726	0.189	0.113
-554.427	-165.225	0.268	-0.012
-553.412	-198.666	0.264	-0.001
-552.398	-200.000	0.020	0.447
-551.383	-14.920	0.095	0.062
-550.369	64.990	0.207	-0.212
-549.354	386.764	0.039	-0.081
-548.339	17.961	0.077	-0.062
-547.325	133.157	-0.113	0.148
-546.310	-200.000	0.019	-0.118
-545.296	17.100	0.241	0.194
-544.281	-11.668	-0.284	-0.189
-543.266	800.000	0.053	0.160
-542.252	-200.000	-0.058	0.292
-541.237	-56.297	-0.273	0.123
-540.223	-49.354	-0.331	0.160
-539.208	61.562	0.087	0.087
-538.193	75.690	-0.122	0.130
-537.179	-137.127	0.173	0.020
-536.164	-121.877	0.087	-0.015
-535.150	800.000	0.011	-0.041
-534.135	800.000	0.016	0.051
-533.121	800.000	0.042	-0.150
-532.106	-58.673	0.375	0.165
-531.091	-72.045	0.323	-0.122
-530.077	-116.827	-0.302	-0.056
-529.062	269.558	0.085	-0.152
-528.048	76.805	0.187	-0.201
-527.033	439.135	0.122	-0.269
-526.018	-138.698	-0.201	-0.022
-525.004	150.413	0.052	0.071
-523.989	272.821	0.032	0.057
-522.975	800.000	-0.180	0.569
-521.960	519.957	-0.069	0.163
-520.945	33.454	0.057	0.050
-519.931	10.320	0.237	0.183
-518.916	-89.894	-0.287	-0.085
-517.902	613.813	0.107	0.271
-516.887	6.969	-0.226	-0.171
-515.872	-200.000	-0.033	0.172
-514.858	-105.012	0.294	-0.068
-513.843	-176.879	0.066	0.002
-512.829	180.679	0.120	0.179
-511.814	70.835	-0.217	-0.227
-510.799	800.000	0.054	-0.239
-509.785	-75.020	-0.322	0.117
-508.770	759.119	-0.071	-0.194
-507.756	-105.433	0.172	-0.039
-506.741	-93.806	0.141	-0.039
-505.726	-7.140	0.149	0.102
-504.712	-175.504	-0.296	0.008
-503.697	462.274	-0.238	-0.538
-502.683	-200.000	-0.016	-0.281
-501.668	277.074	0.029	0.053
-500.653	-56.190	0.114	0.051
-499.639	800.000	0.088	-0.257
-498.624	-200.000	-0.004	-0.273
-497.610	-63.335	0.132	-0.055
-496.595	33.611	0.089	-0.078
-495.581	-115.184	0.419	-0.080
-494.566	-23.908	-0.034	0.021
-493.551	178.342	0.150	0.222
-492.537	8.665	-0.297	-0.227
-491.522	-200.000	-0.020	-0.125
-490.508	24.843	0.313	-0.262
-489.493	-80.094	-0.214	0.073
-488.478	-87.913	-0.236	-0.072
-487.464	-143.591	-0.279	-0.027
-486.449	48.783	-0.125	-0.118
-485.435	-200.000	0.037	0.230
-484.420	40.879	-0.180	0.164
-483.405	-50.164	0.388	-0.185
-482.391	14.116	0.217	-0.171
-481.376	181.065	0.158	-0.235
-480.362	5.004	0.267	-0.198
-479.347	-71.363	0.016	-0.006
-478.332	-102.869	-0.077	-0.018
-477.318	-200.000	0.072	0.331
-476.303	-10.914	-0.196	0.131
-475.289	-200.000	0.008	0.211
-474.274	660.152	-0.113	0.293
-473.259	-133.017	-0.075	-0.010
-472.245	104.472	0.026	-0.030
-471.230	-91.978	0.242	-0.069
-470.216	438.731	-0.120	-0.264
-469.201	-3.921	-0.093	0.065
-468.186	422.072	0.094	0.204
-467.172	-105.613	0.047	0.011
-466.157	800.000	-0.122	-0.363
-465.143	263.707	-0.061	-0.107
-464.128	47.395	0.072	0.068
-463.113	-200.000	0.001	0.153
-462.099	-122.398	-0.284	-0.047
-461.084	-23.143	0.189	0.115
-460.070	-200.000	-0.022	0.156
-459.055	-200.000	-0.013	0.290
-458.040	-70.257	-0.300	-0.115
-457.026	-37.755	-0.207	-0.111
-456.011	800.000	-0.122	0.359
-454.997	612.804	0.125	0.315
-453.982	-200.000	0.063	0.335
-452.968	499.120	-0.077	0.178
-451.953	-117.532	-0.126	0.023
-450.938	-42.774	-0.448	-0.230
-449.924	-200.000	0.014	0.368
-448.909	-49.151	-0.173	-0.084
-447.895	-10.272	0.189	-0.127
-446.880	-200.000	-0.017	-0.474
-445.865	-69.100	-0.381	0.148
-444.851	62.152	-0.038	-0.038
-443.836	89.336	0.104	0.117
-442.822	-200.000	-0.013	0.288
-441.807	800.000	0.047	0.190
-440.792	-200.000	0.018	-0.345
-439.778	-108.109	0.335	0.073
-438.763	74.538	-0.109	-0.116
-437.749	354.244	-0.065	-0.129
-436.734	109.454	0.069	0.084
-435.719	-56.773	0.328	0.146
-434.705	-14.019	0.119	-0.078
-433.690	32.287	0.100	0.087
-432.676	3.019	-0.153	0.112
-431.661	27.455	-0.043	0.036
-430.646	-95.875	0.159	0.043
-429.632	25.395	0.161	0.135
-428.617	324.508	-0.235	-0.452
-427.603	-200.000	0.058	-0.341
-426.588	-108.929	0.141	-0.030
-425.573	227.327	-0.170	-0.278
-424.559	-77.115	-0.237	0.083
-423.544	-200.000	-0.003	-0.140
-422.530	99.583	-0.115	-0.134
-421.515	800.000	0.028	0.094
-420.500	-97.199	-0.052	-0.014
-419.486	88.595	0.160	0.179
-418.471	-54.399	0.260	0.119
-417.457	-97.887	0.054	-0.014
-416.442	211.802	0.025	0.040
-415.428	79.971	-0.149	-0.161
-414.413	434.669	-0.095	-0.209
-413.398	-74.343	-0.068	0.025
-412.384	45.954	0.184	-0.171
-411.369	-51.081	-0.095	0.045
-410.355	-175.228	-0.089	-0.002
-409.340	53.361	0.212	0.205
-408.325	-74.688	0.307	-0.111
-407.311	0.561	-0.029	0.021
-406.296	-22.130	-0.158	-0.097
-405.282	-160.159	0.182	-0.010
-404.267	-50.715	-0.172	-0.082
-403.252	162.245	0.246	0.347
-402.238	-17.796	0.207	0.131
-401.223	-200.000	-0.015	0.441
-400.209	19.264	0.103	0.083
-399.194	-112.898	-0.333	-0.066
-398.179	71.405	0.141	0.148
-397.165	65.648	-0.061	0.062
-396.150	696.455	-0.098	-0.259
-395.136	800.000	-0.060	0.171
-394.121	410.405	-0.104	-0.222
-393.106	27.593	-0.158	-0.134
-392.092	800.000	0.123	-0.440
-391.077	192.986	0.163	-0.249
-390.063	-123.919	-0.143	-0.023
-389.048	143.317	0.069	-0.092
-388.033	86.163	-0.020	-0.022
-387.019	79.961	-0.051	0.055
-386.004	-105.780	0.097	0.022
-384.990	-67.057	-0.058	0.023
-383.975	53.641	-0.094	-0.091
-382.960	309.070	0.037	0.070
-381.946	-124.749	0.124	0.019
-380.931	59.471	0.063	-0.063
-379.917	-36.297	0.194	0.105
-378.902	264.483	0.105	0.184
-377.888	800.000	-0.019	0.079
-376.873	-112.214	-0.353	-0.071
-375.858	-103.295	0.272	0.065
-374.844	155.006	0.129	-0.179
-373.829	-124.430	-0.180	0.028
-372.815	-94.867	-0.107	0.029
-371.800	-67.374	0.250	0.099
-370.785	371.115	-0.035	0.072
-369.771	800.000	-0.095	0.268
-368.756	-122.196	0.087	-0.014
-367.742	128.777	0.280	-0.360
-366.727	800.000	0.135	0.412
-365.712	50.155	-0.099	-0.094
-364.698	-109.066	-0.380	-0.081
-363.683	-100.969	-0.141	0.035
-362.669	-200.000	0.001	-0.191
-361.654	-106.527	-0.153	0.034
-360.639	-50.725	-0.289	-0.137
-359.625	-20.737	0.141	-0.087
-358.610	362.952	0.062	-0.124
-357.596	529.863	-0.035	-0.084
-356.581	-200.000	-0.071	0.378
-355.566	-132.708	0.232	-0.030
-354.552	13.913	0.229	-0.179
-353.537	312.828	0.091	0.171
-352.523	43.898	0.091	-0.084
-351.508	-34.885	0.300	0.165
-350.493	95.928	-0.167	0.192
-349.479	113.586	-0.121	0.148
-348.464	-64.513	0.063	-0.026
-347.450	-67.152	0.211	-0.083
-346.435	-81.644	-0.134	0.044
-345.420	-70.548	-0.131	0.050
-344.406	-142.935	-0.079	0.008
-343.391	-140.870	0.226	0.023
-342.377	-135.683	-0.219	-0.026
-341.362	-66.909	0.358	-0.142
-340.348	402.900	-0.139	0.295
-339.333	-200.000	-0.003	0.578
-338.318	422.568	0.061	-0.133
-337.304	82.056	-0.203	-0.221
-336.289	-0.711	-0.164	0.117
-335.275	-51.123	0.165	0.078
-334.260	800.000	0.056	0.194
-333.245	-88.810	-0.133	-0.040
-332.231	-200.000	-0.068	-0.334
-331.216	-200.000	0.033	0.164
-330.202	-30.760	-0.174	-0.099
-329.187	-127.168	-0.155	0.023
-328.172	9.355	-0.205	0.156
-327.158	7.556	-0.172	0.129
-326.143	-96.781	0.215	0.057
-325.129	-200.000	0.035	0.380
-324.114	176.506	0.095	0.138
-323.099	-94.109	-0.067	0.018
-322.085	379.676	0.023	0.048
-321.070	-6.711	0.092	0.063
-320.056	523.075	-0.154	-0.363
-319.041	509.479	-0.091	-0.212
-318.026	-0.382	0.146	0.104
-317.012	-17.939	0.215	-0.135
-315.997	-200.000	-0.041	0.390
-314.983	-53.872	0.154	-0.071
-313.968	-200.000	0.027	-0.209
-312.953	-62.852	-0.170	0.071
-311.939	87.268	0.207	-0.230
-310.924	-174.222	0.440	0.013
-309.910	-27.384	-0.142	-0.083
-308.895	800.000	0.123	-0.458
-307.880	-200.000	0.011	0.321
-306.866	86.713	-0.241	-0.267
-305.851	-16.040	-0.197	-0.126
-304.837	-200.000	0.054	0.442
-303.822	800.000	0.025	-0.096
-302.807	800.000	-0.012	0.047
-301.793	-35.910	-0.177	0.096
-300.778	-96.141	-0.053	-0.014
-299.764	-44.792	0.111	-0.056
-298.749	143.685	0.218	-0.292
-297.735	-28.127	0.259	0.150
-296.720	-200.000	0.013	0.219
-295.705	800.000	0.054	0.152
-294.691	448.408	-0.081	0.179
-293.676	-84.955	0.276	0.087
-292.662	-166.588	-0.165	0.007
-291.647	645.582	0.158	0.404
-290.632	-21.978	-0.218	0.133
-289.618	224.035	-0.086	0.139
-288.603	800.000	0.021	0.087
-287.589	1.620	0.071	0.052
-286.574	-134.028	0.208	-0.026
-285.559	-200.000	0.036	0.180
-284.545	-200.000	0.027	-0.281
-283.530	4.530	-0.200	-0.147
-282.516	-20.874	0.228	-0.140
-281.501	152.428	0.125	-0.172
-280.486	-60.097	-0.339	0.145
-279.472	-120.538	-0.195	0.033
-278.457	304.545	-0.095	0.176
-277.443	-41.405	-0.136	-0.070
-276.428	36.743	0.017	-0.015
-275.413	-125.046	-0.043	0.007
-274.399	90.570	0.112	-0.126
-273.384	-76.264	0.288	-0.102
-272.370	-200.000	0.002	-0.167
-271.355	-56.534	0.146	0.065
-270.340	-167.265	0.296	-0.012
-269.326	-200.000	-0.048	-0.273
-268.311	-200.000	-0.045	-0.479
-267.297	613.343	0.110	-0.276
-266.282	-200.000	-0.016	0.206
-265.267	149.023	-0.130	-0.176
-264.253	-122.223	-0.154	-0.025
-263.238	-200.000	-0.025	-0.153
-262.224	-102.827	-0.340	0.081
-261.209	257.556	-0.015	0.025
-260.195	-97.549	-0.175	-0.045
-259.180	42.387	-0.061	-0.055
-258.165	438.335	0.015	0.034
-257.151	-14.484	0.150	0.097
-256.136	111.085	0.193	-0.233
-255.122	800.000	-0.112	-0.382
-254.107	-200.000	0.034	-0.213
-253.092	-76.925	0.274	0.096
-252.078	128.657	0.109	0.139
-251.063	-22.073	-0.252	0.153
-250.049	-200.000	-0.024	-0.199
-249.034	131.730	0.142	-0.183
-248.019	85.568	0.263	0.289
-247.005	86.804	-0.154	-0.171
-245.990	128.616	0.095	0.121
-244.976	-120.841	0.048	-0.008
-243.961	-135.828	0.087	-0.010
-242.946	-65.265	0.127	-0.051
-241.932	-109.036	-0.066	0.014
-240.917	-22.491	0.230	0.139
-239.903	359.202	-0.046	0.091
-238.888	-55.749	0.135	-0.060
-237.873	-200.000	0.035	-0.314
-236.859	-148.940	-0.226	-0.018
-235.844	-139.174	0.081	-0.009
-234.830	16.917	0.295	-0.234
-233.815	77.135	-0.270	-0.287
-232.800	79.587	0.232	-0.249
-231.786	467.836	0.034	0.075
-230.771	-200.000	-0.010	-0.070
-229.757	-73.090	-0.134	0.049
-228.742	74.801	0.149	-0.157
-227.727	-200.000	0.015	-0.309
-226.713	64.203	0.077	-0.077
-225.698	246.363	-0.143	0.242
-224.684	-32.759	0.154	-0.086
-223.669	-110.303	-0.317	-0.066
-222.655	26.161	-0.201	-0.168
-221.640	208.925	-0.115	-0.181
-220.625	154.423	0.205	-0.282
-219.611	-167.748	0.046	0.002
-218.596	-167.013	-0.450	0.018
-217.582	503.408	-0.059	-0.136
-216.567	-200.000	-0.004	0.047
-215.552	-7.444	0.366	0.248
-214.538	-200.000	0.004	0.247
-213.523	14.173	0.035	0.027
-212.509	-200.000	-0.035	0.270
-211.494	-138.227	0.139	0.015
-210.479	-67.820	0.494	-0.193
-209.465	342.900	0.019	-0.037
-208.450	800.000	-0.053	0.206
-207.436	-200.000	-0.059	-0.324
-206.421	-19.004	-0.353	0.219
-205.406	106.952	-0.267	0.317
-204.392	189.441	-0.236	0.354
-203.377	-53.130	-0.525	-0.241
-202.363	35.278	0.171	-0.150
-201.348	800.000	-0.061	-0.189
-200.333	58.322	0.062	-0.061
-199.319	378.872	0.130	0.266
-198.304	55.598	-0.211	-0.204
-197.290	-0.637	0.141	0.100
-196.275	-88.328	-0.117	0.035
-195.260	91.742	0.153	0.171
-194.246	-71.428	0.179	-0.067
-193.231	13.238	0.337	0.261
-192.217	-161.102	0.119	0.006
-191.202	-46.121	-0.138	-0.068
-190.187	-98.500	0.230	-0.059
-189.173	-183.580	0.187	-0.003
-188.158	14.020	-0.048	-0.037
-187.144	136.081	0.182	-0.237
-186.129	-68.641	0.375	-0.145
-185.114	660.761	-0.027	0.070
-184.100	-131.268	0.158	0.021
-183.085	539.085	0.209	-0.497
-182.071	367.906	0.033	0.068
-181.056	501.844	-0.118	0.272
-180.042	90.959	-0.259	-0.290
-179.027	-200.000	-0.053	0.246
-178.012	-27.550	0.166	-0.097
-176.998	111.756	0.202	-0.244
-175.983	61.243	-0.107	0.106
-174.969	-0.304	-0.289	0.205
-173.954	-200.000	-0.004	0.172
-172.939	168.922	-0.197	0.281
-171.925	76.305	0.050	0.053
-170.910	800.000	-0.127	0.480
-169.896	-145.480	-0.191	-0.017
-168.881	14.722	0.153	0.120
-167.866	540.893	-0.029	0.068
-166.852	800.000	-0.056	0.157
-165.837	-200.000	-0.026	0.186
-164.823	709.164	0.072	-0.191
-163.808	98.494	-0.312	0.359
-162.793	378.990	-0.039	0.080
-161.779	159.742	0.243	-0.338
-160.764	19.987	-0.089	0.071
-159.750	326.799	-0.007	0.014
-158.735	79.011	0.077	-0.083
-157.720	-126.274	-0.442	-0.066
-156.706	-113.821	-0.321	0.062
-155.691	35.755	0.210	0.184
-154.677	-200.000	-0.013	0.170
-153.662	559.124	0.109	-0.263
-152.647	-150.121	0.387	-0.030
-151.633	34.779	-0.173	-0.151
-150.618	800.000	-0.011	-0.040
-149.604	187.802	-0.220	0.327
-148.589	-177.434	0.208	0.005
-147.574	800.000	-0.029	-0.110
-146.560	299.451	-0.129	-0.237
-145.545	90.805	0.157	0.175
-144.531	-200.000	-0.003	-0.330
-143.516	140.839	0.029	0.038
-142.502	-38.557	-0.076	0.040
-141.487	-69.391	0.134	0.051
-140.472	59.587	0.165	-0.162
-139.458	-200.000	0.021	-0.493
-138.443	-26.051	-0.183	0.107
-137.429	800.000	0.101	0.319
-136.414	-171.135	0.228	-0.008
-135.399	97.538	-0.049	-0.056
-134.385	-200.000	-0.049	0.261
-133.370	800.000	-0.078	0.262
-132.356	-200.000	-0.030	-0.158
-131.341	-66.858	0.248	0.098
-130.326	723.793	-0.072	0.190
-129.312	22.673	0.275	0.224
-128.297	-101.847	0.373	-0.090
-127.283	151.162	0.200	0.271
-126.268	-11.472	0.241	0.158
-125.253	-200.000	-0.008	0.135
-124.239	60.142	-0.107	0.106
-123.224	-200.000	0.010	-0.264
-122.210	-200.000	-0.010	-0.079
-121.195	-200.000	-0.002	0.161
-120.180	-172.713	-0.270	-0.008
-119.166	-152.959	0.230	-0.016
-118.151	101.543	-0.120	0.140
-117.137	12.813	-0.040	-0.031
-116.122	497.296	0.022	0.050
-115.107	-57.233	0.429	0.188
-114.093	267.750	0.223	0.388
-113.078	-200.000	0.015	-0.460
-112.064	800.000	0.062	-0.185
-111.049	158.037	0.129	-0.178
-110.034	738.156	0.074	-0.199
-109.020	800.000	0.052	-0.193
-108.005	-132.813	0.168	-0.021
-106.991	261.705	-0.159	-0.275
-105.976	695.609	0.066	-0.172
-104.962	574.615	-0.049	0.119
-103.947	78.440	0.108	0.115
-102.932	-47.353	-0.175	-0.085
-101.918	800.000	0.049	-0.213
-100.903	-90.039	-0.159	0.046
-99.889	800.000	0.068	0.190
-98.874	-160.933	0.232	0.012
-97.859	800.000	0.065	0.193
-96.845	800.000	-0.064	-0.264
-95.830	800.000	-0.058	0.168
-94.816	-150.929	0.213	0.016
-93.801	394.697	0.101	-0.209
-92.786	-11.398	-0.194	0.127
-91.772	121.666	0.254	0.315
-90.757	6.159	0.272	0.201
-89.743	-200.000	-0.334	0.001
-88.728	-42.506	-0.254	-0.129
-87.713	800.000	0.077	-0.219
-86.699	-22.925	0.235	-0.141
-85.684	-154.007	0.218	0.015
-84.670	97.130	-0.051	0.058
-83.655	250.490	0.057	0.096
-82.640	23.061	-0.123	-0.101
-81.626	25.149	0.152	-0.126
-80.611	58.793	0.143	0.140
-79.597	-42.154	-0.109	0.055
-78.582	-95.535	0.149	-0.040
-77.567	-23.985	0.115	-0.069
-76.553	800.000	0.118	0.389
-75.538	73.955	-0.098	-0.102
-74.524	-200.000	0.063	-0.414
-73.509	-22.421	-0.217	-0.131
-72.494	-33.762	0.248	0.136
-71.480	79.441	0.124	-0.132
-70.465	-165.907	0.415	-0.018
-69.451	-101.053	0.284	0.069
-68.436	-200.000	0.019	0.289
-67.422	-43.346	0.087	-0.044
-66.407	-33.388	-0.035	0.019
-65.392	104.458	-0.200	0.234
-64.378	-163.277	0.209	0.010
-63.363	65.472	0.199	0.200
-62.349	116.260	0.061	0.074
-61.334	209.302	-0.507	-0.789
-60.319	-43.263	0.156	0.078
-59.305	800.000	-0.233	-0.733
-58.290	138.892	0.487	0.636
-57.276	456.818	0.713	1.574
-56.261	-200.000	86.872	519.775
-55.246	490.994	1366.897	3109.467
-54.232	149.460	2570.397	3459.518
-53.217	111.334	2226.050	2666.656
-52.203	47.963	1755.842	1630.371
-51.188	41.242	1562.010	1403.204
-50.173	38.946	1533.849	1361.942
-49.159	54.976	1578.858	1515.083
-48.144	59.472	1598.835	1565.872
-47.130	41.967	1556.665	1403.264
-46.115	38.613	1541.893	1366.544
-45.100	38.347	1538.404	1361.544
-44.086	38.394	1536.159	1359.831
-43.071	38.335	1534.102	1357.545
-42.057	38.282	1532.636	1355.829
-41.042	38.244	1531.351	1354.376
-40.027	38.316	1530.065	1353.679
-39.013	38.252	1528.359	1351.676
-37.998	38.315	1526.920	1350.789
-36.984	38.190	1525.729	1348.818
-35.969	38.164	1524.605	1347.589
-34.954	38.207	1523.259	1346.643
-33.940	38.236	1521.693	1345.405
-32.925	38.392	1519.608	1344.576
-31.911	38.388	1518.357	1343.395
-30.896	38.471	1517.059	1342.762
-29.881	38.375	1516.029	1341.139
-28.867	38.353	1514.754	1339.803
-27.852	38.304	1513.268	1338.098
-26.838	38.415	1511.416	1337.167
-25.823	38.415	1510.258	1336.095
-24.809	38.350	1508.515	1334.053
-23.794	38.461	1506.720	1333.171
-22.779	38.417	1505.992	1332.174
-21.765	38.406	1504.475	1330.700
-20.750	38.380	1503.631	1329.728
-19.736	38.363	1502.175	1328.271
-18.721	38.290	1501.286	1326.938
-17.706	38.274	1500.153	1325.776
-16.692	38.362	1498.666	1325.005
-15.677	38.206	1497.894	1323.214
-14.663	38.245	1496.821	1322.475
-13.648	38.257	1495.506	1321.345
-12.633	38.370	1494.406	1321.080
-11.619	38.275	1493.865	1319.907
-10.604	38.203	1492.945	1318.557
-9.590	38.344	1491.464	1318.151
-8.575	38.320	1491.162	1317.669
-7.560	38.255	1490.283	1316.402
-6.546	38.274	1489.194	1315.517
-5.531	38.336	1488.298	1315.086
-4.517	38.278	1487.496	1313.938
-3.502	38.281	1486.482	1313.011
-2.487	38.273	1485.548	1312.078
-1.473	38.396	1484.418	1311.852
-0.458	38.294	1482.625	1309.531
0.556	36.439	1473.182	1298.062
1.571	33.078	1445.143	1251.043
2.586	28.754	1381.228	1168.175
3.600	26.596	1295.630	1082.796
4.615	24.884	1248.279	1033.259
5.629	23.478	1195.572	981.765
6.644	19.905	1116.972	898.625
7.659	16.374	1077.750	849.270
8.673	15.642	1072.407	841.324
9.688	15.445	1069.481	837.968
10.702	15.468	1067.794	836.688
11.717	15.505	1066.426	835.728
12.731	17.025	1067.019	843.679
13.746	20.151	1070.966	862.300
14.761	20.630	1070.236	864.014
15.775	18.527	1066.319	850.357
16.790	17.138	1063.775	841.376
17.804	15.951	1060.891	833.152
18.819	14.882	1059.356	826.592
19.834	14.396	1058.014	823.073
20.848	13.994	1056.617	819.927
21.863	13.771	1055.275	817.716
22.877	13.549	1054.729	816.128
23.892	13.437	1054.157	815.058
24.907	13.100	1053.306	812.673
25.921	13.198	1052.453	812.426
26.936	13.326	1051.252	812.053
27.950	13.291	1050.738	811.412
28.965	13.274	1049.800	810.536
29.980	13.382	1048.576	810.047
30.994	13.417	1047.502	809.313
32.009	13.493	1046.553	808.883
33.023	13.515	1045.658	808.228
34.038	13.507	1045.116	807.699
35.053	13.550	1043.976	806.952
36.067	13.412	1042.817	805.316
37.082	13.399	1042.238	804.736
38.096	13.310	1041.933	803.992
39.111	13.462	1040.322	803.419
40.126	13.332	1039.983	802.453
41.140	13.418	1038.347	801.536
42.155	13.228	1037.580	799.953
43.169	13.207	1036.965	799.308
44.184	13.223	1035.876	798.477
45.199	13.058	1034.684	796.691
46.213	13.185	1033.198	796.085
47.228	13.193	1032.253	795.326
48.242	13.302	1031.498	795.202
49.257	13.416	1030.494	794.901
50.271	13.159	1030.257	793.415
51.286	13.359	1029.024	793.356
52.301	13.388	1028.123	792.727
53.315	13.350	1027.107	791.691
54.330	13.345	1026.795	791.361
55.344	13.394	1025.359	790.418
56.359	13.306	1024.345	789.144
57.374	13.314	1023.404	788.388
58.388	13.352	1022.520	787.817
59.403	13.242	1021.810	786.680
60.417	13.195	1020.738	785.562
61.432	13.135	1020.681	785.161
62.447	13.159	1019.690	784.444
63.461	13.144	1018.725	783.563
64.476	13.143	1017.679	782.682
65.490	13.119	1016.907	781.906
66.505	12.918	1016.582	780.633
67.520	13.107	1015.387	780.543
68.534	13.163	1014.747	780.243
69.549	13.067	1013.934	779.098
70.563	13.310	1013.090	779.526
71.578	13.266	1012.349	778.678
72.593	13.102	1011.875	777.474
73.607	13.098	1011.253	776.907
74.622	12.999	1010.386	775.706
75.636	13.035	1009.136	774.848
76.651	13.136	1008.078	774.443
77.666	13.050	1007.336	773.399
78.680	13.074	1006.802	773.033
79.695	13.114	1006.354	772.811
80.709	13.133	1005.519	772.188
81.724	13.186	1004.727	771.760
82.739	13.202	1004.033	771.232
83.753	13.171	1003.271	770.433
84.768	13.205	1002.249	769.741
85.782	13.298	1001.321	769.392
86.797	13.358	1001.039	769.385
87.812	13.401	999.527	768.354
88.826	13.402	998.690	767.651
89.841	13.319	998.263	766.867
90.855	13.256	997.768	766.127
91.870	13.328	996.372	765.322
92.884	13.428	995.994	765.424
93.899	13.464	994.918	764.696
94.914	13.455	994.218	764.051
95.928	13.526	993.606	763.842
96.943	13.326	993.082	762.450
97.957	13.546	991.796	762.404
98.972	13.395	991.496	761.411
99.987	13.388	990.416	760.483
101.001	13.470	989.839	760.347
102.016	13.352	989.227	759.272
103.030	13.397	987.820	758.329
104.045	13.500	986.958	758.072
105.060	13.433	985.988	756.953
106.074	13.395	985.228	756.129
107.089	13.270	984.148	754.665
108.103	13.177	983.820	753.923
109.118	13.060	982.758	752.508
110.133	13.202	981.848	752.391
111.147	13.166	980.866	751.410
112.162	13.206	979.823	750.726
113.176	13.189	979.198	750.103
114.191	13.286	978.412	749.873
115.206	13.334	977.384	749.238
116.220	13.272	976.557	748.254
117.235	13.257	975.959	747.662
118.249	13.475	974.659	747.587
119.264	13.276	974.072	746.171
120.279	13.271	973.487	745.635
121.293	13.367	972.225	745.033
122.308	13.246	971.907	744.181
123.322	13.242	970.716	743.183
124.337	13.170	969.886	742.162
125.352	13.322	968.634	741.816
126.366	13.188	968.003	740.670
127.381	13.244	966.541	739.736
128.395	13.186	965.635	738.716
129.410	13.122	965.064	737.930
130.424	13.226	964.209	737.673
131.439	13.212	963.379	736.909
132.454	13.248	962.335	736.208
133.468	13.365	961.797	736.249
134.483	13.329	961.062	735.465
135.497	13.311	960.420	734.827
136.512	13.376	959.504	734.350
137.527	13.426	958.461	733.707
138.541	13.443	957.638	733.089
139.556	13.387	957.459	732.638
140.570	13.251	956.529	731.259
141.585	13.375	955.616	731.047
142.600	13.513	954.938	731.070
143.614	13.447	954.303	730.230
144.629	13.468	953.382	729.554
145.643	13.439	952.834	728.942
146.658	13.605	951.441	728.541
147.673	13.521	951.088	727.837
148.687	13.338	949.966	726.113
149.702	13.381	948.938	725.452
150.716	13.407	948.078	724.841
151.731	13.438	946.977	724.074
152.746	13.345	946.686	723.380
153.760	13.362	945.987	722.857
154.775	13.353	945.226	722.168
155.789	13.412	944.502	721.810
156.804	13.336	943.919	720.968
157.819	13.397	942.976	720.453
158.833	13.421	942.049	719.786
159.848	13.539	941.670	719.943
160.862	13.610	940.944	719.632
161.877	13.647	939.965	718.980
162.892	13.487	939.122	717.578
163.906	13.350	938.691	716.595
164.921	13.529	937.721	716.563
165.935	13.381	936.976	715.293
166.950	13.629	935.547	715.207
167.964	13.556	934.686	714.170
168.979	13.451	934.253	713.323
169.994	13.361	933.367	712.200
171.008	13.423	932.504	711.741
172.023	13.590	931.506	711.636
173.037	13.630	930.527	710.998
174.052	13.766	929.781	710.945
175.067	13.648	929.428	710.109
176.081	13.606	928.500	709.158
177.096	13.523	927.920	708.296
178.110	13.404	927.164	707.147
179.125	13.424	926.229	706.459
180.140	13.689	924.994	706.583
181.154	13.571	924.856	705.913
182.169	13.500	924.325	705.140
183.183	13.747	923.380	705.410
184.198	13.727	922.737	704.770
185.213	13.800	921.945	704.412
186.227	13.810	921.346	703.936
187.242	13.643	921.295	703.125
188.256	13.790	920.555	703.122
189.271	13.797	919.424	702.223
190.286	13.778	918.843	701.637
191.300	13.738	917.929	700.708
192.315	13.741	916.992	699.945
193.329	13.542	916.431	698.614
194.344	13.552	916.043	698.301
195.359	13.645	915.372	698.119
196.373	13.508	915.208	697.356
197.388	13.612	914.486	697.179
198.402	13.760	913.752	697.182
199.417	13.885	913.377	697.358
200.432	14.017	912.874	697.466
201.446	14.149	912.109	697.375
202.461	14.072	911.610	696.608
203.475	14.053	911.227	696.173
204.490	14.094	910.610	695.814
205.504	14.151	909.381	695.050
206.519	14.009	908.694	693.872
207.534	13.947	908.098	693.097
208.548	13.925	907.268	692.308
209.563	14.075	906.745	692.476
210.577	14.083	905.874	691.782
211.592	14.083	905.123	691.145
212.607	14.090	905.129	691.117
213.621	14.241	904.272	691.031
214.636	14.198	903.776	690.411
215.650	14.049	903.044	689.173
216.665	14.175	902.205	688.993
217.680	14.083	902.007	688.399
218.694	14.175	901.234	688.130
219.709	14.246	900.945	688.143
220.723	14.274	900.168	687.604
221.738	14.141	899.853	686.755
222.753	14.180	899.074	686.258
223.767	14.254	898.217	685.850
224.782	14.251	897.392	685.146
225.796	14.280	896.904	684.830
226.811	14.340	896.258	684.527
227.826	14.346	895.200	683.680
228.840	14.448	894.454	683.468
229.855	14.394	893.687	682.601
230.869	14.208	893.692	681.782
231.884	14.321	892.717	681.440
232.899	14.162	892.012	680.191
233.913	14.247	890.789	679.548
234.928	14.189	890.539	679.060
235.942	14.142	890.147	678.509
236.957	14.235	889.221	678.121
237.972	14.339	888.462	677.907
238.986	14.193	888.119	676.989
240.001	14.345	887.373	676.978
241.015	14.259	886.920	676.224
242.030	14.290	885.829	675.459
243.045	14.399	885.390	675.506
244.059	14.358	884.971	674.961
245.074	14.487	884.217	674.848
246.088	14.424	883.306	673.837
247.103	14.420	883.269	673.735
248.117	14.515	882.399	673.395
249.132	14.653	881.610	673.291
250.147	14.590	881.170	672.639
251.161	14.843	880.265	672.909
252.176	14.680	879.799	671.839
253.190	14.843	879.172	671.954
254.205	14.747	878.981	671.362
255.220	14.711	878.147	670.522
256.234	14.756	877.113	669.853
257.249	14.976	876.378	670.114
258.263	14.823	876.178	669.288
259.278	14.942	875.429	669.133
260.293	14.800	875.296	668.406
261.307	14.953	874.523	668.366
262.322	15.047	873.846	668.166
263.336	14.955	873.502	667.474
264.351	15.130	872.832	667.605
265.366	15.079	872.217	666.871
266.380	15.001	871.625	666.048
267.395	15.136	870.726	665.838
268.409	14.911	870.310	664.567
269.424	15.037	869.441	664.346
270.439	15.100	868.370	663.720
271.453	15.139	867.881	663.440
272.468	15.097	867.295	662.768
273.482	15.038	866.434	661.817
274.497	14.871	866.249	660.956
275.512	15.092	865.384	661.114
276.526	15.058	864.568	660.294
277.541	15.041	863.714	659.518
278.555	15.061	863.516	659.388
279.570	14.968	863.269	658.775
280.585	15.125	862.488	658.738
281.599	15.210	862.094	658.711
282.614	15.180	861.408	658.011
283.628	15.174	860.570	657.291
284.643	15.202	859.702	656.678
285.657	15.310	859.268	656.714
286.672	15.255	858.842	656.113
287.687	15.123	858.812	655.516
288.701	15.328	857.751	655.450
289.716	15.237	857.106	654.543
290.730	15.167	856.803	653.981
291.745	15.270	856.042	653.743
292.760	15.231	855.278	652.952
293.774	15.395	854.822	653.180
294.789	15.397	854.312	652.743
295.803	15.455	853.453	652.253
296.818	15.435	852.803	651.620
297.833	15.377	852.280	650.939
298.847	15.386	851.483	650.307
299.862	15.314	850.942	649.558
300.876	15.353	850.513	649.324
301.891	15.641	849.446	649.568
302.906	15.577	848.691	648.685
303.920	15.594	848.148	648.277
304.935	15.512	848.088	647.859
305.949	15.698	847.124	647.782
306.964	15.801	846.184	647.401
307.979	15.671	846.072	646.757
308.993	15.533	845.710	645.892
310.008	15.580	845.124	645.567
311.022	15.697	843.893	645.020
312.037	15.508	844.090	644.388
313.052	15.710	843.201	644.429
314.066	15.563	842.872	643.554
315.081	15.622	842.051	643.099
316.095	15.556	841.616	642.457
317.110	15.719	841.166	642.679
318.125	15.561	840.787	641.729
319.139	15.502	839.936	640.797
320.154	15.647	839.508	640.966
321.168	15.675	838.560	640.292
322.183	15.835	837.899	640.340
323.197	15.641	837.943	639.579
324.212	15.679	837.382	639.240
325.227	15.713	836.681	638.777
326.241	15.729	836.072	638.314
327.256	15.731	835.361	637.723
328.270	15.759	834.817	637.358
329.285	15.676	834.301	636.592
330.300	15.759	833.652	636.355
331.314	15.889	833.141	636.401
332.329	15.850	832.458	635.678
333.343	15.813	831.814	634.988
334.358	15.869	831.801	635.135
335.373	15.814	831.328	634.508
336.387	15.840	830.814	634.159
337.402	15.917	829.734	633.569
338.416	15.893	829.699	633.396
339.431	15.896	829.249	633.008
340.446	16.169	828.225	633.195
341.460	16.254	827.605	632.983
342.475	16.142	826.930	631.990
343.489	16.194	826.650	631.917
344.504	16.171	826.083	631.338
345.519	16.154	825.473	630.753
346.533	16.180	825.271	630.641
347.548	16.139	825.078	630.286
348.562	16.165	824.157	629.622
349.577	16.268	823.614	629.535
350.592	16.088	823.260	628.538
351.606	15.907	823.103	627.690
352.621	16.063	822.361	627.648
353.635	16.167	821.660	627.446
354.650	16.190	821.194	627.119
355.665	16.208	821.158	627.101
356.679	16.127	820.437	626.197
357.694	16.300	819.730	626.243
358.708	16.192	819.465	625.586
359.723	16.396	818.671	625.679
360.738	16.298	818.296	624.973
361.752	16.218	817.910	624.325
362.767	16.248	817.536	624.098
363.781	16.223	817.262	623.742
364.796	16.265	816.571	623.312
365.810	16.402	816.066	623.379
366.825	16.414	815.735	623.113
367.840	16.573	815.521	623.481
368.854	16.480	814.958	622.655
369.869	16.538	814.189	622.223
370.883	16.491	813.671	621.599
371.898	16.493	812.816	620.899
372.913	16.491	812.803	620.829
373.927	16.502	812.484	620.571
374.942	16.698	811.009	620.108
375.956	16.754	810.392	619.784
376.971	16.686	810.060	619.228
377.986	16.668	809.495	618.674
379.000	16.694	809.338	618.593
380.015	16.797	808.591	618.344
381.029	16.772	808.128	617.846
382.044	16.653	807.686	617.018
383.059	16.755	806.845	616.692
384.073	16.713	806.658	616.342
385.088	16.898	805.772	616.283
386.102	16.777	805.245	615.387
387.117	16.686	805.173	614.946
388.132	16.743	804.612	614.669
389.146	16.754	804.041	614.220
390.161	16.623	804.091	613.727
391.175	16.833	803.285	613.819
392.190	16.735	803.256	613.390
393.205	16.806	802.727	613.187
394.219	16.782	802.269	612.694
395.234	16.813	801.544	612.201
396.248	16.841	800.814	611.691
397.263	16.803	800.338	611.137
398.278	16.728	800.050	610.590
399.292	16.851	799.416	610.495
400.307	16.815	798.842	609.875
401.321	16.915	798.650	610.033
402.336	16.820	798.271	609.348
403.350	16.887	797.940	609.282
404.365	16.860	797.492	608.788
405.380	17.002	797.010	608.876
406.394	16.976	796.567	608.392
407.409	16.979	796.425	608.240
408.423	17.095	795.809	608.132
409.438	17.297	795.109	608.266
410.453	17.232	794.769	607.719
411.467	17.156	794.607	607.268
412.482	17.171	793.910	606.735
413.496	17.276	793.319	606.605
414.511	17.207	793.335	606.320
415.526	17.233	793.111	606.185
416.540	17.235	792.321	605.534
417.555	17.188	791.634	604.790
418.569	17.388	791.262	605.165
419.584	17.267	790.845	604.362
420.599	17.281	790.332	603.966
421.613	97.853	1274.609	1411.524
422.628	83.523	1345.189	1411.623
