DTS Sentinel unit serial number:	SN413079Multiplexer serial number:	ORYXHardware model number:	OX4-SRSoftware version number:	ORYX F/W v4.00 Oryx Data Collector v3.7.2.0data status	okinstallation	princeton_trtdifferential loss correction	single-endedforward channel	channel 3reverse channel	N/Adate	2019/09/17time	14:32:35forward acquisition time	60.00reverse acquisition time	0.00gamma	496.2192k internal	0.2298k external	0.2298temperature offset calibration	0.9956default loss term (dB/km)	0.3790temperature slope calibration	1.0000multiplexer offset coefficient	1.0000multiplexer slope coefficient	1.0000fibre end	0.00T internal ref (°C)	36.53T ext. ref 1 (°C)	0.40T ext. ref 2 (°C)	33.61length (m)	temperature (°C)	Stokes	anti-Stokes-747.200	83.979	0.156	-0.174
-746.185	202.104	0.223	0.352
-745.171	362.732	-0.109	0.223
-744.156	800.000	0.063	0.237
-743.142	-4.765	0.278	0.196
-742.127	-88.702	0.057	-0.017
-741.112	-200.000	-0.079	-0.424
-740.098	130.678	0.240	0.314
-739.083	552.080	0.107	0.262
-738.069	15.303	-0.208	0.167
-737.054	-29.601	0.230	0.134
-736.039	-135.400	-0.083	-0.010
-735.025	-109.143	0.365	0.079
-734.010	-14.651	0.161	-0.106
-732.996	-91.467	0.222	-0.065
-731.981	4.633	0.363	0.272
-730.966	220.414	-0.032	-0.053
-729.952	-137.502	-0.257	-0.030
-728.937	72.487	-0.071	-0.075
-727.923	129.319	0.325	-0.424
-726.908	800.000	-0.083	0.236
-725.894	-113.776	-0.314	0.062
-724.879	-134.151	0.221	-0.028
-723.864	-200.000	-0.020	-0.295
-722.850	-200.000	0.030	0.162
-721.835	-16.386	-0.265	-0.171
-720.821	-8.631	-0.022	0.015
-719.806	-200.000	0.006	-0.127
-718.791	-112.722	0.293	-0.059
-717.777	202.752	-0.060	0.094
-716.762	791.835	0.131	-0.369
-715.748	38.762	-0.197	0.179
-714.733	49.206	0.275	-0.264
-713.718	42.654	-0.224	-0.208
-712.704	800.000	0.006	-0.020
-711.689	-155.237	-0.368	0.024
-710.675	707.659	0.123	-0.332
-709.660	-26.995	0.138	-0.082
-708.645	-98.495	-0.240	-0.063
-707.631	84.254	0.094	-0.104
-706.616	-200.000	-0.009	-0.053
-705.602	164.377	0.058	0.084
-704.587	75.113	-0.190	0.204
-703.572	-101.783	0.135	0.033
-702.558	800.000	-0.091	0.272
-701.543	-13.860	-0.133	-0.088
-700.529	-200.000	-0.039	-0.250
-699.514	-200.000	-0.009	0.190
-698.499	64.468	0.282	-0.289
-697.485	-200.000	0.017	-0.260
-696.470	273.086	0.123	-0.221
-695.456	-200.000	-0.012	-0.068
-694.441	-155.388	-0.236	0.016
-693.426	-144.346	0.268	-0.025
-692.412	48.144	-0.215	-0.205
-691.397	170.719	0.104	0.151
-690.383	800.000	-0.058	-0.246
-689.368	800.000	-0.178	0.506
-688.354	117.612	0.352	-0.441
-687.339	-66.229	0.404	0.164
-686.324	-200.000	0.032	-0.164
-685.310	584.774	0.031	-0.077
-684.295	-200.000	-0.029	0.280
-683.281	800.000	-0.088	-0.286
-682.266	172.058	0.250	0.366
-681.251	105.043	-0.134	0.161
-680.237	800.000	-0.037	-0.150
-679.222	417.529	0.124	-0.271
-678.208	-200.000	0.031	0.165
-677.193	-35.769	-0.246	0.135
-676.178	-90.315	0.078	-0.023
-675.164	-149.286	-0.080	0.006
-674.149	800.000	0.019	0.062
-673.135	-131.891	-0.206	0.027
-672.120	-91.224	-0.099	0.029
-671.105	-122.272	0.179	0.030
-670.091	-200.000	0.118	-0.534
-669.076	-34.987	0.159	-0.088
-668.062	-133.815	-0.336	0.043
-667.047	-22.765	0.213	-0.131
-666.032	800.000	0.107	0.421
-665.018	-102.946	0.287	-0.069
-664.003	318.720	0.127	-0.244
-662.989	-93.035	-0.201	-0.057
-661.974	-122.799	0.273	0.045
-660.959	-187.976	0.128	-0.002
-659.945	421.115	-0.130	-0.283
-658.930	800.000	-0.020	-0.070
-657.916	215.413	0.219	0.353
-656.901	-200.000	0.047	-0.311
-655.886	-200.000	0.029	-0.185
-654.872	-200.000	0.031	-0.260
-653.857	800.000	-0.088	0.249
-652.843	364.150	-0.037	0.075
-651.828	339.904	0.104	-0.206
-650.814	-44.732	-0.205	-0.104
-649.799	88.302	-0.161	0.182
-648.784	96.351	0.130	-0.151
-647.770	336.892	0.107	0.212
-646.755	-200.000	-0.023	-0.326
-645.741	-200.000	0.048	0.282
-644.726	83.770	0.129	-0.143
-643.711	81.286	0.114	0.125
-642.697	-42.666	-0.143	0.074
-641.682	-200.000	-0.004	0.059
-640.668	-41.215	0.027	0.014
-639.653	-64.186	0.256	0.106
-638.638	254.712	0.066	-0.115
-637.624	-56.689	-0.318	-0.143
-636.609	181.679	0.098	-0.147
-635.595	-146.990	-0.381	0.033
-634.580	-165.150	-0.154	0.007
-633.565	-200.000	-0.034	-0.170
-632.551	-159.791	0.242	-0.014
-631.536	-200.000	0.023	0.251
-630.522	800.000	-0.057	-0.220
-629.507	137.165	0.207	0.275
-628.492	108.664	-0.150	0.182
-627.478	52.113	0.162	0.156
-626.463	618.903	0.049	0.125
-625.449	63.243	-0.146	0.149
-624.434	-52.953	-0.067	0.031
-623.419	-69.022	0.124	0.049
-622.405	-110.756	-0.142	-0.030
-621.390	800.000	0.047	0.186
-620.376	231.667	-0.111	-0.186
-619.361	-153.166	0.209	-0.015
-618.346	32.677	0.127	-0.112
-617.332	-82.705	-0.121	-0.040
-616.317	-200.000	-0.021	-0.212
-615.303	99.899	-0.066	0.077
-614.288	-142.574	0.187	-0.019
-613.273	5.369	-0.072	-0.054
-612.259	107.156	-0.136	-0.164
-611.244	-60.615	0.250	0.108
-610.230	-89.044	0.055	0.016
-609.215	-56.175	-0.182	0.082
-608.201	800.000	0.124	0.477
-607.186	-70.377	-0.064	0.025
-606.171	-159.735	0.087	0.005
-605.157	702.258	0.021	-0.056
-604.142	-81.606	-0.102	-0.034
-603.128	-49.151	0.125	0.061
-602.113	800.000	-0.023	0.080
-601.098	-200.000	-0.013	0.152
-600.084	-47.179	0.086	0.043
-599.069	-200.000	-0.016	0.119
-598.055	9.918	-0.312	0.241
-597.040	161.966	0.090	-0.129
-596.025	800.000	-0.031	0.091
-595.011	-33.984	-0.176	0.099
-593.996	-200.000	0.033	-0.174
-592.982	24.716	-0.217	0.182
-591.967	37.775	-0.208	0.187
-590.952	47.452	0.078	0.074
-589.938	-200.000	0.012	0.253
-588.923	-15.665	-0.185	0.119
-587.909	56.124	0.079	-0.078
-586.894	-55.902	-0.224	0.101
-585.879	-6.295	0.276	-0.191
-584.865	349.648	0.025	-0.051
-583.850	-200.000	-0.038	0.298
-582.836	-200.000	-0.034	-0.335
-581.821	-28.556	-0.371	-0.217
-580.806	-38.326	0.145	0.078
-579.792	73.569	-0.074	0.078
-578.777	18.931	-0.246	0.200
-577.763	-58.263	0.139	0.062
-576.748	-133.978	0.524	-0.066
-575.733	265.869	-0.114	-0.202
-574.719	-34.834	-0.366	-0.203
-573.704	-31.687	-0.264	0.150
-572.690	5.586	0.214	0.160
-571.675	-144.063	-0.371	-0.035
-570.661	307.373	0.097	0.182
-569.646	367.892	0.162	0.333
-568.631	-200.000	0.068	0.487
-567.617	146.383	0.208	0.283
-566.602	269.930	0.169	-0.302
-565.588	-27.314	-0.209	0.123
-564.573	-4.069	-0.141	-0.099
-563.558	-200.000	-0.004	-0.048
-562.544	224.078	0.236	-0.386
-561.529	800.000	0.098	0.280
-560.515	92.046	0.075	-0.085
-559.500	-200.000	0.041	0.348
-558.485	-172.662	0.396	0.013
-557.471	-200.000	-0.007	-0.148
-556.456	645.058	-0.062	-0.162
-555.442	136.992	0.109	-0.144
-554.427	154.564	-0.163	-0.227
-553.412	-28.274	-0.057	-0.033
-552.398	-148.662	-0.192	0.016
-551.383	800.000	0.125	0.411
-550.369	-200.000	-0.030	-0.222
-549.354	-140.216	-0.143	-0.015
-548.339	169.707	0.097	-0.140
-547.325	207.466	-0.092	0.146
-546.310	-70.558	-0.107	0.041
-545.296	527.658	-0.166	-0.396
-544.281	-55.690	0.316	-0.143
-543.266	449.591	-0.104	0.233
-542.252	-41.980	-0.198	0.103
-541.237	-61.250	0.151	0.064
-540.223	4.492	0.261	-0.194
-539.208	159.376	0.081	0.114
-538.193	312.709	0.104	-0.197
-537.179	508.491	0.067	0.158
-536.164	67.668	-0.164	0.170
-535.150	26.353	-0.184	-0.155
-534.135	222.429	-0.163	-0.266
-533.121	68.939	0.230	-0.240
-532.106	585.906	-0.137	-0.340
-531.091	191.491	0.259	-0.395
-530.077	800.000	-0.058	0.238
-529.062	-130.485	0.085	-0.012
-528.048	-200.000	-0.003	0.156
-527.033	171.812	0.036	-0.052
-526.018	-140.302	-0.179	0.019
-525.004	555.055	0.062	0.150
-523.989	119.617	0.166	0.208
-522.975	-19.415	-0.087	0.055
-521.960	136.391	-0.069	0.091
-520.945	-92.473	0.119	0.034
-519.931	-69.525	-0.205	0.079
-518.916	-100.660	0.222	-0.055
-517.902	-168.880	-0.094	-0.004
-516.887	-200.000	0.025	0.207
-515.872	101.646	-0.213	0.252
-514.858	238.109	-0.061	-0.102
-513.843	800.000	0.026	-0.091
-512.829	-32.949	0.308	-0.173
-511.814	0.597	-0.350	-0.253
-510.799	36.551	-0.187	0.167
-509.785	347.729	0.071	-0.141
-508.770	-140.985	0.518	-0.054
-507.756	-200.000	0.013	0.206
-506.741	-46.390	-0.147	0.073
-505.726	-100.146	0.177	0.045
-504.712	-40.670	-0.245	-0.128
-503.697	29.271	0.148	-0.127
-502.683	-121.139	0.181	0.031
-501.668	312.869	-0.026	-0.049
-500.653	-80.870	0.363	0.122
-499.639	800.000	0.062	0.204
-498.624	-79.827	0.114	-0.039
-497.610	32.805	-0.157	-0.138
-496.595	-110.627	-0.155	0.032
-495.581	71.237	-0.170	-0.178
-494.566	800.000	-0.028	-0.098
-493.551	-104.643	0.143	-0.033
-492.537	99.703	0.153	-0.180
-491.522	79.410	0.124	-0.134
-490.508	-183.512	0.184	0.003
-489.493	79.145	0.203	-0.219
-488.478	228.774	-0.069	-0.113
-487.464	-135.368	0.244	-0.029
-486.449	-158.595	-0.190	0.011
-485.435	52.931	0.085	-0.082
-484.420	99.814	-0.101	-0.118
-483.405	-63.202	0.152	0.063
-482.391	-200.000	0.012	0.222
-481.376	-43.747	0.194	0.099
-480.362	148.451	-0.093	0.127
-479.347	-138.681	0.021	0.002
-478.332	-75.121	-0.087	0.032
-477.318	800.000	0.020	-0.071
-476.303	-200.000	-0.019	0.164
-475.289	398.813	0.131	-0.278
-474.274	-48.797	0.169	0.082
-473.259	-37.128	0.200	0.108
-472.245	537.197	-0.038	-0.091
-471.230	-114.749	-0.242	0.047
-470.216	579.320	0.060	0.148
-469.201	85.508	-0.196	-0.218
-468.186	-57.967	0.407	-0.179
-467.172	-22.800	0.318	-0.194
-466.157	6.241	-0.143	-0.107
-465.143	-155.869	-0.296	-0.019
-464.128	-200.000	-0.053	0.332
-463.113	-200.000	0.014	0.228
-462.099	-136.109	0.067	0.008
-461.084	-178.267	-0.193	0.005
-460.070	-30.986	0.214	-0.122
-459.055	-178.952	-0.455	0.010
-458.040	13.328	-0.093	-0.073
-457.026	-43.791	-0.104	-0.053
-456.011	800.000	-0.074	-0.207
-454.997	214.805	0.097	-0.154
-453.982	36.360	0.085	-0.076
-452.968	24.578	-0.307	0.257
-451.953	479.345	-0.052	-0.118
-450.938	84.715	-0.194	-0.215
-449.924	6.824	-0.201	-0.151
-448.909	66.528	-0.117	-0.120
-447.895	500.360	0.126	-0.294
-446.880	-64.713	-0.208	-0.085
-445.865	66.793	0.084	0.087
-444.851	-162.311	-0.085	0.004
-443.836	-25.165	-0.295	-0.176
-442.822	-57.545	0.090	0.040
-441.807	800.000	-0.044	0.141
-440.792	-81.994	0.064	0.021
-439.778	-11.607	0.086	-0.057
-438.763	800.000	-0.041	0.135
-437.749	-77.764	-0.208	0.072
-436.734	-14.714	-0.297	-0.192
-435.719	-30.630	-0.500	-0.286
-434.705	68.057	-0.132	-0.136
-433.690	-200.000	-0.020	0.297
-432.676	-18.545	-0.180	-0.113
-431.661	67.171	0.092	0.094
-430.646	381.206	0.082	-0.170
-429.632	-91.084	0.347	0.100
-428.617	-6.329	-0.035	-0.024
-427.603	-200.000	-0.118	-0.580
-426.588	52.720	-0.104	-0.100
-425.573	-119.182	-0.359	0.063
-424.559	43.274	0.294	0.271
-423.544	-106.970	0.343	0.077
-422.530	-200.000	0.045	-0.250
-421.515	282.098	-0.247	-0.446
-420.500	-200.000	0.018	0.133
-419.486	-3.956	-0.236	-0.165
-418.471	166.460	0.147	0.210
-417.457	55.234	-0.221	0.215
-416.442	53.940	0.133	-0.129
-415.428	-200.000	0.028	0.415
-414.413	203.334	0.096	-0.150
-413.398	-89.814	0.095	-0.028
-412.384	800.000	0.008	0.025
-411.369	-200.000	0.008	-0.130
-410.355	800.000	-0.072	-0.216
-409.340	-75.565	-0.046	0.017
-408.325	-200.000	-0.005	0.098
-407.311	404.777	0.022	0.046
-406.296	-113.493	0.293	0.058
-405.282	-23.946	0.212	-0.128
-404.267	285.842	0.129	-0.234
-403.252	195.849	-0.138	-0.211
-402.238	-182.371	-0.206	0.004
-401.223	24.273	0.114	0.095
-400.209	-200.000	-0.027	0.162
-399.194	-12.084	-0.252	-0.166
-398.179	60.487	0.128	0.127
-397.165	800.000	0.054	0.197
-396.150	-48.685	0.372	0.180
-395.136	800.000	-0.054	-0.216
-394.121	-200.000	-0.040	-0.184
-393.106	-62.292	-0.096	-0.040
-392.092	77.581	-0.100	-0.107
-391.077	540.062	-0.121	-0.290
-390.063	-94.873	0.090	-0.025
-389.048	134.171	0.066	-0.086
-388.033	-122.175	-0.256	0.042
-387.019	-92.296	0.439	0.125
-386.004	281.773	-0.126	-0.227
-384.990	-200.000	0.030	0.248
-383.975	800.000	0.081	-0.324
-382.960	33.243	-0.178	-0.156
-381.946	800.000	-0.152	0.431
-380.931	-200.000	-0.022	0.222
-379.917	-109.047	0.250	0.054
-378.902	-200.000	-0.024	0.377
-377.888	774.843	-0.147	-0.403
-376.873	-77.308	0.367	-0.128
-375.858	36.015	0.023	-0.021
-374.844	-57.582	-0.119	-0.052
-373.829	800.000	-0.066	-0.211
-372.815	-143.178	0.184	-0.018
-371.800	-57.772	0.084	0.037
-370.785	-200.000	-0.025	0.180
-369.771	-200.000	0.025	0.113
-368.756	249.771	-0.107	-0.182
-367.742	-200.000	0.007	-0.057
-366.727	89.818	0.196	0.220
-365.712	-82.898	-0.224	0.073
-364.698	57.499	0.187	-0.184
-363.683	1.504	-0.289	0.209
-362.669	-49.594	0.140	0.067
-361.654	127.494	0.102	-0.131
-360.639	-85.819	-0.401	0.125
-359.625	-48.611	0.102	-0.049
-358.610	-200.000	-0.036	0.383
-357.596	127.775	-0.182	-0.233
-356.581	-57.235	-0.089	-0.039
-355.566	357.381	0.064	0.128
-354.552	-177.901	-0.220	0.005
-353.537	376.265	-0.067	0.138
-352.523	800.000	-0.059	0.180
-351.508	109.199	-0.165	0.199
-350.493	-17.699	-0.180	-0.113
-349.479	-116.633	-0.025	0.005
-348.464	-161.009	0.159	-0.008
-347.450	-68.974	-0.132	0.051
-346.435	800.000	0.033	-0.131
-345.420	-8.238	-0.125	0.085
-344.406	30.863	0.314	-0.270
-343.391	-200.000	-0.025	0.178
-342.377	800.000	0.099	-0.388
-341.362	-96.218	0.164	0.044
-340.348	414.126	-0.115	0.246
-339.333	23.794	0.295	-0.244
-338.318	-200.000	-0.023	-0.314
-337.304	102.526	-0.077	0.091
-336.289	697.348	0.129	0.340
-335.275	-200.000	-0.026	-0.180
-334.260	-82.798	-0.170	-0.055
-333.245	-64.827	-0.305	-0.124
-332.231	419.273	-0.128	-0.275
-331.216	26.122	0.159	-0.133
-330.202	101.515	0.130	-0.152
-329.187	572.741	-0.118	-0.290
-328.172	115.611	-0.129	0.158
-327.158	-102.557	0.275	0.066
-326.143	-200.000	0.005	0.042
-325.129	-86.947	0.528	0.162
-324.114	-200.000	0.041	0.214
-323.099	-26.227	0.433	0.255
-322.085	11.807	0.199	-0.154
-321.070	-125.553	-0.131	-0.020
-320.056	-82.532	0.210	0.068
-319.041	-21.295	-0.259	0.159
-318.026	-148.190	0.257	-0.021
-317.012	-163.154	-0.190	0.009
-315.997	-200.000	-0.064	0.358
-314.983	349.973	-0.060	0.119
-313.968	-23.470	0.105	-0.063
-312.953	-172.490	0.248	-0.008
-311.939	50.941	-0.198	0.188
-310.924	34.004	-0.301	0.263
-309.910	-34.421	0.237	0.130
-308.895	-83.798	0.265	-0.085
-307.880	365.428	-0.112	0.227
-306.866	86.154	-0.280	0.310
-305.851	22.523	-0.203	0.167
-304.837	213.739	-0.129	0.204
-303.822	285.962	-0.082	0.148
-302.807	31.741	-0.384	-0.332
-301.793	72.620	0.154	0.161
-300.778	-109.761	-0.146	0.031
-299.764	-25.526	0.234	0.139
-298.749	-173.036	0.130	-0.004
-297.735	-72.793	-0.051	0.019
-296.720	340.025	-0.098	0.192
-295.705	-200.000	0.020	-0.297
-294.691	-200.000	-0.009	0.123
-293.676	-82.271	0.373	-0.122
-292.662	-105.904	0.545	-0.123
-291.647	-200.000	-0.004	-0.060
-290.632	-42.634	-0.103	-0.053
-289.618	800.000	0.140	-0.449
-288.603	24.091	-0.149	-0.124
-287.589	26.674	0.057	0.048
-286.574	59.027	0.320	0.316
-285.559	-52.749	-0.157	0.072
-284.545	800.000	0.057	0.248
-283.530	-200.000	0.017	-0.264
-282.516	-62.000	-0.191	-0.080
-281.501	434.964	-0.079	0.172
-280.486	-40.517	-0.071	-0.037
-279.472	201.891	-0.081	-0.126
-278.457	191.519	-0.085	-0.129
-277.443	-11.905	-0.102	-0.067
-276.428	275.912	-0.107	0.191
-275.413	-86.048	-0.160	-0.049
-274.399	765.129	-0.059	-0.162
-273.384	-70.482	0.180	-0.068
-272.370	638.079	0.074	-0.188
-271.355	800.000	-0.070	-0.275
-270.340	167.997	0.112	-0.160
-269.326	-200.000	0.049	-0.227
-268.311	-200.000	0.023	-0.125
-267.297	185.039	-0.227	0.338
-266.282	33.845	0.308	0.268
-265.267	-200.000	0.012	0.059
-264.253	-108.285	0.060	0.013
-263.238	-182.939	-0.237	0.004
-262.224	-82.103	0.235	0.077
-261.209	-50.847	-0.273	-0.129
-260.195	-200.000	0.027	-0.194
-259.180	-200.000	0.011	0.135
-258.165	800.000	0.108	-0.376
-257.151	60.343	0.232	-0.230
-256.136	289.594	0.147	0.268
-255.122	239.059	0.026	0.044
-254.107	-93.834	-0.217	-0.060
-253.092	12.241	-0.066	0.051
-252.078	-42.101	0.208	0.107
-251.063	-57.431	-0.199	0.087
-250.049	-200.000	0.076	-0.516
-249.034	35.200	-0.044	-0.039
-248.019	-57.467	0.339	0.149
-247.005	-117.260	-0.178	-0.032
-245.990	205.683	0.223	-0.347
-244.976	-200.000	-0.017	-0.101
-243.961	-128.873	0.250	-0.035
-242.946	165.404	0.165	-0.233
-241.932	-157.014	0.041	0.002
-240.917	85.770	0.139	-0.153
-239.903	800.000	0.011	-0.041
-238.888	800.000	-0.018	-0.056
-237.873	517.734	0.077	0.181
-236.859	39.664	-0.074	0.066
-235.844	415.010	-0.093	-0.198
-234.830	800.000	-0.179	-0.518
-233.815	-48.303	-0.085	0.041
-232.800	-116.811	0.119	-0.022
-231.786	-83.447	0.115	-0.037
-230.771	5.522	0.273	0.201
-229.757	-87.997	-0.343	-0.103
-228.742	392.816	-0.043	0.089
-227.727	-72.455	0.083	0.031
-226.713	-103.974	-0.096	-0.022
-225.698	-84.256	0.336	-0.106
-224.684	31.985	0.280	0.242
-223.669	800.000	0.038	-0.125
-222.655	-1.517	0.043	-0.030
-221.640	-200.000	-0.022	0.144
-220.625	-26.762	-0.160	0.093
-219.611	-25.856	-0.260	-0.153
-218.596	-89.854	-0.259	0.076
-217.582	320.326	0.127	-0.241
-216.567	-56.928	-0.223	0.098
-215.552	-200.000	-0.045	-0.245
-214.538	796.038	-0.111	-0.306
-213.523	17.320	0.287	-0.228
-212.509	312.184	-0.155	0.290
-211.494	800.000	-0.117	-0.391
-210.479	130.751	0.170	0.217
-209.465	-149.695	0.075	0.006
-208.450	20.071	-0.131	-0.106
-207.436	-200.000	-0.031	0.164
-206.421	190.007	0.149	0.223
-205.406	-152.609	-0.253	0.018
-204.392	98.716	0.214	-0.247
-203.377	112.258	0.199	0.241
-202.363	-109.945	0.073	0.015
-201.348	-114.799	-0.182	-0.035
-200.333	-78.179	0.400	-0.137
-199.319	-200.000	-0.002	0.023
-198.304	-188.163	-0.167	-0.002
-197.290	-200.000	0.010	0.048
-196.275	800.000	0.036	0.150
-195.260	333.890	0.005	-0.010
-194.246	-37.317	0.067	-0.036
-193.231	-200.000	0.043	-0.193
-192.217	-69.321	0.176	-0.067
-191.202	-200.000	0.043	0.259
-190.187	16.875	-0.137	-0.108
-189.173	-181.691	-0.148	-0.003
-188.158	-43.684	-0.164	0.082
-187.144	57.913	-0.424	0.414
-186.129	800.000	-0.033	-0.121
-185.114	17.344	-0.317	0.251
-184.100	-200.000	-0.013	0.061
-183.085	800.000	-0.036	0.156
-182.071	-63.882	0.149	0.061
-181.056	415.544	0.027	0.057
-180.042	87.203	-0.237	-0.261
-179.027	-32.816	0.140	0.077
-178.012	-63.664	-0.293	-0.120
-176.998	-36.525	-0.233	0.125
-175.983	-167.386	-0.143	0.006
-174.969	-200.000	-0.015	-0.177
-173.954	-63.724	0.308	0.126
-172.939	111.235	0.265	0.318
-171.925	-200.000	-0.038	-0.329
-170.910	724.920	0.035	-0.094
-169.896	-200.000	-0.022	0.119
-168.881	23.705	0.200	0.165
-167.866	4.899	0.201	0.147
-166.852	-102.125	0.301	0.072
-165.837	-200.000	-0.022	0.245
-164.823	16.622	0.345	0.272
-163.808	241.824	0.047	-0.078
-162.793	-100.401	-0.319	0.079
-161.779	-55.639	-0.349	0.156
-160.764	-80.757	-0.089	0.030
-159.750	624.813	-0.133	0.333
-158.735	-196.690	-0.205	-0.001
-157.720	559.511	-0.109	0.263
-156.706	109.058	0.037	0.045
-155.691	-150.464	0.120	0.009
-154.677	-200.000	0.018	-0.271
-153.662	249.937	0.056	0.095
-152.647	249.590	-0.153	0.259
-151.633	-103.772	0.208	0.048
-150.618	182.039	-0.189	-0.278
-149.604	-95.671	0.188	-0.050
-148.589	-68.200	-0.139	-0.054
-147.574	219.047	0.171	0.273
-146.560	-181.360	-0.266	-0.005
-145.545	-43.138	0.034	-0.017
-144.531	23.420	0.045	-0.037
-143.516	800.000	0.039	-0.124
-142.502	800.000	-0.093	0.267
-141.487	616.104	0.015	-0.037
-140.472	-87.156	-0.086	0.026
-139.458	-38.073	0.123	-0.065
-138.443	290.254	-0.100	-0.182
-137.429	-111.661	-0.095	-0.019
-136.414	85.919	0.072	-0.079
-135.399	25.372	-0.152	0.126
-134.385	84.462	0.027	0.030
-133.370	396.516	0.049	-0.101
-132.356	-200.000	0.001	-0.218
-131.341	389.205	0.274	-0.565
-130.326	-200.000	0.000	0.570
-129.312	117.252	0.245	-0.300
-128.297	-200.000	-0.001	0.070
-127.283	169.421	0.113	0.161
-126.268	170.562	-0.203	-0.290
-125.253	-200.000	-0.039	-0.277
-124.239	157.836	-0.145	-0.200
-123.224	800.000	-0.076	-0.216
-122.210	489.433	0.058	-0.131
-121.195	114.274	0.184	0.223
-120.180	422.589	-0.085	0.181
-119.166	265.471	-0.027	-0.047
-118.151	-148.288	-0.264	0.022
-117.137	20.362	-0.062	-0.050
-116.122	72.597	0.063	0.066
-115.107	137.232	0.076	0.099
-114.093	-200.000	-0.043	0.553
-113.078	13.176	-0.452	0.348
-112.064	-118.015	-0.126	-0.022
-111.049	-105.307	0.223	0.051
-110.034	141.799	-0.128	0.169
-109.020	32.689	-0.176	-0.151
-108.005	27.186	0.209	0.174
-106.991	800.000	0.078	-0.297
-105.976	-64.815	0.164	0.066
-104.962	770.310	-0.089	-0.242
-103.947	-200.000	0.019	-0.228
-102.932	-200.000	-0.030	0.217
-101.918	-34.717	-0.141	0.077
-100.903	-200.000	-0.021	0.362
-99.889	800.000	-0.128	0.450
-98.874	45.684	0.057	-0.053
-97.859	322.263	-0.113	0.214
-96.845	-173.876	-0.259	-0.008
-95.830	-83.436	-0.025	-0.008
-94.816	1.008	-0.098	-0.070
-93.801	800.000	-0.081	-0.278
-92.786	-116.312	0.348	-0.064
-91.772	62.523	0.165	0.164
-90.757	105.858	-0.356	0.419
-89.743	121.419	0.231	0.287
-88.728	-108.044	0.196	0.042
-87.713	18.790	0.211	-0.168
-86.699	800.000	-0.059	-0.202
-85.684	-87.313	-0.255	0.077
-84.670	-143.292	-0.315	-0.030
-83.655	307.904	-0.148	-0.275
-82.640	-20.883	0.163	-0.099
-81.626	-51.010	0.087	-0.041
-80.611	800.000	-0.066	0.202
-79.597	-36.044	0.307	-0.165
-78.582	-79.273	0.102	0.034
-77.567	-62.336	0.354	0.146
-76.553	-200.000	-0.036	-0.288
-75.538	-102.226	0.458	0.110
-74.524	16.729	0.143	-0.113
-73.509	136.270	-0.238	0.308
-72.494	-200.000	0.019	0.121
-71.480	409.567	-0.121	0.254
-70.465	-13.225	0.256	0.165
-69.451	256.158	-0.075	-0.129
-68.436	-184.016	0.101	-0.002
-67.422	100.159	-0.051	0.058
-66.407	169.655	0.186	0.264
-65.392	-200.000	0.011	-0.110
-64.378	581.325	-0.062	-0.151
-63.363	-200.000	0.009	-0.056
-62.349	-194.982	-0.130	0.001
-61.334	60.673	-0.872	-0.859
-60.319	-43.160	0.238	0.120
-59.305	-200.000	-0.195	-0.926
-58.290	657.155	0.396	1.012
-57.276	624.008	0.605	1.514
-56.261	-200.000	89.858	509.708
-55.246	430.506	1433.126	3082.384
-54.232	141.346	2641.389	3473.457
-53.217	108.557	2259.645	2680.958
-52.203	46.246	1773.782	1633.008
-51.188	39.405	1577.522	1403.716
-50.173	37.126	1547.779	1361.223
-49.159	54.064	1594.126	1522.933
-48.144	57.660	1613.469	1566.966
-47.130	40.145	1571.733	1403.593
-46.115	36.842	1556.122	1366.341
-45.100	36.720	1552.641	1362.375
-44.086	36.548	1551.249	1359.887
-43.071	36.588	1548.784	1357.951
-42.057	36.407	1547.543	1355.544
-41.042	36.493	1545.944	1354.689
-40.027	36.473	1544.630	1353.341
-39.013	36.454	1543.266	1351.964
-37.998	36.487	1541.328	1350.440
-36.984	36.452	1540.377	1349.310
-35.969	36.404	1538.996	1347.711
-34.954	36.526	1537.473	1347.175
-33.940	36.495	1536.415	1345.978
-32.925	36.509	1534.895	1344.691
-31.911	36.565	1533.221	1343.563
-30.896	36.619	1531.867	1342.698
-29.881	36.627	1530.877	1341.834
-28.867	36.645	1529.072	1340.321
-27.852	36.636	1527.437	1338.775
-26.838	36.614	1526.123	1337.414
-25.823	36.604	1524.462	1335.838
-24.809	36.612	1522.540	1334.156
-23.794	36.556	1521.546	1332.842
-22.779	36.549	1520.558	1331.881
-21.765	36.606	1518.905	1330.770
-20.750	36.627	1517.876	1329.964
-19.736	36.559	1516.838	1328.531
-18.721	36.544	1515.963	1327.610
-17.706	36.556	1514.301	1326.183
-16.692	36.576	1513.519	1325.581
-15.677	36.513	1512.350	1324.072
-14.663	36.439	1511.421	1322.703
-13.648	36.418	1510.869	1322.019
-12.633	36.457	1509.235	1320.803
-11.619	36.545	1507.943	1320.227
-10.604	36.491	1507.440	1319.362
-9.590	36.404	1506.494	1317.888
-8.575	36.614	1505.371	1318.284
-7.560	36.575	1504.509	1317.211
-6.546	36.557	1504.193	1316.758
-5.531	36.474	1502.781	1314.908
-4.517	36.592	1501.834	1314.827
-3.502	36.385	1501.209	1312.822
-2.487	36.498	1499.826	1312.330
-1.473	36.444	1498.487	1310.737
-0.458	36.465	1497.523	1309.986
0.556	35.282	1488.136	1301.514
1.571	32.730	1461.844	1261.357
2.586	29.091	1396.278	1181.378
3.600	26.469	1309.182	1091.790
4.615	24.003	1260.476	1036.729
5.629	20.317	1201.536	967.656
6.644	10.413	1110.407	842.906
7.659	1.990	1065.408	766.491
8.673	0.652	1059.226	755.291
9.688	0.430	1056.425	752.120
10.702	0.305	1054.761	750.245
11.717	0.215	1053.333	748.716
12.731	3.062	1055.990	764.715
13.746	12.238	1068.807	819.949
14.761	18.218	1075.732	855.168
15.775	17.792	1073.959	851.556
16.790	16.762	1071.636	844.505
17.804	15.648	1069.524	837.219
18.819	14.747	1067.842	831.351
19.834	14.389	1066.090	828.131
20.848	13.977	1065.184	825.307
21.863	13.775	1064.328	823.571
22.877	13.508	1063.288	821.367
23.892	13.338	1062.766	820.051
24.907	13.294	1061.929	819.115
25.921	13.133	1061.527	817.933
26.936	13.170	1060.947	817.598
27.950	13.235	1059.941	817.072
28.965	13.237	1059.763	816.872
29.980	13.285	1058.573	816.119
30.994	13.411	1057.176	815.593
32.009	13.502	1056.302	815.294
33.023	13.414	1056.157	814.678
34.038	13.573	1054.589	814.173
35.053	13.541	1053.669	813.236
36.067	13.516	1053.335	812.782
37.082	13.429	1052.192	811.402
38.096	13.422	1051.928	811.091
39.111	13.483	1050.892	810.519
40.126	13.389	1050.193	809.450
41.140	13.301	1049.070	808.082
42.155	13.372	1047.654	807.267
43.169	13.225	1047.360	806.251
44.184	13.208	1046.302	805.284
45.199	13.229	1044.806	804.164
46.213	13.295	1043.611	803.494
47.228	13.234	1042.813	802.513
48.242	13.264	1042.231	802.138
49.257	13.364	1040.524	801.238
50.271	13.340	1039.600	800.338
51.286	13.380	1038.799	799.844
52.301	13.351	1037.992	799.011
53.315	13.379	1037.165	798.440
54.330	13.364	1036.278	797.614
55.344	13.351	1035.174	796.633
56.359	13.285	1034.358	795.617
57.374	13.239	1033.544	794.701
58.388	13.206	1033.003	794.054
59.403	13.234	1032.131	793.446
60.417	13.295	1031.443	793.143
61.432	13.203	1030.814	792.145
62.447	13.144	1029.975	791.148
63.461	13.202	1028.857	790.497
64.476	13.139	1028.122	789.564
65.490	13.048	1027.394	788.497
66.505	13.134	1026.414	788.086
67.520	13.178	1026.010	787.918
68.534	13.315	1024.799	787.568
69.549	13.310	1024.381	787.153
70.563	13.248	1023.689	786.258
71.578	13.143	1022.741	784.960
72.593	13.211	1021.309	784.115
73.607	13.192	1020.600	783.414
74.622	13.174	1019.663	782.538
75.636	13.160	1018.789	781.732
76.651	13.125	1018.257	781.088
77.666	13.042	1017.501	780.049
78.680	13.141	1016.622	779.771
79.695	13.085	1016.379	779.253
80.709	13.161	1015.681	779.008
81.724	13.176	1014.612	778.188
82.739	13.161	1014.078	777.642
83.753	13.258	1013.561	777.629
84.768	13.254	1012.497	776.726
85.782	13.338	1011.518	776.301
86.797	13.371	1010.840	775.868
87.812	13.488	1009.653	775.434
88.826	13.341	1009.049	774.217
89.841	13.287	1008.485	773.461
90.855	13.205	1007.503	772.257
91.870	13.292	1006.899	772.130
92.884	13.324	1005.548	771.174
93.899	13.481	1004.928	771.365
94.914	13.448	1004.498	770.810
95.928	13.350	1003.885	769.818
96.943	13.513	1002.954	769.795
97.957	13.487	1002.148	768.988
98.972	13.288	1001.619	767.589
99.987	13.405	1000.641	767.312
101.001	13.432	1000.060	766.924
102.016	13.521	998.527	766.092
103.030	13.498	998.070	765.570
104.045	13.420	997.275	764.529
105.060	13.497	995.980	763.826
106.074	13.406	995.560	763.017
107.089	13.342	994.489	761.835
108.103	13.280	993.473	760.703
109.118	13.240	992.802	759.938
110.133	13.210	991.936	759.069
111.147	13.285	990.990	758.621
112.162	13.227	989.857	757.420
113.176	13.224	989.151	756.799
114.191	13.218	988.297	756.054
115.206	13.291	987.760	755.911
116.220	13.364	986.615	755.298
117.235	13.294	985.824	754.307
118.249	13.304	984.975	753.635
119.264	13.313	984.132	752.968
120.279	13.281	983.235	752.068
121.293	13.257	982.433	751.279
122.308	13.132	982.003	750.314
123.322	13.237	981.092	750.028
124.337	13.203	979.707	748.749
125.352	13.245	978.796	748.179
126.366	13.222	978.020	747.415
127.381	13.132	977.008	746.170
128.395	13.184	975.669	745.313
129.410	13.235	975.024	744.985
130.424	13.298	973.895	744.342
131.439	13.221	973.116	743.335
132.454	13.262	972.546	743.019
133.468	13.366	971.370	742.518
134.483	13.368	970.943	742.136
135.497	13.447	970.286	741.921
136.512	13.358	969.550	740.897
137.527	13.328	968.830	740.145
138.541	13.341	967.655	739.240
139.556	13.334	966.940	738.598
140.570	13.362	966.387	738.236
141.585	13.296	965.964	737.550
142.600	13.476	965.161	737.677
143.614	13.412	964.162	736.561
144.629	13.469	963.404	736.170
145.643	13.441	962.837	735.548
146.658	13.430	961.749	734.603
147.673	13.348	961.011	733.609
148.687	13.415	959.818	732.932
149.702	13.306	959.076	731.817
150.716	13.266	958.188	730.901
151.731	13.339	957.293	730.474
152.746	13.328	956.622	729.848
153.760	13.379	956.033	729.558
154.775	13.370	955.200	728.821
155.789	13.391	954.258	728.128
156.804	13.434	953.857	727.946
157.819	13.447	952.777	727.117
158.833	13.525	951.958	726.770
159.848	13.579	951.522	726.608
160.862	13.556	950.962	726.018
161.877	13.534	950.197	725.269
162.892	13.516	949.208	724.372
163.906	13.463	948.368	723.437
164.921	13.400	948.102	722.895
165.935	13.552	946.831	722.527
166.950	13.363	945.685	720.763
167.964	13.433	944.965	720.456
168.979	13.600	943.616	720.088
169.994	13.572	942.940	719.387
171.008	13.626	941.652	718.574
172.023	13.620	941.191	718.136
173.037	13.621	940.169	717.294
174.052	13.728	939.095	716.875
175.067	13.687	938.942	716.519
176.081	13.494	938.270	715.106
177.096	13.601	937.204	714.696
178.110	13.519	936.552	713.779
179.125	13.555	935.972	713.430
180.140	13.659	934.884	712.987
181.154	13.570	934.135	711.968
182.169	13.655	933.789	712.004
183.183	13.552	933.420	711.221
184.198	13.667	932.343	710.827
185.213	13.642	931.791	710.239
186.227	13.809	930.703	710.060
187.242	13.757	930.240	709.424
188.256	13.775	929.971	709.232
189.271	13.796	928.878	708.427
190.286	13.833	928.454	708.196
191.300	13.728	927.245	706.763
192.315	13.786	926.473	706.360
193.329	13.606	925.888	705.086
194.344	13.682	925.352	704.940
195.359	13.759	924.932	704.883
196.373	13.619	924.562	703.943
197.388	13.788	924.082	704.235
198.402	13.895	923.035	703.830
199.417	13.843	923.083	703.581
200.432	14.026	922.340	703.728
201.446	14.041	921.951	703.434
202.461	13.930	921.601	702.635
203.475	14.023	921.036	702.533
204.490	14.067	920.160	701.989
205.504	14.123	919.032	701.304
206.519	14.120	918.155	700.559
207.534	13.958	917.682	699.452
208.548	14.052	917.293	699.493
209.563	13.995	916.265	698.405
210.577	14.032	915.528	697.937
211.592	13.972	914.957	697.188
212.607	14.083	914.599	697.321
213.621	14.180	913.933	697.155
214.636	14.253	912.937	696.641
215.650	14.182	912.488	695.940
216.665	14.208	911.727	695.405
217.680	14.206	911.351	695.048
218.694	14.334	910.378	694.781
219.709	14.292	910.267	694.457
220.723	14.216	909.515	693.507
221.738	14.404	908.757	693.648
222.753	14.232	908.062	692.344
223.767	14.373	907.026	692.077
224.782	14.304	906.577	691.386
225.796	14.362	905.667	690.874
226.811	14.344	905.229	690.402
227.826	14.368	904.273	689.710
228.840	14.371	903.855	689.345
229.855	14.442	902.981	688.912
230.869	14.307	902.909	688.236
231.884	14.360	901.955	687.666
232.899	14.286	901.310	686.808
233.913	14.296	900.662	686.297
234.928	14.351	899.669	685.704
235.942	14.250	899.120	684.809
236.957	14.372	898.431	684.725
237.972	14.377	897.545	684.010
238.986	14.347	897.343	683.674
240.001	14.266	896.683	682.778
241.015	14.452	895.963	682.930
242.030	14.495	894.899	682.234
243.045	14.456	894.716	681.876
244.059	14.560	893.906	681.625
245.074	14.429	893.520	680.734
246.088	14.480	892.995	680.484
247.103	14.493	892.221	679.885
248.117	14.632	891.136	679.563
249.132	14.596	890.931	679.203
250.147	14.619	890.320	678.769
251.161	14.680	889.949	678.674
252.176	14.903	888.806	678.647
253.190	14.813	888.122	677.702
254.205	14.911	887.506	677.567
255.220	14.875	886.673	676.727
256.234	14.778	886.377	676.045
257.249	14.826	885.683	675.654
258.263	14.874	885.156	675.382
259.278	14.740	884.923	674.606
260.293	14.843	884.179	674.396
261.307	14.922	883.416	674.071
262.322	14.947	882.722	673.584
263.336	15.036	882.317	673.573
264.351	15.071	881.710	673.192
265.366	15.069	881.185	672.724
266.380	15.027	880.449	671.932
267.395	15.005	880.071	671.494
268.409	15.121	879.094	671.156
269.424	15.071	878.342	670.320
270.439	15.123	877.748	670.018
271.453	15.030	876.933	668.965
272.468	14.879	876.379	667.878
273.482	15.101	875.558	668.082
274.497	15.150	875.111	667.874
275.512	15.123	873.913	666.794
276.526	15.107	873.632	666.457
277.541	15.186	872.471	665.826
278.555	15.033	872.163	664.923
279.570	15.104	871.839	664.902
280.585	15.162	871.348	664.699
281.599	15.283	870.658	664.591
282.614	15.188	869.999	663.655
283.628	15.264	869.209	663.294
284.643	15.309	868.932	663.202
285.657	15.316	867.893	662.378
286.672	15.264	867.684	661.953
287.687	15.279	867.340	661.694
288.701	15.256	866.824	661.149
289.716	15.315	866.146	660.806
290.730	15.303	865.820	660.451
291.745	15.280	864.967	659.652
292.760	15.256	864.204	658.918
293.774	15.419	863.737	659.143
294.789	15.305	863.340	658.334
295.803	15.458	862.865	658.515
296.818	15.381	862.165	657.620
297.833	15.351	861.269	656.763
298.847	15.426	860.785	656.626
299.862	15.465	859.961	656.093
300.876	15.445	859.137	655.329
301.891	15.501	858.559	655.048
302.906	15.408	858.475	654.563
303.920	15.577	857.032	654.063
304.935	15.529	856.567	653.462
305.949	15.693	856.038	653.640
306.964	15.715	855.427	653.202
307.979	15.660	854.954	652.568
308.993	15.685	854.391	652.176
310.008	15.682	854.010	651.818
311.022	15.649	853.146	650.973
312.037	15.759	852.770	651.053
313.052	15.797	852.351	650.822
314.066	15.643	851.300	649.369
315.081	15.655	850.810	648.984
316.095	15.703	850.203	648.649
317.110	15.730	849.712	648.322
318.125	15.662	849.291	647.680
319.139	15.630	848.666	647.024
320.154	15.762	848.172	647.098
321.168	15.732	847.341	646.292
322.183	15.720	847.078	645.987
323.197	15.766	846.411	645.599
324.212	15.940	846.077	645.951
325.227	15.882	845.493	645.229
326.241	15.853	844.869	644.584
327.256	15.661	844.602	643.588
328.270	15.825	844.065	643.748
329.285	15.876	842.760	642.891
330.300	15.867	842.513	642.612
331.314	15.857	842.020	642.140
332.329	15.872	841.616	641.834
333.343	15.796	840.741	640.818
334.358	15.888	840.437	640.882
335.373	15.960	839.561	640.429
336.387	16.066	839.053	640.388
337.402	15.968	838.919	639.857
338.416	15.921	838.507	639.309
339.431	16.081	837.522	639.106
340.446	15.929	836.926	638.019
341.460	16.070	836.114	637.877
342.475	16.113	835.743	637.702
343.489	16.138	835.257	637.367
344.504	16.245	834.479	637.122
345.519	16.252	833.963	636.700
346.533	16.332	833.464	636.561
347.548	16.311	833.375	636.360
348.562	16.261	832.488	635.439
349.577	16.116	831.821	634.325
350.592	16.217	831.410	634.335
351.606	16.203	830.965	633.889
352.621	16.176	830.583	633.441
353.635	16.128	830.160	632.881
354.650	16.256	829.416	632.737
355.665	16.094	829.350	632.024
356.679	16.223	828.642	631.912
357.694	16.335	828.116	631.875
358.708	16.332	827.745	631.523
359.723	16.305	827.282	631.012
360.738	16.274	826.486	630.233
361.752	16.309	826.410	630.252
362.767	16.484	825.969	630.512
363.781	16.484	824.956	629.682
364.796	16.418	824.931	629.362
365.810	16.591	824.259	629.437
366.825	16.438	824.112	628.700
367.840	16.459	823.879	628.547
368.854	16.496	823.242	628.140
369.869	16.543	822.634	627.796
370.883	16.587	822.124	627.516
371.898	16.675	821.117	627.018
372.913	16.573	821.008	626.499
373.927	16.674	820.404	626.357
374.942	16.708	819.725	625.909
375.956	16.668	819.094	625.225
376.971	16.718	818.530	624.922
377.986	16.707	817.708	624.200
379.000	16.851	817.560	624.563
380.015	16.839	817.195	624.184
381.029	16.925	816.147	623.647
382.044	16.831	815.891	623.049
383.059	16.835	815.250	622.517
384.073	16.712	815.181	621.959
385.088	16.755	814.388	621.458
386.102	16.960	813.402	621.400
387.117	16.824	812.897	620.462
388.132	16.786	812.378	619.873
389.146	16.844	812.351	620.009
390.161	16.901	812.027	619.912
391.175	16.862	811.708	619.475
392.190	16.763	811.547	618.935
393.205	16.991	810.779	619.125
394.219	16.925	810.286	618.453
395.234	16.897	809.559	617.743
396.248	16.925	809.415	617.681
397.263	16.827	808.688	616.715
398.278	16.828	808.452	616.482
399.292	16.868	807.997	616.226
400.307	16.933	807.519	616.044
401.321	16.798	807.175	615.238
402.336	16.837	806.842	615.070
403.350	16.938	806.132	614.841
404.365	17.045	805.507	614.698
405.380	17.028	805.232	614.370
406.394	17.142	804.728	614.346
407.409	17.321	803.877	614.288
408.423	17.106	803.875	613.454
409.438	17.337	803.126	613.662
410.453	17.114	802.872	612.610
411.467	17.107	802.598	612.322
412.482	17.301	801.667	612.257
413.496	17.297	801.266	611.881
414.511	17.401	801.112	612.083
415.526	17.277	801.196	611.645
416.540	17.280	800.693	611.220
417.555	17.351	799.948	610.853
418.569	17.445	799.391	610.711
419.584	17.298	799.230	610.006
420.599	17.445	798.393	609.839
421.613	100.126	1278.616	1425.493
422.628	85.781	1348.589	1425.583
