DTS Sentinel unit serial number:	SN413079Multiplexer serial number:	ORYXHardware model number:	OX4-SRSoftware version number:	ORYX F/W v4.00 Oryx Data Collector v3.7.2.0data status	okinstallation	princeton_trtdifferential loss correction	single-endedforward channel	channel 3reverse channel	N/Adate	2019/09/19time	00:52:35forward acquisition time	60.00reverse acquisition time	0.00gamma	496.2192k internal	0.2347k external	0.2347temperature offset calibration	0.9990default loss term (dB/km)	0.3790temperature slope calibration	1.0000multiplexer offset coefficient	1.0000multiplexer slope coefficient	1.0000fibre end	0.00T internal ref (°C)	22.06T ext. ref 1 (°C)	0.72T ext. ref 2 (°C)	15.36length (m)	temperature (°C)	Stokes	anti-Stokes-747.200	-200.000	0.001	-0.127
-746.185	297.903	-0.219	0.403
-745.171	654.790	0.087	0.224
-744.156	79.878	-0.102	0.110
-743.142	85.394	0.096	0.106
-742.127	56.433	-0.178	-0.173
-741.112	-154.956	-0.074	0.005
-740.098	800.000	-0.047	-0.148
-739.083	89.592	-0.120	0.134
-738.069	800.000	0.079	0.232
-737.054	402.343	0.157	-0.330
-736.039	-32.507	-0.157	-0.087
-735.025	389.797	0.050	0.103
-734.010	-86.928	-0.332	-0.101
-732.996	-101.104	-0.504	-0.123
-731.981	-200.000	-0.057	0.341
-730.966	-13.004	-0.402	-0.261
-729.952	131.144	0.166	-0.213
-728.937	1.191	-0.104	-0.075
-727.923	52.569	-0.125	-0.120
-726.908	764.844	0.140	-0.381
-725.894	-200.000	-0.002	0.046
-724.879	334.278	-0.223	-0.431
-723.864	-129.269	-0.319	0.044
-722.850	800.000	-0.074	-0.205
-721.835	76.272	0.121	0.128
-720.821	-200.000	-0.022	-0.232
-719.806	-47.896	0.220	0.106
-718.791	-182.382	0.114	-0.002
-717.777	-74.243	-0.312	0.113
-716.762	-83.363	-0.521	-0.167
-715.748	176.424	-0.280	-0.407
-714.733	-200.000	-0.025	0.164
-713.718	18.905	0.235	-0.188
-712.704	-200.000	0.009	-0.364
-711.689	491.130	0.172	0.393
-710.675	133.038	0.101	0.130
-709.660	55.757	0.060	0.058
-708.645	256.685	0.077	-0.132
-707.631	529.490	-0.024	-0.056
-706.616	-192.585	0.420	-0.004
-705.602	120.962	0.171	-0.213
-704.587	56.071	-0.080	0.077
-703.572	-136.748	-0.265	0.031
-702.558	-163.546	0.093	0.004
-701.543	54.424	-0.157	0.151
-700.529	-68.393	-0.163	-0.063
-699.514	-137.155	0.166	-0.019
-698.499	800.000	0.040	-0.137
-697.485	131.213	-0.128	0.164
-696.470	-82.524	0.251	0.081
-695.456	-84.749	-0.051	0.016
-694.441	-95.743	0.415	0.111
-693.426	-130.803	-0.305	-0.041
-692.412	-31.707	0.047	0.027
-691.397	800.000	-0.032	0.105
-690.383	146.334	0.144	0.193
-689.368	206.482	0.122	0.190
-688.354	-200.000	0.014	-0.139
-687.339	-200.000	0.040	-0.187
-686.324	-199.269	0.174	-0.001
-685.310	-200.000	0.044	0.219
-684.295	-105.035	-0.215	-0.049
-683.281	11.940	-0.169	-0.130
-682.266	-21.952	-0.232	0.141
-681.251	-146.855	-0.111	-0.010
-680.237	169.238	0.249	0.355
-679.222	12.383	0.174	0.134
-678.208	-200.000	-0.037	-0.192
-677.193	389.841	-0.113	0.234
-676.178	-8.302	-0.207	-0.139
-675.164	77.882	-0.149	-0.159
-674.149	39.801	0.165	-0.148
-673.135	280.998	-0.190	-0.339
-672.120	341.920	0.104	-0.203
-671.105	800.000	-0.090	0.358
-670.091	48.789	0.140	-0.131
-669.076	-200.000	-0.068	-0.351
-668.062	800.000	0.018	0.053
-667.047	-134.182	0.150	-0.018
-666.032	152.046	-0.208	0.283
-665.018	-200.000	-0.026	0.183
-664.003	122.035	0.194	-0.242
-662.989	275.735	0.171	-0.301
-661.974	365.680	0.114	0.228
-660.959	-200.000	-0.027	0.228
-659.945	378.402	-0.049	0.100
-658.930	-200.000	0.032	0.175
-657.916	70.843	0.196	-0.202
-656.901	239.066	0.282	-0.466
-655.886	800.000	-0.151	0.471
-654.872	-6.934	-0.082	0.056
-653.857	-18.281	0.295	-0.183
-652.843	-200.000	-0.042	0.199
-651.828	800.000	-0.066	0.189
-650.814	-19.499	0.223	0.138
-649.799	-200.000	-0.007	0.057
-648.784	175.766	-0.181	-0.261
-647.770	143.389	0.188	-0.250
-646.755	11.780	-0.322	-0.247
-645.741	800.000	0.092	0.270
-644.726	2.842	-0.204	-0.148
-643.711	-88.147	-0.045	-0.014
-642.697	-148.222	-0.095	0.008
-641.682	-151.621	0.134	-0.010
-640.668	80.491	0.195	0.209
-639.653	628.933	0.070	0.176
-638.638	488.902	0.046	-0.105
-637.624	278.677	-0.082	-0.146
-636.609	-108.468	0.159	-0.034
-635.595	-200.000	0.020	-0.254
-634.580	16.741	-0.024	0.019
-633.565	800.000	-0.023	-0.068
-632.551	60.531	-0.247	-0.243
-631.536	-200.000	-0.040	-0.441
-630.522	-160.740	-0.315	-0.017
-629.507	-190.504	-0.080	0.001
-628.492	800.000	-0.058	-0.165
-627.478	-112.308	0.202	0.040
-626.463	-77.865	-0.047	0.016
-625.449	44.404	0.129	-0.118
-624.434	-87.763	0.430	-0.129
-623.419	-5.384	-0.234	-0.160
-622.405	-169.458	0.338	0.012
-621.390	800.000	0.025	-0.088
-620.376	329.348	0.138	-0.263
-619.361	-29.225	-0.173	-0.098
-618.346	-130.480	0.080	0.011
-617.332	-200.000	-0.020	-0.311
-616.317	-80.103	0.219	-0.073
-615.303	216.139	0.065	0.102
-614.288	141.196	-0.082	0.107
-613.273	134.650	-0.206	-0.266
-612.259	79.629	0.301	-0.322
-611.244	-200.000	-0.013	-0.294
-610.230	-66.357	0.140	-0.055
-609.215	41.560	-0.131	0.118
-608.201	406.420	-0.075	0.157
-607.186	151.587	-0.085	0.115
-606.171	-167.356	0.245	-0.010
-605.157	-29.289	0.327	-0.186
-604.142	138.318	-0.161	0.210
-603.128	-200.000	0.001	0.432
-602.113	428.075	0.073	0.156
-601.098	-200.000	-0.013	-0.382
-600.084	-200.000	-0.015	-0.145
-599.069	292.043	0.051	0.092
-598.055	-200.000	0.011	0.113
-597.040	-62.043	-0.128	-0.053
-596.025	64.845	-0.148	-0.149
-595.011	719.899	0.034	0.089
-593.996	-172.016	0.069	0.002
-592.982	-68.170	-0.181	0.070
-591.967	-200.000	0.031	-0.362
-590.952	-140.786	0.157	0.016
-589.938	86.375	0.075	-0.082
-588.923	-31.220	-0.105	0.059
-587.909	-200.000	0.060	0.282
-586.894	-11.499	0.236	0.154
-585.879	800.000	0.067	0.221
-584.865	509.259	0.047	0.108
-583.850	-50.991	-0.205	0.096
-582.836	61.105	0.272	-0.268
-581.821	3.646	-0.446	0.324
-580.806	-200.000	-0.015	-0.066
-579.792	83.339	-0.167	-0.181
-578.777	41.528	-0.134	-0.121
-577.763	-118.014	-0.058	0.010
-576.748	800.000	0.079	-0.290
-575.733	57.258	0.159	0.154
-574.719	385.032	0.102	-0.208
-573.704	564.453	0.072	-0.174
-572.690	-83.234	0.355	0.113
-571.675	-7.089	0.040	0.027
-570.661	-14.057	-0.376	0.241
-569.646	-21.542	0.170	-0.103
-568.631	-24.704	-0.152	0.090
-567.617	52.473	-0.277	-0.263
-566.602	-39.214	-0.459	-0.239
-565.588	-170.930	0.206	-0.007
-564.573	50.026	0.064	-0.060
-563.558	-83.794	0.210	-0.066
-562.544	335.609	-0.089	0.172
-561.529	-200.000	0.017	-0.181
-560.515	-21.638	0.011	-0.007
-559.500	100.037	-0.112	-0.128
-558.485	-60.025	0.268	-0.114
-557.471	-160.275	0.036	0.002
-556.456	-151.540	0.317	-0.023
-555.442	-54.214	0.244	0.110
-554.427	505.347	-0.066	-0.151
-553.412	-110.539	0.472	0.097
-552.398	10.536	0.182	-0.137
-551.383	188.994	0.183	-0.272
-550.369	-200.000	0.017	-0.228
-549.354	-136.959	0.109	0.012
-548.339	-200.000	-0.002	0.252
-547.325	151.014	0.106	0.143
-546.310	53.653	-0.234	0.223
-545.296	-200.000	0.028	-0.284
-544.281	93.845	0.095	-0.107
-543.266	-72.214	-0.132	0.048
-542.252	87.592	0.174	-0.191
-541.237	-200.000	-0.018	0.221
-540.223	197.526	-0.216	0.327
-539.208	150.375	-0.179	0.240
-538.193	-193.719	-0.444	-0.004
-537.179	-200.000	-0.002	-0.186
-536.164	-200.000	0.047	-0.277
-535.150	-126.400	0.164	0.024
-534.135	800.000	0.080	-0.232
-533.121	-156.501	-0.442	0.027
-532.106	123.025	0.117	-0.145
-531.091	288.392	0.057	-0.102
-530.077	8.079	-0.438	-0.326
-529.062	384.924	-0.075	0.154
-528.048	-108.110	0.103	0.022
-527.033	104.912	0.213	0.249
-526.018	388.572	-0.082	0.169
-525.004	800.000	0.085	-0.263
-523.989	-200.000	0.014	-0.279
-522.975	-200.000	-0.060	-0.282
-521.960	800.000	0.051	0.178
-520.945	543.215	0.094	0.222
-519.931	-200.000	0.055	0.348
-518.916	-200.000	0.182	0.001
-517.902	44.148	-0.212	0.193
-516.887	800.000	0.066	0.218
-515.872	40.554	-0.034	0.031
-514.858	-200.000	0.060	0.333
-513.843	393.916	0.071	0.146
-512.829	421.688	0.138	-0.292
-511.814	34.278	-0.136	-0.117
-510.799	27.063	-0.105	0.087
-509.785	580.404	0.016	0.038
-508.770	289.187	0.210	-0.376
-507.756	-174.871	-0.143	0.004
-506.741	298.950	-0.139	0.253
-505.726	-46.463	0.063	0.031
-504.712	146.581	0.266	0.353
-503.697	776.596	0.009	0.025
-502.683	-53.447	0.104	0.047
-501.668	-39.221	-0.298	-0.155
-500.653	365.577	0.148	0.296
-499.639	413.517	-0.071	0.149
-498.624	133.126	-0.135	-0.173
-497.610	159.836	-0.061	0.084
-496.595	167.290	0.133	0.187
-495.581	-67.862	0.049	0.019
-494.566	77.160	-0.045	0.048
-493.551	-111.515	0.103	-0.021
-492.537	23.628	0.272	0.222
-491.522	-200.000	-0.013	-0.311
-490.508	-105.679	-0.152	-0.034
-489.493	460.422	0.166	-0.366
-488.478	-94.635	0.241	-0.065
-487.464	17.360	-0.175	-0.138
-486.449	71.631	0.280	-0.288
-485.435	-65.815	-0.266	0.105
-484.420	112.481	0.126	0.151
-483.405	-94.155	-0.101	-0.027
-482.391	107.235	-0.093	-0.109
-481.376	-200.000	-0.022	-0.401
-480.362	140.668	-0.062	0.081
-479.347	-137.527	0.139	0.016
-478.332	122.993	-0.113	-0.139
-477.318	-57.673	-0.107	0.046
-476.303	-4.986	-0.076	-0.052
-475.289	800.000	0.141	0.403
-474.274	383.566	-0.071	-0.145
-473.259	-17.859	-0.176	-0.109
-472.245	-119.634	0.349	0.060
-471.230	-187.079	-0.183	0.002
-470.216	97.349	-0.154	0.175
-469.201	185.271	0.015	0.023
-468.186	65.151	0.232	-0.232
-467.172	757.124	0.156	-0.418
-466.157	502.104	-0.109	-0.248
-465.143	26.481	-0.217	0.180
-464.128	-121.966	0.163	0.027
-463.113	800.000	-0.096	0.297
-462.099	-200.000	0.053	0.408
-461.084	93.303	0.115	0.128
-460.070	-67.784	-0.386	0.149
-459.055	773.056	-0.025	0.068
-458.040	-38.005	0.112	0.059
-457.026	130.379	0.070	-0.089
-456.011	-200.000	-0.047	0.245
-454.997	297.281	-0.192	0.349
-453.982	211.490	0.129	0.201
-452.968	-133.802	-0.077	0.009
-451.953	-94.310	0.162	0.044
-450.938	-89.984	0.271	0.078
-449.924	-50.715	0.170	-0.079
-448.909	228.634	-0.117	0.188
-447.895	-200.000	-0.023	0.128
-446.880	-156.676	-0.133	0.008
-445.865	110.788	-0.201	0.239
-444.851	800.000	0.067	0.255
-443.836	91.289	0.077	0.086
-442.822	-132.950	0.425	-0.053
-441.807	243.470	-0.182	-0.302
-440.792	102.917	-0.313	0.362
-439.778	-72.796	0.235	-0.086
-438.763	13.701	0.216	0.166
-437.749	800.000	0.091	0.296
-436.734	-119.231	0.166	0.029
-435.719	-200.000	-0.041	-0.245
-434.705	-71.568	-0.399	0.147
-433.690	-125.087	-0.183	0.028
-432.676	-150.937	0.211	-0.016
-431.661	-151.142	-0.064	-0.005
-430.646	52.617	0.286	0.270
-429.632	-73.806	-0.216	0.077
-428.617	-121.506	0.185	0.030
-427.603	319.682	-0.083	0.156
-426.588	4.786	0.136	-0.098
-425.573	546.488	-0.122	-0.287
-424.559	-40.649	-0.337	-0.173
-423.544	-200.000	0.002	0.316
-422.530	-114.497	0.044	0.008
-421.515	-142.746	-0.114	0.011
-420.500	393.764	-0.115	0.236
-419.486	800.000	0.018	0.051
-418.471	-94.605	-0.227	-0.061
-417.457	-200.000	-0.052	-0.356
-416.442	-200.000	-0.014	0.194
-415.428	623.863	0.118	0.294
-414.413	106.538	-0.154	-0.180
-413.398	146.747	-0.157	-0.208
-412.384	-52.065	0.174	-0.080
-411.369	-200.000	-0.020	0.267
-410.355	-48.538	0.146	-0.069
-409.340	-200.000	0.004	0.206
-408.325	-9.269	-0.245	-0.161
-407.311	103.117	0.015	-0.018
-406.296	-31.849	-0.074	-0.041
-405.282	-200.000	0.014	-0.210
-404.267	-107.540	-0.053	0.011
-403.252	228.264	-0.209	-0.336
-402.238	800.000	-0.121	-0.409
-401.223	309.995	0.193	-0.355
-400.209	-200.000	0.010	0.044
-399.194	800.000	0.051	0.196
-398.179	98.980	0.147	-0.168
-397.165	176.436	0.125	-0.179
-396.150	-200.000	-0.018	0.114
-395.136	-22.982	-0.098	-0.058
-394.121	-6.252	-0.048	0.032
-393.106	-200.000	-0.029	-0.322
-392.092	-122.074	0.159	-0.026
-391.077	800.000	-0.037	0.157
-390.063	289.765	0.171	-0.306
-389.048	-200.000	-0.017	-0.144
-388.033	67.160	0.024	-0.024
-387.019	549.792	-0.070	-0.165
-386.004	-74.718	-0.257	0.091
-384.990	109.948	0.181	-0.214
-383.975	-132.319	-0.170	0.022
-382.960	147.526	0.138	0.183
-381.946	800.000	0.104	0.360
-380.931	135.513	0.104	-0.133
-379.917	-200.000	-0.043	-0.299
-378.902	142.735	0.115	-0.151
-377.888	7.342	-0.132	0.097
-376.873	308.611	-0.017	-0.032
-375.858	133.044	-0.158	-0.201
-374.844	-8.621	0.173	0.115
-373.829	800.000	-0.031	0.122
-372.815	204.604	0.106	0.162
-371.800	-5.665	0.182	0.123
-370.785	165.737	-0.083	0.115
-369.771	-34.676	-0.264	0.142
-368.756	-21.261	-0.041	0.024
-367.742	-140.882	0.330	-0.033
-366.727	489.305	0.076	-0.172
-365.712	800.000	0.054	0.151
-364.698	-200.000	-0.021	0.298
-363.683	-22.990	0.215	-0.128
-362.669	-91.911	-0.300	-0.084
-361.654	-200.000	0.017	-0.364
-360.639	-19.489	-0.111	-0.067
-359.625	-89.451	0.217	-0.063
-358.610	-112.741	0.132	0.026
-357.596	-105.750	0.322	0.072
-356.581	-175.123	0.108	0.003
-355.566	88.995	-0.056	0.061
-354.552	-57.414	-0.224	-0.097
-353.537	-46.563	-0.095	0.046
-352.523	-200.000	-0.056	0.293
-351.508	-96.979	-0.409	0.106
-350.493	800.000	-0.099	0.371
-349.479	-147.123	0.296	0.025
-348.464	-10.169	-0.072	0.047
-347.450	358.628	0.066	0.129
-346.435	-98.802	0.123	-0.031
-345.420	7.734	0.165	0.122
-344.406	-43.213	0.216	0.108
-343.391	783.223	-0.072	-0.194
-342.377	800.000	-0.027	-0.111
-341.362	-128.913	-0.087	-0.012
-340.348	25.551	-0.345	-0.282
-339.333	-137.487	0.322	-0.036
-338.318	-57.666	0.161	0.070
-337.304	-53.274	0.073	-0.033
-336.289	-55.966	-0.113	0.050
-335.275	-165.756	0.154	-0.007
-334.260	-172.446	-0.423	-0.013
-333.245	332.181	0.138	0.261
-332.231	266.386	0.058	0.100
-331.216	135.079	-0.170	0.217
-330.202	-48.402	0.070	-0.033
-329.187	-97.865	-0.233	0.059
-328.172	-200.000	0.001	0.194
-327.158	-200.000	-0.023	0.229
-326.143	-17.972	-0.073	-0.045
-325.129	590.017	-0.146	0.354
-324.114	800.000	0.133	0.371
-323.099	523.553	-0.075	0.173
-322.085	-164.882	0.138	-0.006
-321.070	352.740	0.040	-0.078
-320.056	-157.621	-0.339	-0.020
-319.041	364.485	0.027	0.054
-318.026	-200.000	-0.083	-0.390
-317.012	-200.000	0.007	0.289
-315.997	-65.710	-0.233	-0.092
-314.983	-108.757	-0.346	0.073
-313.968	-156.839	0.208	0.013
-312.953	335.812	-0.178	-0.339
-311.939	-200.000	0.020	-0.376
-310.924	178.344	0.084	0.120
-309.910	-116.030	-0.305	-0.056
-308.895	-102.176	-0.122	-0.029
-307.880	800.000	-0.095	0.337
-306.866	800.000	0.127	-0.369
-305.851	-16.384	-0.408	-0.254
-304.837	-8.326	0.153	0.101
-303.822	-200.000	-0.018	0.230
-302.807	-89.660	0.278	0.080
-301.793	800.000	0.147	0.417
-300.778	139.617	0.069	0.089
-299.764	-129.337	0.157	0.021
-298.749	800.000	-0.046	-0.157
-297.735	-76.980	-0.172	0.059
-296.720	-49.531	0.180	0.084
-295.705	340.402	-0.135	-0.259
-294.691	-103.864	0.204	-0.047
-293.676	-200.000	0.026	-0.144
-292.662	-200.000	0.002	0.048
-291.647	-96.108	-0.494	0.129
-290.632	129.474	-0.132	0.165
-289.618	-18.850	0.226	-0.138
-288.603	-121.576	-0.314	0.051
-287.589	-200.000	-0.034	-0.210
-286.574	433.116	-0.101	-0.215
-285.559	5.240	-0.387	-0.280
-284.545	800.000	-0.043	-0.155
-283.530	-141.935	-0.291	-0.028
-282.516	95.298	-0.020	-0.022
-281.501	156.935	-0.239	-0.324
-280.486	409.980	-0.100	-0.208
-279.472	375.067	-0.047	-0.093
-278.457	-200.000	-0.013	0.145
-277.443	121.946	0.042	-0.052
-276.428	-63.320	-0.064	0.026
-275.413	546.125	0.121	0.285
-274.399	412.274	-0.136	0.283
-273.384	-145.861	0.173	0.015
-272.370	800.000	-0.026	-0.106
-271.355	35.779	0.286	0.247
-270.340	-200.000	0.017	0.186
-269.326	57.185	0.055	-0.053
-268.311	-200.000	0.018	-0.110
-267.297	78.524	-0.070	0.074
-266.282	76.514	-0.270	-0.280
-265.267	-173.545	-0.060	0.002
-264.253	538.125	0.044	0.103
-263.238	-60.412	-0.027	0.011
-262.224	-123.066	-0.035	0.005
-261.209	-126.413	0.398	-0.058
-260.195	-200.000	0.009	-0.132
-259.180	-30.588	0.282	-0.156
-258.165	-89.079	0.250	0.072
-257.151	-98.775	-0.136	0.034
-256.136	-200.000	-0.034	0.246
-255.122	-20.449	-0.290	0.175
-254.107	-54.634	0.168	0.074
-253.092	-164.468	-0.096	0.004
-252.078	-200.000	-0.022	-0.176
-251.063	11.514	0.296	-0.223
-250.049	800.000	-0.067	-0.232
-249.034	-200.000	-0.022	0.172
-248.019	-90.709	0.409	0.116
-247.005	-200.000	0.026	0.113
-245.990	-13.458	-0.063	-0.040
-244.976	473.491	0.166	0.367
-243.961	-55.505	-0.443	-0.194
-242.946	34.496	0.186	0.160
-241.932	800.000	-0.015	0.047
-240.917	-200.000	0.029	0.192
-239.903	463.696	0.107	0.234
-238.888	45.332	-0.134	-0.121
-237.873	-43.276	-0.290	-0.144
-236.859	551.960	-0.113	-0.266
-235.844	24.229	-0.107	-0.086
-234.830	-159.334	0.138	-0.008
-233.815	-200.000	0.056	0.263
-232.800	-33.836	-0.077	-0.041
-231.786	-77.642	0.279	-0.095
-230.771	10.441	0.176	0.131
-229.757	680.855	-0.024	-0.060
-228.742	-15.579	0.027	0.017
-227.727	503.750	-0.130	-0.294
-226.713	800.000	-0.090	0.358
-225.698	-200.000	-0.044	0.205
-224.684	-25.977	-0.349	0.201
-223.669	431.213	0.004	0.008
-222.655	310.100	-0.018	0.033
-221.640	-95.320	0.311	0.082
-220.625	-200.000	-0.020	-0.392
-219.611	-200.000	-0.077	-0.459
-218.596	46.760	0.115	-0.104
-217.582	-71.439	-0.021	0.008
-216.567	259.258	-0.033	-0.056
-215.552	440.388	-0.073	0.155
-214.538	-112.168	0.370	0.073
-213.523	625.491	0.175	-0.432
-212.509	-24.057	-0.117	-0.068
-211.494	800.000	0.065	0.238
-210.479	800.000	-0.068	0.191
-209.465	800.000	0.037	-0.112
-208.450	547.160	-0.076	0.179
-207.436	265.439	0.204	0.349
-206.421	37.756	0.121	-0.105
-205.406	-27.782	-0.196	-0.111
-204.392	-25.864	-0.123	0.071
-203.377	-200.000	0.005	0.135
-202.363	284.400	-0.159	0.281
-201.348	-40.574	0.347	0.176
-200.333	-200.000	-0.009	-0.132
-199.319	-67.322	0.190	0.073
-198.304	-86.062	0.350	-0.106
-197.290	-200.000	0.015	-0.068
-196.275	-112.893	-0.314	-0.061
-195.260	-18.841	-0.046	0.028
-194.246	-82.939	0.226	0.071
-193.231	149.000	-0.110	-0.145
-192.217	-97.479	-0.280	-0.071
-191.202	87.124	0.107	-0.116
-190.187	155.740	-0.025	-0.034
-189.173	-200.000	0.015	0.118
-188.158	-20.077	-0.339	-0.205
-187.144	160.066	0.169	0.230
-186.129	68.458	0.120	-0.120
-185.114	-200.000	-0.016	-0.141
-184.100	38.971	0.206	0.180
-183.085	-56.187	-0.189	-0.082
-182.071	14.134	0.053	0.040
-181.056	-33.102	0.436	0.237
-180.042	-8.628	-0.309	0.203
-179.027	-43.364	0.102	0.050
-178.012	-141.945	0.164	0.016
-176.998	17.238	0.022	0.017
-175.983	219.586	-0.086	-0.135
-174.969	-1.592	-0.183	-0.126
-173.954	377.853	-0.096	-0.192
-172.939	-98.298	0.235	0.059
-171.925	210.828	0.088	0.135
-170.910	-200.000	0.042	0.200
-169.896	574.783	-0.120	0.285
-168.881	-1.752	0.170	0.117
-167.866	-88.835	-0.218	0.063
-166.852	800.000	-0.062	0.257
-165.837	247.243	-0.083	-0.136
-164.823	42.568	0.115	-0.103
-163.808	70.247	0.129	-0.130
-162.793	482.545	-0.146	0.324
-161.779	304.904	-0.050	-0.091
-160.764	170.236	0.027	-0.038
-159.750	-181.618	0.165	-0.003
-158.735	-200.000	-0.013	0.099
-157.720	278.032	-0.070	0.122
-156.706	135.554	-0.124	-0.158
-155.691	-135.651	0.073	0.008
-154.677	133.326	-0.039	0.049
-153.662	-110.507	-0.162	0.033
-152.647	2.762	0.032	-0.022
-151.633	-200.000	-0.007	-0.047
-150.618	-131.897	0.181	0.023
-149.604	800.000	0.083	0.258
-148.589	35.051	0.145	0.124
-147.574	-95.055	0.152	0.040
-146.560	-77.906	-0.235	-0.079
-145.545	800.000	0.079	-0.218
-144.531	43.381	-0.153	-0.137
-143.516	331.055	0.122	-0.229
-142.502	-200.000	-0.002	0.067
-141.487	800.000	-0.055	-0.179
-140.472	-200.000	-0.031	-0.131
-139.458	-200.000	-0.039	-0.300
-138.443	177.934	-0.197	-0.280
-137.429	800.000	0.121	-0.361
-136.414	-120.496	0.084	-0.014
-135.399	-99.236	-0.094	-0.023
-134.385	424.536	0.174	0.364
-133.370	-200.000	-0.014	0.289
-132.356	-45.425	-0.166	-0.080
-131.341	-58.060	0.308	0.131
-130.326	397.524	0.147	0.300
-129.312	-108.755	0.104	0.022
-128.297	-150.791	0.289	-0.021
-127.283	572.833	-0.106	-0.253
-126.268	56.426	-0.167	0.158
-125.253	376.358	-0.172	0.342
-124.239	7.561	-0.085	0.062
-123.224	523.082	0.093	0.213
-122.210	-56.150	-0.195	-0.085
-121.195	-19.424	0.195	0.118
-120.180	800.000	-0.136	-0.428
-119.166	-84.980	0.335	-0.102
-118.151	-200.000	0.016	0.154
-117.137	109.231	0.155	-0.181
-116.122	-3.886	-0.130	-0.088
-115.107	687.299	0.025	0.065
-114.093	46.225	0.125	-0.113
-113.078	-48.071	0.160	-0.075
-112.064	0.583	-0.210	-0.147
-111.049	-28.483	0.164	0.092
-110.034	426.364	0.132	-0.277
-109.020	800.000	-0.030	-0.103
-108.005	-140.348	0.174	0.018
-106.991	-93.718	-0.411	0.111
-105.976	-1.843	-0.129	0.088
-104.962	-94.528	-0.427	0.113
-103.947	317.007	0.071	0.130
-102.932	800.000	0.015	0.049
-101.918	-121.490	-0.140	-0.023
-100.903	-200.000	0.001	-0.124
-99.889	92.751	-0.147	0.161
-98.874	9.662	-0.219	-0.162
-97.859	-55.148	0.183	0.080
-96.845	-200.000	-0.019	0.164
-95.830	-124.661	-0.108	-0.016
-94.816	-56.871	0.256	-0.110
-93.801	-23.726	-0.220	-0.128
-92.786	368.530	-0.129	-0.255
-91.772	554.310	-0.035	-0.083
-90.757	16.634	0.105	-0.081
-89.743	-70.406	0.195	0.072
-88.728	-50.160	-0.355	-0.164
-87.713	646.171	0.098	-0.244
-86.699	-117.191	0.065	-0.011
-85.684	-117.307	0.236	0.042
-84.670	214.370	0.063	0.097
-83.655	-200.000	0.099	0.657
-82.640	-200.000	0.031	0.311
-81.626	-200.000	-0.028	0.243
-80.611	25.136	-0.155	0.125
-79.597	-15.476	0.215	-0.134
-78.582	-74.532	0.290	0.102
-77.567	1.835	0.270	0.189
-76.553	-40.800	0.156	0.078
-75.538	345.383	-0.097	-0.185
-74.524	-200.000	-0.081	-0.498
-73.509	-92.210	-0.370	0.102
-72.494	-55.699	0.152	-0.066
-71.480	174.378	0.199	0.281
-70.465	-77.469	0.294	0.099
-69.451	-168.209	0.149	0.006
-68.436	-40.999	0.123	-0.062
-67.422	194.868	-0.198	-0.292
-66.407	16.241	0.210	0.161
-65.392	81.547	-0.211	0.222
-64.378	137.945	0.067	-0.086
-63.363	48.635	0.060	0.055
-62.349	247.704	-0.106	-0.174
-61.334	91.353	-1.104	-1.207
-60.319	105.752	0.639	0.736
-59.305	800.000	-0.395	-1.394
-58.290	200.247	0.976	1.459
-57.276	800.000	0.530	1.468
-56.261	-200.000	134.156	702.279
-55.246	365.185	1662.505	3257.649
-54.232	134.809	2800.376	3537.478
-53.217	92.286	2189.425	2400.613
-52.203	32.464	1703.035	1431.409
-51.188	25.138	1524.106	1230.889
-50.173	23.347	1501.628	1200.564
-49.159	48.392	1577.392	1436.677
-48.144	44.868	1588.528	1422.228
-47.130	25.268	1535.471	1240.771
-46.115	22.362	1519.602	1207.982
-45.100	22.046	1516.602	1203.385
-44.086	22.076	1514.470	1201.852
-43.071	21.996	1512.466	1199.664
-42.057	22.061	1510.530	1198.525
-41.042	21.963	1509.622	1197.089
-40.027	22.103	1507.636	1196.424
-39.013	22.055	1506.188	1194.896
-37.998	21.923	1505.559	1193.457
-36.984	22.021	1503.905	1192.758
-35.969	22.089	1502.782	1192.287
-34.954	22.021	1501.550	1190.796
-33.940	22.113	1499.689	1189.902
-32.925	21.968	1498.644	1188.044
-31.911	22.001	1497.260	1187.123
-30.896	22.084	1496.259	1186.839
-29.881	22.130	1495.043	1186.138
-28.867	22.167	1493.200	1184.881
-27.852	22.142	1492.204	1183.873
-26.838	22.055	1490.986	1182.273
-25.823	22.212	1488.889	1181.620
-24.809	22.172	1487.512	1180.210
-23.794	22.110	1485.963	1178.523
-22.779	22.055	1485.559	1177.783
-21.765	22.083	1484.241	1176.877
-20.750	22.179	1482.516	1176.106
-19.736	22.046	1482.426	1175.102
-18.721	22.064	1480.491	1173.641
-17.706	22.059	1479.892	1173.084
-16.692	22.065	1478.627	1172.079
-15.677	22.037	1478.040	1171.378
-14.663	21.930	1477.030	1169.814
-13.648	21.967	1476.147	1169.319
-12.633	22.055	1474.888	1168.857
-11.619	22.139	1473.911	1168.597
-10.604	22.073	1473.340	1167.660
-9.590	22.074	1472.097	1166.637
-8.575	22.082	1471.275	1165.991
-7.560	22.056	1470.370	1165.058
-6.546	22.096	1469.609	1164.674
-5.531	22.016	1468.869	1163.506
-4.517	21.974	1468.307	1162.740
-3.502	21.981	1467.079	1161.764
-2.487	22.113	1465.712	1161.513
-1.473	22.039	1464.845	1160.290
-0.458	21.991	1463.487	1158.850
0.556	20.988	1453.334	1147.061
1.571	17.517	1428.915	1105.199
2.586	14.035	1366.412	1035.112
3.600	12.391	1281.813	961.329
4.615	11.471	1238.470	923.533
5.629	10.216	1182.257	874.757
6.644	5.266	1102.379	790.581
7.659	1.314	1066.827	745.635
8.673	0.741	1061.951	739.358
9.688	0.674	1058.637	736.660
10.702	0.655	1057.500	735.711
11.717	0.811	1054.470	734.296
12.731	2.378	1055.138	742.304
13.746	7.879	1062.967	774.574
14.761	14.123	1071.188	811.037
15.775	17.067	1074.546	827.883
16.790	17.035	1073.140	826.571
17.804	16.039	1070.857	819.898
18.819	15.095	1069.525	814.218
19.834	14.688	1067.696	810.777
20.848	14.484	1067.293	809.408
21.863	14.177	1066.367	807.145
22.877	13.965	1065.413	805.325
23.892	13.743	1064.438	803.440
24.907	13.722	1063.463	802.534
25.921	13.770	1062.742	802.150
26.936	13.824	1061.910	801.710
27.950	13.751	1061.462	800.952
28.965	13.758	1060.795	800.409
29.980	13.904	1059.831	800.316
30.994	13.882	1058.623	799.225
32.009	13.942	1057.804	798.827
33.023	14.057	1057.309	798.935
34.038	13.827	1056.972	797.505
35.053	13.931	1055.214	796.604
36.067	13.897	1054.717	795.999
37.082	13.800	1053.993	794.913
38.096	13.824	1053.165	794.334
39.111	13.968	1051.918	794.011
40.126	13.890	1051.269	793.082
41.140	13.827	1050.353	792.018
42.155	13.801	1049.436	791.133
43.169	13.731	1048.887	790.315
44.184	13.747	1047.527	789.295
45.199	13.748	1046.314	788.320
46.213	13.639	1046.028	787.517
47.228	13.702	1045.173	787.101
48.242	13.828	1043.494	786.362
49.257	13.814	1042.708	785.636
50.271	13.784	1042.190	785.032
51.286	13.773	1041.180	784.153
52.301	13.900	1039.883	783.704
53.315	13.970	1039.344	783.560
54.330	13.809	1039.104	782.550
55.344	13.785	1038.108	781.615
56.359	13.831	1036.568	780.608
57.374	13.839	1035.947	780.106
58.388	13.736	1034.828	778.711
59.403	13.720	1034.737	778.499
60.417	13.834	1033.513	778.043
61.432	13.799	1032.999	777.423
62.447	13.649	1032.468	776.253
63.461	13.744	1031.162	775.647
64.476	13.579	1030.722	774.476
65.490	13.803	1029.100	774.232
66.505	13.784	1028.805	773.853
67.520	13.675	1028.289	772.891
68.534	13.704	1027.531	772.387
69.549	13.767	1026.684	771.974
70.563	13.741	1025.898	771.197
71.578	13.777	1025.251	770.808
72.593	13.717	1024.388	769.810
73.607	13.707	1023.353	768.920
74.622	13.677	1022.536	768.099
75.636	13.551	1021.595	766.742
76.651	13.682	1020.571	766.509
77.666	13.613	1019.857	765.585
78.680	13.630	1019.331	765.201
79.695	13.637	1018.659	764.664
80.709	13.598	1018.332	764.170
81.724	13.673	1016.951	763.411
82.739	13.579	1016.922	762.889
83.753	13.838	1015.704	763.099
84.768	13.830	1014.919	762.405
85.782	13.843	1014.117	761.794
86.797	13.892	1013.357	761.380
87.812	13.920	1012.298	760.645
88.826	13.835	1011.825	759.836
89.841	13.851	1011.135	759.321
90.855	13.910	1010.246	758.858
91.870	13.877	1009.334	757.955
92.884	13.957	1008.577	757.684
93.899	13.963	1007.919	757.150
94.914	13.838	1007.414	756.135
95.928	13.942	1006.489	755.849
96.943	13.994	1005.611	755.358
97.957	13.882	1004.655	754.062
98.972	13.958	1003.702	753.625
99.987	13.885	1003.607	753.157
101.001	13.923	1002.421	752.373
102.016	13.975	1001.725	752.018
103.030	13.928	1000.720	750.987
104.045	13.766	1000.049	749.684
105.060	13.866	998.967	749.256
106.074	13.849	997.883	748.300
107.089	13.832	997.280	747.706
108.103	13.824	996.296	746.864
109.118	13.692	995.397	745.533
110.133	13.699	994.869	745.101
111.147	13.646	993.742	743.955
112.162	13.776	992.923	743.860
113.176	13.818	991.973	743.268
114.191	13.926	990.948	742.917
115.206	13.816	990.343	741.907
116.220	13.895	989.438	741.517
117.235	13.726	988.963	740.342
118.249	13.916	987.917	740.340
119.264	13.841	986.751	739.064
120.279	13.839	986.069	738.483
121.293	13.882	985.095	737.876
122.308	13.779	984.989	737.273
123.322	13.876	983.510	736.532
124.337	13.865	982.435	735.613
125.352	13.745	981.334	734.194
126.366	13.776	980.110	733.349
127.381	13.827	979.148	732.789
128.395	13.730	978.409	731.745
129.410	13.785	977.138	730.974
130.424	13.806	976.654	730.637
131.439	13.713	975.788	729.517
132.454	13.876	974.813	729.438
133.468	13.851	974.149	728.768
134.483	13.885	973.380	728.276
135.497	13.910	972.821	727.905
136.512	13.736	972.125	726.555
137.527	13.908	971.347	726.661
138.541	13.859	970.422	725.694
139.556	13.865	970.030	725.360
140.570	13.961	969.199	725.097
141.585	14.032	967.798	724.291
142.600	13.863	967.723	723.437
143.614	13.957	966.940	723.194
144.629	14.042	965.788	722.639
145.643	14.097	965.281	722.437
146.658	14.088	964.390	721.665
147.673	14.200	963.297	721.269
148.687	13.971	962.944	719.947
149.702	14.058	961.914	719.490
150.716	13.963	961.073	718.387
151.731	14.043	960.591	718.311
152.746	13.881	960.151	717.218
153.760	13.988	958.967	716.731
154.775	13.995	958.458	716.317
155.789	13.935	957.481	715.266
156.804	14.122	956.515	715.284
157.819	14.053	955.853	714.432
158.833	14.175	955.211	714.413
159.848	14.156	954.723	713.901
160.862	14.161	954.038	713.347
161.877	14.172	953.399	712.853
162.892	14.173	952.363	712.021
163.906	14.096	951.651	711.098
164.921	13.959	950.913	709.897
165.935	14.190	949.914	710.071
166.950	14.228	948.593	709.184
167.964	14.169	948.027	708.446
168.979	14.237	946.701	707.684
169.994	14.127	946.197	706.776
171.008	14.190	945.534	706.485
172.023	14.301	944.218	705.914
173.037	14.249	943.814	705.326
174.052	14.183	943.395	704.670
175.067	14.228	942.343	704.015
176.081	14.296	941.546	703.645
177.096	14.248	940.739	702.777
178.110	14.258	940.322	702.444
179.125	14.330	939.264	701.896
180.140	14.349	938.225	701.136
181.154	14.344	938.113	700.968
182.169	14.440	937.035	700.504
183.183	14.452	936.459	700.062
184.198	14.394	935.704	699.194
185.213	14.337	935.350	698.628
186.227	14.527	934.774	698.934
187.242	14.561	933.694	698.204
188.256	14.450	933.670	697.662
189.271	14.668	932.576	697.692
190.286	14.535	932.005	696.650
191.300	14.503	931.338	695.954
192.315	14.487	930.488	695.193
193.329	14.229	930.146	693.801
194.344	14.517	929.255	694.272
195.359	14.498	928.663	693.690
196.373	14.391	928.028	692.710
197.388	14.599	927.529	693.138
198.402	14.433	927.288	692.210
199.417	14.537	926.802	692.215
200.432	14.491	926.551	691.777
201.446	14.714	925.462	691.826
202.461	14.831	925.000	691.905
203.475	14.779	924.595	691.324
204.490	14.687	923.925	690.380
205.504	14.735	923.001	689.827
206.519	14.698	922.041	688.897
207.534	14.748	921.494	688.632
208.548	14.536	920.929	687.277
209.563	14.707	919.910	687.159
210.577	14.822	919.231	687.063
211.592	14.848	918.838	686.819
212.607	14.676	918.354	685.689
213.621	14.745	917.784	685.486
214.636	14.908	916.494	685.129
215.650	14.787	916.297	684.423
216.665	14.828	915.799	684.161
217.680	14.864	915.420	683.965
218.694	14.972	914.511	683.667
219.709	14.921	914.001	683.018
220.723	14.920	913.421	682.516
221.738	14.809	912.756	681.508
222.753	14.874	912.153	681.260
223.767	14.849	911.036	680.266
224.782	14.955	910.451	680.200
225.796	14.933	909.893	679.634
226.811	15.135	908.599	679.427
227.826	15.073	907.955	678.634
228.840	15.072	907.712	678.386
229.855	14.995	907.013	677.494
230.869	15.079	906.165	677.139
231.884	15.069	905.563	676.591
232.899	14.997	905.108	675.900
233.913	14.976	904.231	675.099
234.928	15.149	903.298	675.040
235.942	14.981	902.854	673.973
236.957	14.971	902.074	673.291
237.972	15.034	901.358	672.948
238.986	14.980	901.016	672.416
240.001	15.009	900.421	672.029
241.015	14.992	899.964	671.561
242.030	15.049	899.201	671.161
243.045	15.178	897.730	670.521
244.059	15.267	897.596	670.717
245.074	15.221	896.761	669.852
246.088	15.275	896.115	669.524
247.103	15.157	896.079	668.969
248.117	15.260	895.020	668.529
249.132	15.180	894.661	667.882
250.147	15.414	893.796	668.109
251.161	15.481	892.908	667.652
252.176	15.364	892.392	666.744
253.190	15.548	891.460	666.719
254.205	15.548	891.437	666.641
255.220	15.465	890.495	665.551
256.234	15.559	889.826	665.360
257.249	15.609	888.978	664.868
258.263	15.634	888.783	664.763
259.278	15.548	888.248	663.961
260.293	15.753	887.250	663.966
261.307	15.559	886.850	662.842
262.322	15.658	886.433	662.862
263.336	15.596	886.234	662.413
264.351	15.714	885.376	662.175
265.366	15.771	884.518	661.700
266.380	15.713	883.928	660.972
267.395	15.763	883.237	660.592
268.409	15.891	882.303	660.339
269.424	15.730	881.744	659.231
270.439	15.728	880.952	658.574
271.453	15.724	880.502	658.160
272.468	15.814	879.686	657.845
273.482	15.616	879.188	656.641
274.497	15.710	878.542	656.470
275.512	15.853	877.545	656.224
276.526	15.792	876.814	655.380
277.541	15.843	875.905	654.839
278.555	15.848	875.946	654.835
279.570	15.850	875.265	654.275
280.585	15.875	874.636	653.843
281.599	15.963	873.938	653.606
282.614	15.977	873.422	653.214
283.628	15.908	872.808	652.433
284.643	15.969	872.385	652.293
285.657	15.887	872.262	651.828
286.672	16.057	871.576	651.913
287.687	15.839	870.739	650.386
288.701	15.994	870.363	650.647
289.716	16.046	869.523	650.163
290.730	16.026	869.078	649.697
291.745	16.093	868.285	649.303
292.760	16.165	867.509	648.944
293.774	16.179	866.940	648.513
294.789	16.192	866.128	647.898
295.803	16.061	866.409	647.547
296.818	16.163	865.155	646.946
297.833	16.207	864.612	646.649
298.847	16.134	863.866	645.756
299.862	16.119	863.442	645.323
300.876	16.100	862.347	644.375
301.891	16.425	861.472	644.907
302.906	16.331	861.075	644.191
303.920	16.233	860.682	643.469
304.935	16.247	859.821	642.823
305.949	16.479	859.147	643.144
306.964	16.312	858.821	642.208
307.979	16.340	858.375	641.922
308.993	16.367	857.840	641.566
310.008	16.480	856.870	641.216
311.022	16.432	856.894	640.994
312.037	16.491	855.802	640.346
313.052	16.451	855.302	639.763
314.066	16.384	855.049	639.262
315.081	16.390	854.519	638.832
316.095	16.457	853.683	638.405
317.110	16.510	852.956	638.003
318.125	16.417	852.605	637.332
319.139	16.447	852.119	637.026
320.154	16.557	851.571	636.976
321.168	16.524	850.973	636.346
322.183	16.566	850.510	636.104
323.197	16.516	849.911	635.411
324.212	16.512	849.358	634.926
325.227	16.622	848.584	634.704
326.241	16.601	848.391	634.424
327.256	16.575	847.449	633.568
328.270	16.577	847.345	633.440
329.285	16.673	846.512	633.120
330.300	16.597	845.808	632.252
331.314	16.598	845.565	632.019
332.329	16.432	844.999	630.920
333.343	16.688	844.072	631.127
334.358	16.611	843.618	630.444
335.373	16.770	843.244	630.701
336.387	16.673	842.673	629.858
337.402	16.717	842.163	629.585
338.416	16.834	841.341	629.350
339.431	16.874	840.692	628.959
340.446	16.923	840.210	628.724
341.460	16.959	839.835	628.519
342.475	16.892	839.029	627.612
343.489	16.872	838.528	627.109
344.504	16.773	838.399	626.590
345.519	17.014	837.555	626.796
346.533	16.935	837.016	626.046
347.548	17.092	836.243	625.989
348.562	17.025	835.888	625.421
349.577	16.978	835.607	624.981
350.592	16.939	835.072	624.385
351.606	17.008	834.569	624.205
352.621	16.955	833.890	623.450
353.635	16.969	833.887	623.442
354.650	17.033	833.197	623.105
355.665	17.039	832.833	622.802
356.679	16.922	832.478	622.051
357.694	17.085	831.599	621.937
358.708	17.032	831.422	621.555
359.723	17.159	830.818	621.512
360.738	17.044	830.128	620.521
361.752	17.176	829.472	620.459
362.767	17.176	829.098	620.122
363.781	17.312	828.812	620.351
364.796	17.229	828.590	619.828
365.810	17.092	828.088	618.898
366.825	17.222	827.346	618.761
367.840	17.266	827.132	618.707
368.854	17.270	826.728	618.364
369.869	17.263	826.010	617.747
370.883	17.338	825.531	617.607
371.898	17.284	824.895	616.883
372.913	17.446	823.970	616.722
373.927	17.474	823.683	616.554
374.942	17.430	823.065	615.879
375.956	17.381	822.718	615.386
376.971	17.670	821.666	615.589
377.986	17.363	821.864	614.573
379.000	17.582	820.895	614.586
380.015	17.506	820.691	614.101
381.029	17.436	820.047	613.314
382.044	17.678	819.254	613.539
383.059	17.601	818.629	612.740
384.073	17.688	818.299	612.749
385.088	17.689	817.975	612.459
386.102	17.616	817.042	611.443
387.117	17.555	816.603	610.843
388.132	17.500	816.189	610.283
389.146	17.516	815.643	609.875
390.161	17.566	815.478	609.877
391.175	17.690	814.970	609.886
392.190	17.719	814.726	609.753
393.205	17.570	814.735	609.173
394.219	17.630	814.026	608.804
395.234	17.543	813.532	608.070
396.248	17.826	812.356	608.147
397.263	17.596	812.378	607.288
398.278	17.755	811.589	607.212
399.292	17.719	811.333	606.840
400.307	17.540	811.105	605.979
401.321	17.727	810.457	606.106
402.336	17.724	810.523	606.091
403.350	17.838	809.905	605.977
404.365	17.799	809.169	605.236
405.380	17.791	809.005	605.030
406.394	17.897	808.388	604.892
407.409	17.987	807.553	604.531
408.423	17.898	807.427	604.070
409.438	17.846	807.024	603.529
410.453	18.020	806.071	603.379
411.467	18.161	805.813	603.631
412.482	17.937	805.614	602.637
413.496	17.913	805.350	602.304
414.511	18.074	804.735	602.356
415.526	18.009	803.940	601.480
416.540	18.142	803.975	601.920
417.555	17.993	803.944	601.320
418.569	18.139	802.847	600.959
419.584	18.169	802.423	600.695
420.599	18.142	802.233	600.405
421.613	115.692	1299.005	1490.448
422.628	99.897	1371.326	1490.534
