DTS Sentinel unit serial number:	SN413079Multiplexer serial number:	ORYXHardware model number:	OX4-SRSoftware version number:	ORYX F/W v4.00 Oryx Data Collector v3.7.2.0data status	okinstallation	princeton_trtdifferential loss correction	single-endedforward channel	channel 3reverse channel	N/Adate	2019/09/12time	14:58:11forward acquisition time	60.00reverse acquisition time	0.00gamma	496.2192k internal	0.2292k external	0.2292temperature offset calibration	1.0054default loss term (dB/km)	0.3790temperature slope calibration	1.0000multiplexer offset coefficient	1.0000multiplexer slope coefficient	1.0000fibre end	0.00T internal ref (°C)	40.37T ext. ref 1 (°C)	2.34T ext. ref 2 (°C)	37.39length (m)	temperature (°C)	Stokes	anti-Stokes-747.200	-25.135	-0.178	-0.108
-746.185	-126.331	0.091	-0.014
-745.171	-200.000	-0.000	0.196
-744.156	-87.476	0.297	0.092
-743.142	186.587	0.154	-0.235
-742.127	2.001	-0.108	0.079
-741.112	-41.548	-0.079	0.041
-740.098	-200.000	-0.041	-0.279
-739.083	-64.141	0.066	0.027
-738.069	-200.000	0.011	-0.344
-737.054	37.673	-0.181	0.164
-736.039	-118.374	-0.260	-0.047
-735.025	800.000	-0.092	-0.346
-734.010	-138.442	-0.258	-0.029
-732.996	390.141	-0.154	-0.327
-731.981	619.714	-0.103	-0.265
-730.966	-200.000	0.048	0.246
-729.952	800.000	0.036	-0.159
-728.937	-81.734	-0.249	-0.083
-727.923	121.962	0.112	0.142
-726.908	-200.000	-0.013	-0.171
-725.894	-163.725	0.104	0.005
-724.879	-115.542	-0.119	-0.023
-723.864	215.375	-0.068	-0.111
-722.850	-62.257	-0.078	-0.033
-721.835	800.000	0.046	0.186
-720.821	215.360	0.096	-0.156
-719.806	-48.922	0.105	0.052
-718.791	22.144	-0.205	-0.171
-717.777	-35.765	-0.178	-0.099
-716.762	133.523	0.150	-0.198
-715.748	564.741	0.052	-0.130
-714.733	-200.000	0.034	-0.166
-713.718	33.975	0.089	0.079
-712.704	69.883	-0.170	0.179
-711.689	-200.000	-0.035	-0.275
-710.675	60.782	0.158	0.160
-709.660	88.879	0.077	-0.088
-708.645	186.381	-0.085	-0.129
-707.631	-68.691	0.308	0.122
-706.616	-81.173	-0.336	-0.113
-705.602	-8.645	-0.199	0.137
-704.587	-39.636	-0.145	-0.078
-703.572	-200.000	0.056	-0.266
-702.558	144.129	-0.172	-0.235
-701.543	800.000	0.073	-0.305
-700.529	161.791	-0.101	0.144
-699.514	128.826	0.093	0.121
-698.499	9.927	0.051	-0.039
-697.485	-200.000	0.051	0.294
-696.470	563.288	-0.081	0.201
-695.456	-89.594	-0.354	-0.106
-694.441	262.524	-0.205	0.364
-693.426	-196.629	-0.342	0.002
-692.412	81.484	0.229	-0.252
-691.397	800.000	0.052	0.184
-690.383	800.000	0.042	-0.172
-689.368	10.941	-0.182	-0.142
-688.354	800.000	-0.017	0.074
-687.339	6.007	0.122	-0.092
-686.324	700.057	0.067	-0.181
-685.310	-200.000	-0.014	0.246
-684.295	-116.122	0.329	0.062
-683.281	9.119	0.031	-0.024
-682.266	8.206	0.168	-0.129
-681.251	-200.000	-0.044	0.218
-680.237	475.666	-0.184	-0.425
-679.222	140.107	0.104	-0.140
-678.208	103.885	-0.096	-0.116
-677.193	39.839	-0.336	0.308
-676.178	-60.843	-0.198	0.085
-675.164	245.958	-0.280	-0.481
-674.149	800.000	-0.033	-0.108
-673.135	800.000	-0.069	0.243
-672.120	81.745	-0.189	0.208
-671.105	800.000	-0.091	-0.384
-670.091	15.827	-0.126	-0.101
-669.076	-33.410	0.070	0.040
-668.062	-6.358	0.207	0.144
-667.047	-23.958	0.156	-0.095
-666.032	-92.797	0.218	0.062
-665.018	-101.279	0.159	-0.040
-664.003	-149.958	-0.487	0.039
-662.989	-52.977	-0.128	-0.060
-661.974	25.748	0.098	-0.083
-660.959	-99.711	0.060	0.015
-659.945	800.000	-0.068	-0.271
-658.930	-157.653	-0.099	0.006
-657.916	673.454	0.036	-0.096
-656.901	-54.704	-0.226	-0.104
-655.886	-200.000	0.006	-0.239
-654.872	543.727	0.151	-0.367
-653.857	149.585	0.071	-0.098
-652.843	643.702	0.071	0.186
-651.828	23.652	0.064	-0.054
-650.814	-82.214	-0.244	-0.081
-649.799	-200.000	0.049	0.399
-648.784	129.149	-0.128	0.167
-647.770	-200.000	-0.070	-0.317
-646.755	-106.017	0.163	0.037
-645.741	800.000	-0.025	0.076
-644.726	-48.295	0.406	0.200
-643.711	800.000	-0.094	-0.310
-642.697	-48.726	-0.090	-0.044
-641.682	800.000	-0.052	-0.184
-640.668	-200.000	0.005	0.265
-639.653	-71.179	-0.161	-0.061
-638.638	-57.315	-0.148	0.067
-637.624	-89.232	0.304	0.091
-636.609	349.763	-0.164	-0.330
-635.595	-189.907	-0.434	0.005
-634.580	-27.998	0.248	-0.146
-633.565	-200.000	0.064	0.388
-632.551	-98.491	0.261	-0.068
-631.536	243.653	0.072	0.123
-630.522	71.863	0.177	0.187
-629.507	470.860	-0.054	0.124
-628.492	586.388	0.110	-0.275
-627.478	125.636	-0.063	0.081
-626.463	363.236	-0.102	0.209
-625.449	800.000	-0.040	-0.146
-624.434	-44.214	0.257	0.131
-623.419	53.381	0.202	-0.197
-622.405	-94.782	-0.166	0.046
-621.390	278.340	-0.123	-0.224
-620.376	217.494	-0.038	-0.062
-619.361	90.536	-0.157	-0.179
-618.346	-200.000	-0.045	0.256
-617.332	59.068	0.222	-0.222
-616.317	-200.000	-0.346	-0.002
-615.303	800.000	0.043	0.127
-614.288	-200.000	-0.037	0.279
-613.273	245.223	-0.096	0.165
-612.259	359.079	-0.098	0.199
-611.244	-22.059	0.193	-0.119
-610.230	800.000	-0.017	0.058
-609.215	174.232	-0.060	0.089
-608.201	800.000	-0.065	0.243
-607.186	13.222	0.349	-0.275
-606.171	-87.130	0.341	0.106
-605.157	-134.010	-0.298	0.038
-604.142	143.407	0.056	0.075
-603.128	629.403	0.050	-0.129
-602.113	286.137	-0.134	-0.245
-601.098	167.959	0.122	-0.176
-600.084	-7.513	0.205	0.141
-599.069	800.000	-0.071	0.205
-598.055	-200.000	0.037	0.389
-597.040	27.353	-0.234	-0.200
-596.025	-45.532	0.222	-0.112
-595.011	-48.515	0.185	0.091
-593.996	73.996	-0.333	0.355
-592.982	-200.000	0.000	-0.125
-591.967	-86.261	-0.088	-0.027
-590.952	103.611	-0.163	-0.195
-589.938	-54.588	-0.254	0.117
-588.923	396.166	0.111	-0.236
-587.909	-200.000	0.027	0.370
-586.894	374.724	-0.062	-0.129
-585.879	-118.219	-0.130	0.024
-584.865	20.545	-0.224	0.184
-583.850	-200.000	0.031	0.161
-582.836	-167.218	-0.289	-0.012
-581.821	61.452	-0.236	-0.239
-580.806	-200.000	0.094	0.558
-579.792	-92.929	0.430	-0.122
-578.777	-135.302	0.193	-0.023
-577.763	362.899	-0.009	-0.019
-576.748	418.326	0.091	-0.198
-575.733	527.437	0.142	-0.339
-574.719	-112.542	-0.119	-0.024
-573.704	800.000	-0.030	-0.128
-572.690	104.539	-0.207	0.248
-571.675	-70.120	0.415	-0.161
-570.661	-44.432	0.256	-0.130
-569.646	-200.000	-0.226	-0.001
-568.631	-51.073	0.162	-0.077
-567.617	-75.662	0.230	0.083
-566.602	21.006	0.115	0.094
-565.588	-65.896	-0.264	0.107
-564.573	-42.959	-0.217	-0.112
-563.558	349.936	-0.050	-0.100
-562.544	-109.475	0.149	-0.032
-561.529	302.867	-0.075	-0.142
-560.515	51.618	0.318	0.307
-559.500	-85.803	0.133	0.042
-558.485	-74.179	-0.449	-0.165
-557.471	-58.620	-0.071	-0.031
-556.456	-98.290	-0.274	-0.072
-555.442	800.000	-0.065	-0.263
-554.427	-200.000	-0.026	0.234
-553.412	-62.456	-0.205	0.087
-552.398	195.660	0.060	0.093
-551.383	11.066	0.154	-0.119
-550.369	75.717	-0.217	0.233
-549.354	-137.696	0.364	-0.042
-548.339	-200.000	0.027	0.284
-547.325	-69.597	0.351	0.137
-546.310	168.157	-0.024	0.034
-545.296	-200.000	-0.014	-0.074
-544.281	28.875	0.094	-0.081
-543.266	800.000	0.062	0.186
-542.252	-200.000	-0.003	-0.055
-541.237	-48.238	0.133	-0.065
-540.223	88.530	-0.120	-0.135
-539.208	347.997	0.049	0.098
-538.193	-200.000	-0.003	-0.108
-537.179	216.445	0.057	-0.093
-536.164	189.965	-0.108	-0.164
-535.150	1.145	0.235	0.172
-534.135	99.991	0.146	0.172
-533.121	175.618	0.046	-0.068
-532.106	-60.690	-0.232	-0.100
-531.091	800.000	-0.051	-0.151
-530.077	31.750	0.069	0.060
-529.062	-145.712	0.149	-0.014
-528.048	53.047	0.221	0.215
-527.033	12.890	-0.217	0.170
-526.018	367.712	-0.085	0.174
-525.004	800.000	-0.016	-0.056
-523.989	105.611	-0.038	-0.045
-522.975	9.764	-0.442	-0.340
-521.960	632.136	0.068	0.176
-520.945	354.041	-0.085	-0.172
-519.931	312.153	0.027	-0.052
-518.916	16.402	-0.144	0.115
-517.902	-122.982	0.138	-0.023
-516.887	96.472	-0.156	-0.181
-515.872	67.387	0.212	0.220
-514.858	40.361	0.082	-0.075
-513.843	164.054	-0.190	-0.271
-512.829	82.478	0.108	-0.119
-511.814	-200.000	-0.036	-0.352
-510.799	-60.908	0.250	-0.107
-509.785	800.000	-0.119	-0.449
-508.770	-42.110	0.201	0.104
-507.756	40.775	0.111	-0.102
-506.741	-85.211	-0.103	0.033
-505.726	-18.111	0.349	-0.221
-504.712	335.126	-0.174	-0.343
-503.697	-200.000	0.032	-0.178
-502.683	-36.235	-0.234	-0.128
-501.668	-43.363	0.481	-0.247
-500.653	-200.000	0.049	-0.249
-499.639	-200.000	-0.027	0.199
-498.624	-110.756	0.112	-0.023
-497.610	-182.013	0.136	0.003
-496.595	-91.142	0.084	0.024
-495.581	-200.000	-0.004	-0.090
-494.566	-42.953	-0.125	0.064
-493.551	-200.000	0.000	-0.228
-492.537	60.081	-0.181	-0.181
-491.522	800.000	-0.078	0.257
-490.508	-106.970	-0.287	-0.064
-489.493	89.570	-0.107	0.121
-488.478	151.863	0.130	0.180
-487.464	800.000	-0.053	0.179
-486.449	-55.089	-0.234	-0.107
-485.435	-200.000	-0.027	-0.242
-484.420	-188.494	-0.349	0.004
-483.405	-100.744	0.365	0.091
-482.391	-68.423	-0.069	0.027
-481.376	-15.189	0.323	0.210
-480.362	83.505	0.096	0.106
-479.347	9.969	-0.274	-0.211
-478.332	-163.147	-0.273	0.013
-477.318	417.763	0.066	-0.144
-476.303	-200.000	-0.018	0.201
-475.289	-200.000	0.021	0.124
-474.274	-200.000	0.071	0.507
-473.259	-43.919	-0.400	-0.204
-472.245	416.765	-0.184	-0.397
-471.230	-40.017	0.188	0.099
-470.216	-95.082	0.202	0.055
-469.201	-57.607	0.149	0.066
-468.186	-191.153	-0.380	0.004
-467.172	396.119	0.015	-0.032
-466.157	616.135	0.121	-0.306
-465.143	-164.091	0.087	-0.004
-464.128	-200.000	0.052	0.288
-463.113	240.260	0.026	0.044
-462.099	-100.074	0.072	0.018
-461.084	-200.000	0.019	0.197
-460.070	-200.000	0.031	-0.175
-459.055	-200.000	-0.011	0.293
-458.040	800.000	-0.102	0.353
-457.026	48.236	-0.164	0.156
-456.011	251.659	-0.185	0.318
-454.997	800.000	-0.056	0.242
-453.982	-200.000	-0.074	-0.402
-452.968	573.665	-0.081	0.200
-451.953	-189.168	0.145	0.002
-450.938	254.447	0.103	-0.179
-449.924	163.289	0.042	-0.060
-448.909	-200.000	0.024	-0.167
-447.895	-1.233	-0.141	0.101
-446.880	30.466	-0.263	0.227
-445.865	-153.858	-0.194	0.013
-444.851	11.363	-0.103	0.080
-443.836	-200.000	-0.008	0.112
-442.822	152.730	0.101	0.139
-441.807	-181.881	0.194	-0.004
-440.792	117.709	-0.150	0.187
-439.778	-189.261	0.189	-0.002
-438.763	205.539	-0.120	-0.189
-437.749	800.000	-0.034	-0.116
-436.734	-200.000	0.010	-0.247
-435.719	-183.535	-0.164	-0.003
-434.705	-200.000	0.021	0.224
-433.690	-90.717	0.224	0.066
-432.676	-41.024	0.176	-0.092
-431.661	800.000	0.073	-0.215
-430.646	271.292	0.228	0.407
-429.632	11.822	0.080	-0.062
-428.617	-200.000	0.052	-0.236
-427.603	800.000	-0.063	-0.178
-426.588	24.478	-0.066	-0.055
-425.573	-150.590	-0.248	-0.019
-424.559	209.996	0.004	0.007
-423.544	260.012	0.210	-0.366
-422.530	0.894	-0.283	0.205
-421.515	-6.794	-0.249	0.171
-420.500	-115.101	0.366	0.070
-419.486	109.368	0.191	0.232
-418.471	223.998	0.182	0.297
-417.457	-55.575	0.258	-0.117
-416.442	-200.000	-0.012	-0.064
-415.428	54.740	0.266	-0.259
-414.413	-113.316	0.162	0.032
-413.398	590.661	-0.058	0.144
-412.384	2.522	0.155	-0.114
-411.369	-164.443	-0.244	0.011
-410.355	1.878	0.106	0.078
-409.340	11.313	-0.187	0.145
-408.325	117.645	0.123	-0.153
-407.311	-90.431	0.272	-0.080
-406.296	-200.000	0.023	0.234
-405.282	-64.480	-0.260	-0.107
-404.267	-148.796	0.126	-0.010
-403.252	663.589	0.107	0.279
-402.238	-200.000	-0.030	-0.192
-401.223	346.103	-0.146	-0.290
-400.209	104.563	0.214	0.255
-399.194	-200.000	-0.030	0.269
-398.179	125.844	-0.211	-0.270
-397.165	62.500	0.319	-0.322
-396.150	-92.466	-0.152	0.043
-395.136	-147.220	0.202	-0.017
-394.121	-174.063	0.219	0.006
-393.106	-116.498	-0.077	-0.014
-392.092	-200.000	-0.011	0.164
-391.077	341.431	0.109	-0.215
-390.063	-69.059	-0.241	0.094
-389.048	146.653	-0.247	0.335
-388.033	-70.046	0.332	0.127
-387.019	-200.000	-0.115	-0.605
-386.004	-200.000	-0.003	0.092
-384.990	306.390	-0.098	-0.184
-383.975	180.948	0.146	-0.217
-382.960	-191.512	-0.267	-0.003
-381.946	487.843	-0.092	-0.212
-380.931	-101.361	0.119	-0.029
-379.917	288.020	-0.121	0.220
-378.902	-82.968	0.240	-0.078
-377.888	127.922	0.195	-0.250
-376.873	-200.000	0.022	0.141
-375.858	800.000	0.072	0.291
-374.844	579.920	-0.151	-0.373
-373.829	141.358	0.127	-0.170
-372.815	-138.151	-0.182	0.020
-371.800	250.572	-0.085	0.145
-370.785	-29.936	-0.130	-0.074
-369.771	-91.370	-0.261	0.075
-368.756	-110.689	0.387	0.081
-367.742	-65.916	0.449	0.181
-366.727	223.820	-0.063	0.102
-365.712	800.000	0.033	-0.115
-364.698	575.610	0.037	0.092
-363.683	232.802	0.076	-0.126
-362.669	232.816	-0.084	-0.139
-361.654	800.000	-0.080	-0.272
-360.639	800.000	0.084	-0.243
-359.625	51.431	-0.151	-0.145
-358.610	800.000	0.074	0.207
-357.596	-143.362	-0.338	-0.033
-356.581	275.347	0.053	0.094
-355.566	-189.852	0.138	0.002
-354.552	209.434	0.181	-0.285
-353.537	26.911	0.195	-0.165
-352.523	466.947	0.240	-0.541
-351.508	214.339	0.018	-0.029
-350.493	-141.043	-0.347	0.036
-349.479	73.475	-0.191	-0.201
-348.464	-200.000	-0.003	-0.257
-347.450	131.137	0.414	0.536
-346.435	-172.671	-0.147	-0.005
-345.420	-0.811	-0.069	-0.049
-344.406	318.041	0.063	0.121
-343.391	-74.033	-0.173	-0.063
-342.377	-65.705	0.092	0.037
-341.362	-200.000	0.038	-0.420
-340.348	-102.371	-0.180	-0.043
-339.333	-80.511	-0.266	0.089
-338.318	-23.828	-0.111	0.067
-337.304	265.139	0.023	-0.040
-336.289	12.678	0.166	0.129
-335.275	-67.703	-0.412	0.163
-334.260	17.167	-0.140	-0.112
-333.245	-108.154	-0.463	-0.101
-332.231	-17.471	-0.137	0.087
-331.216	82.465	-0.116	-0.127
-330.202	105.325	0.174	0.207
-329.187	-38.896	-0.252	0.134
-328.172	85.232	0.304	0.336
-327.158	800.000	0.058	-0.231
-326.143	-51.811	-0.128	-0.060
-325.129	246.356	-0.055	-0.094
-324.114	-117.082	0.429	-0.079
-323.099	113.999	-0.204	0.249
-322.085	482.281	0.130	0.298
-321.070	-14.364	-0.151	-0.098
-320.056	-200.000	0.028	-0.201
-319.041	-81.752	-0.142	0.047
-318.026	-90.878	0.245	-0.071
-317.012	800.000	-0.095	-0.348
-315.997	-103.333	-0.270	0.064
-314.983	244.052	0.126	0.213
-313.968	523.605	0.077	-0.182
-312.953	115.011	-0.086	-0.106
-311.939	79.093	0.089	-0.096
-310.924	98.521	0.195	-0.227
-309.910	-39.237	-0.047	0.025
-308.895	-200.000	-0.029	0.174
-307.880	740.786	0.095	0.258
-306.866	4.689	-0.325	0.240
-305.851	-200.000	-0.006	-0.137
-304.837	-167.530	-0.219	-0.009
-303.822	-200.000	-0.005	0.248
-302.807	32.903	0.111	0.097
-301.793	-53.935	0.331	0.152
-300.778	-20.753	0.124	-0.077
-299.764	800.000	-0.091	-0.306
-298.749	-200.000	-0.036	0.362
-297.735	72.943	0.263	-0.276
-296.720	-48.066	0.292	0.142
-295.705	-200.000	-0.005	-0.076
-294.691	-200.000	-0.039	0.303
-293.676	282.117	-0.051	-0.091
-292.662	-24.894	0.525	0.313
-291.647	-102.801	0.476	-0.114
-290.632	249.822	0.006	0.010
-289.618	64.483	0.248	0.252
-288.603	545.384	0.067	-0.162
-287.589	67.171	-0.205	0.210
-286.574	-200.000	-0.010	0.381
-285.559	-66.433	0.081	0.032
-284.545	800.000	-0.051	-0.224
-283.530	196.404	0.069	-0.105
-282.516	617.279	0.214	-0.539
-281.501	-26.059	-0.145	-0.086
-280.486	-71.979	-0.145	-0.054
-279.472	-66.498	0.165	0.066
-278.457	-127.190	-0.148	-0.022
-277.443	-75.230	-0.113	-0.041
-276.428	-200.000	-0.015	-0.205
-275.413	-47.287	-0.089	-0.043
-274.399	-130.035	-0.093	-0.013
-273.384	97.181	0.131	0.151
-272.370	271.247	-0.028	0.049
-271.355	-142.207	-0.140	-0.014
-270.340	800.000	-0.076	0.218
-269.326	800.000	0.088	-0.249
-268.311	800.000	-0.044	-0.152
-267.297	-16.493	-0.383	0.244
-266.282	211.853	0.129	0.204
-265.267	40.644	-0.152	-0.138
-264.253	-200.000	0.007	-0.088
-263.238	331.613	0.175	-0.339
-262.224	-200.000	-0.011	-0.223
-261.209	273.083	0.090	-0.160
-260.195	14.521	-0.053	-0.042
-259.180	-154.894	0.129	0.009
-258.165	-200.000	0.000	-0.081
-257.151	175.958	-0.117	0.171
-256.136	149.366	0.086	0.117
-255.122	-111.118	0.348	-0.072
-254.107	601.620	0.093	0.233
-253.092	50.434	-0.309	-0.294
-252.078	-89.891	-0.145	-0.043
-251.063	83.813	0.162	-0.178
-250.049	269.118	-0.098	-0.173
-249.034	800.000	-0.057	0.184
-248.019	-167.735	-0.189	0.008
-247.005	167.855	0.093	0.132
-245.990	341.302	-0.090	0.176
-244.976	337.846	-0.151	0.295
-243.961	-120.624	0.103	-0.018
-242.946	368.715	-0.076	0.154
-241.932	771.630	0.029	0.079
-240.917	-56.952	-0.369	-0.163
-239.903	47.394	0.139	-0.130
-238.888	-15.807	0.275	-0.176
-237.873	400.609	0.108	-0.228
-236.859	277.296	0.011	0.019
-235.844	-130.894	-0.288	0.039
-234.830	-200.000	-0.012	0.181
-233.815	-54.916	0.366	-0.165
-232.800	-161.354	-0.179	0.009
-231.786	54.259	0.134	-0.129
-230.771	58.229	0.066	-0.064
-229.757	239.792	0.159	0.265
-228.742	-101.356	-0.029	-0.007
-227.727	128.411	0.221	0.282
-226.713	-2.646	0.185	0.130
-225.698	-108.102	-0.298	-0.065
-224.684	87.248	-0.087	-0.097
-223.669	92.984	0.166	-0.188
-222.655	-200.000	-0.019	-0.192
-221.640	-184.659	0.374	0.006
-220.625	-90.356	-0.180	0.052
-219.611	42.547	0.164	0.149
-218.596	800.000	0.042	0.145
-217.582	797.183	-0.023	-0.063
-216.567	121.044	-0.269	0.336
-215.552	63.237	-0.127	0.128
-214.538	-200.000	-0.067	0.350
-213.523	-20.032	-0.132	-0.082
-212.509	431.441	0.008	-0.017
-211.494	262.804	-0.235	-0.409
-210.479	-91.244	-0.199	-0.057
-209.465	39.009	0.158	0.141
-208.450	-200.000	0.028	0.345
-207.436	-200.000	-0.010	0.171
-206.421	90.124	0.208	0.234
-205.406	187.438	-0.228	0.341
-204.392	315.935	0.062	0.117
-203.377	722.677	0.175	0.468
-202.363	-73.224	-0.346	0.127
-201.348	-76.543	-0.097	0.034
-200.333	-200.000	0.026	0.182
-199.319	-81.022	0.227	0.075
-198.304	800.000	-0.123	-0.378
-197.290	97.127	-0.127	-0.146
-196.275	-42.968	-0.171	0.087
-195.260	-119.679	0.211	0.037
-194.246	-84.749	0.224	0.071
-193.231	-200.000	-0.553	-0.000
-192.217	-101.578	-0.392	-0.095
-191.202	130.861	0.089	-0.115
-190.187	-77.428	-0.072	0.025
-189.173	-40.228	0.204	-0.106
-188.158	-45.874	-0.207	-0.102
-187.144	138.478	-0.066	0.086
-186.129	-12.533	0.227	0.149
-185.114	468.912	0.060	-0.134
-184.100	800.000	-0.087	0.300
-183.085	-13.440	-0.337	-0.218
-182.071	-200.000	-0.011	0.233
-181.056	281.140	0.083	0.148
-180.042	-200.000	0.013	0.288
-179.027	10.001	-0.205	0.156
-178.012	304.231	-0.148	0.275
-176.998	39.660	-0.290	-0.260
-175.983	-104.643	-0.124	0.029
-174.969	168.805	-0.119	-0.169
-173.954	-69.765	-0.079	-0.030
-172.939	92.886	0.120	-0.136
-171.925	613.044	-0.046	-0.115
-170.910	-200.000	0.047	0.232
-169.896	62.669	-0.142	0.142
-168.881	116.837	-0.101	0.125
-167.866	-152.198	0.108	0.008
-166.852	99.490	0.174	0.202
-165.837	800.000	0.062	-0.233
-164.823	184.031	0.148	-0.219
-163.808	-78.624	0.241	-0.082
-162.793	-3.511	-0.312	-0.217
-161.779	326.564	0.084	0.162
-160.764	800.000	0.051	-0.186
-159.750	800.000	-0.034	-0.148
-158.735	-53.525	0.148	-0.068
-157.720	124.243	0.223	-0.280
-156.706	-67.372	-0.100	-0.039
-155.691	-180.383	-0.265	-0.006
-154.677	52.777	0.090	0.086
-153.662	-84.082	0.044	-0.014
-152.647	76.883	0.049	0.052
-151.633	800.000	0.056	-0.167
-150.618	-73.912	0.404	-0.147
-149.604	-83.918	0.044	0.014
-148.589	-157.183	-0.145	-0.009
-147.574	-138.677	-0.181	-0.020
-146.560	-31.983	0.339	0.190
-145.545	162.245	0.251	-0.352
-144.531	-200.000	-0.012	0.124
-143.516	-200.000	-0.014	-0.091
-142.502	220.880	-0.105	0.169
-141.487	-200.000	0.016	0.164
-140.472	-100.688	0.149	-0.037
-139.458	-200.000	-0.051	-0.271
-138.443	220.575	0.106	-0.170
-137.429	-62.275	0.149	-0.062
-136.414	-117.707	-0.044	-0.008
-135.399	800.000	-0.054	0.152
-134.385	412.878	0.076	-0.161
-133.370	-200.000	0.026	0.229
-132.356	6.289	0.064	0.047
-131.341	-113.112	0.249	-0.049
-130.326	25.877	-0.346	-0.288
-129.312	80.274	0.130	0.140
-128.297	-35.666	-0.321	0.174
-127.283	-19.223	-0.305	-0.189
-126.268	-200.000	-0.036	0.317
-125.253	-167.906	0.107	-0.004
-124.239	27.561	-0.059	0.050
-123.224	800.000	0.041	0.172
-122.210	-200.000	-0.004	0.197
-121.195	252.965	0.269	0.459
-120.180	800.000	-0.063	0.196
-119.166	30.215	-0.204	-0.174
-118.151	51.694	0.118	-0.112
-117.137	-43.840	0.107	0.054
-116.122	-200.000	-0.034	0.147
-115.107	623.327	-0.087	-0.218
-114.093	-49.785	-0.142	-0.067
-113.078	215.663	-0.022	-0.035
-112.064	-200.000	0.002	0.186
-111.049	387.708	0.162	0.334
-110.034	-127.314	0.171	0.025
-109.020	-51.622	0.108	-0.050
-108.005	35.330	-0.252	0.221
-106.991	-200.000	-0.062	-0.329
-105.976	90.517	-0.052	0.058
-104.962	-200.000	-0.050	0.272
-103.947	230.559	-0.107	0.174
-102.932	-76.446	-0.252	-0.088
-101.918	358.338	-0.059	-0.118
-100.903	-30.854	-0.084	0.047
-99.889	800.000	-0.078	-0.248
-98.874	96.378	-0.045	-0.051
-97.859	309.029	0.056	0.104
-96.845	-23.392	-0.372	-0.223
-95.830	-67.570	0.162	-0.063
-94.816	66.900	-0.060	0.060
-93.801	131.874	0.150	-0.192
-92.786	-0.880	-0.230	-0.162
-91.772	-128.740	-0.188	-0.026
-90.757	693.914	-0.067	-0.175
-89.743	-124.565	0.359	-0.056
-88.728	800.000	0.055	0.178
-87.713	-86.724	0.313	-0.096
-86.699	-148.829	-0.186	-0.015
-85.684	-64.893	0.251	0.101
-84.670	-152.726	-0.175	0.012
-83.655	301.033	0.023	-0.042
-82.640	-154.073	-0.197	0.013
-81.626	-200.000	-0.002	-0.084
-80.611	800.000	0.075	-0.325
-79.597	289.733	0.249	-0.451
-78.582	89.410	-0.165	0.184
-77.567	-27.613	0.159	0.092
-76.553	64.844	-0.245	0.246
-75.538	-58.960	0.291	0.125
-74.524	-151.417	0.336	0.025
-73.509	125.270	-0.216	0.272
-72.494	3.508	-0.220	-0.160
-71.480	-86.853	0.189	0.057
-70.465	-200.000	0.252	0.000
-69.451	-73.603	-0.328	-0.119
-68.436	-136.344	0.315	0.037
-67.422	-200.000	-0.012	0.323
-66.407	-143.203	-0.227	0.022
-65.392	-84.743	-0.364	-0.114
-64.378	334.958	-0.114	-0.221
-63.363	-33.030	-0.092	0.051
-62.349	13.802	0.173	0.134
-61.334	89.006	-0.713	-0.790
-60.319	-96.062	0.391	0.103
-59.305	-200.000	-0.005	-0.673
-58.290	303.435	0.466	0.861
-57.276	543.355	0.684	1.627
-56.261	-200.000	76.055	508.704
-55.246	516.065	1327.422	3089.751
-54.232	147.049	2558.383	3428.152
-53.217	115.614	2241.985	2730.490
-52.203	50.742	1767.152	1666.624
-51.188	43.640	1566.167	1427.149
-50.173	41.048	1536.202	1381.812
-49.159	57.149	1573.307	1528.383
-48.144	63.029	1593.231	1588.883
-47.130	44.356	1556.545	1423.174
-46.115	40.622	1542.514	1384.296
-45.100	40.437	1539.317	1380.084
-44.086	40.449	1536.822	1377.876
-43.071	40.356	1534.909	1375.466
-42.057	40.378	1532.878	1373.740
-41.042	40.253	1531.716	1371.781
-40.027	40.318	1529.773	1370.433
-39.013	40.315	1528.437	1369.166
-37.998	40.383	1527.130	1368.407
-36.984	40.348	1526.075	1367.163
-35.969	40.382	1524.738	1366.150
-34.954	40.487	1523.087	1365.336
-33.940	40.387	1521.865	1363.502
-32.925	40.516	1519.568	1362.272
-31.911	40.460	1518.979	1361.309
-30.896	40.519	1517.331	1360.182
-29.881	40.404	1516.437	1358.539
-28.867	40.463	1515.262	1357.833
-27.852	40.352	1513.376	1355.329
-26.838	40.457	1512.205	1354.950
-25.823	40.431	1510.476	1353.167
-24.809	40.372	1508.418	1350.867
-23.794	40.447	1507.125	1350.164
-22.779	40.403	1506.296	1349.067
-21.765	40.403	1504.899	1347.764
-20.750	40.476	1503.562	1347.010
-19.736	40.421	1502.624	1345.741
-18.721	40.471	1501.281	1344.827
-17.706	40.346	1500.318	1343.062
-16.692	40.363	1499.218	1342.141
-15.677	40.352	1498.289	1341.180
-14.663	40.294	1497.055	1339.632
-13.648	40.244	1496.391	1338.648
-12.633	40.435	1494.592	1338.270
-11.619	40.356	1494.229	1337.362
-10.604	40.296	1493.583	1336.326
-9.590	40.260	1492.795	1335.326
-8.575	40.264	1491.878	1334.476
-7.560	40.359	1490.751	1334.055
-6.546	40.315	1490.155	1333.173
-5.531	40.224	1489.109	1331.574
-4.517	40.281	1488.224	1331.115
-3.502	40.244	1487.240	1329.929
-2.487	40.384	1486.009	1329.719
-1.473	40.280	1484.761	1327.848
-0.458	40.297	1483.938	1327.175
0.556	40.859	1474.613	1317.488
1.571	38.265	1447.382	1276.136
2.586	34.618	1384.981	1198.175
3.600	32.486	1301.425	1113.197
4.615	30.656	1252.229	1060.598
5.629	25.265	1193.473	981.355
6.644	13.237	1100.939	844.130
7.659	4.006	1053.893	762.678
8.673	2.694	1047.564	751.603
9.688	2.343	1044.971	747.957
10.702	2.101	1043.226	745.463
11.717	2.213	1041.338	744.595
12.731	5.787	1045.456	764.931
13.746	16.562	1061.304	829.569
14.761	24.537	1071.918	877.129
15.775	25.754	1072.156	883.222
16.790	25.727	1071.640	882.584
17.804	25.771	1070.592	881.860
18.819	25.468	1070.146	879.931
19.834	25.660	1069.315	880.107
20.848	25.674	1068.593	879.503
21.863	25.745	1068.703	879.864
22.877	25.781	1067.830	879.245
23.892	25.624	1067.420	878.061
24.907	25.649	1066.516	877.361
25.921	25.688	1065.692	876.796
26.936	25.645	1065.463	876.319
27.950	25.604	1063.835	874.705
28.965	25.652	1062.440	873.716
29.980	25.377	1061.598	871.610
30.994	25.375	1060.517	870.634
32.009	25.535	1059.543	870.534
33.023	25.665	1059.183	870.790
34.038	25.577	1057.552	868.945
35.053	25.559	1057.164	868.464
36.067	25.627	1056.299	868.005
37.082	25.587	1055.895	867.401
38.096	25.590	1054.856	866.485
39.111	25.709	1054.507	866.698
40.126	25.931	1053.438	866.809
41.140	25.891	1052.384	865.673
42.155	25.499	1051.165	862.715
43.169	25.195	1049.909	860.148
44.184	25.218	1048.868	859.328
45.199	25.435	1047.503	859.172
46.213	25.295	1046.661	857.736
47.228	25.211	1045.900	856.636
48.242	25.485	1045.132	857.240
49.257	25.450	1044.774	856.704
50.271	25.583	1044.038	856.659
51.286	25.676	1043.463	856.550
52.301	25.575	1043.079	855.682
53.315	25.792	1041.757	855.550
54.330	25.715	1041.070	854.545
55.344	25.617	1040.338	853.404
56.359	25.576	1039.678	852.595
57.374	25.612	1039.174	852.274
58.388	25.557	1037.666	850.701
59.403	25.348	1037.408	849.426
60.417	25.418	1036.215	848.707
61.432	25.227	1035.873	847.448
62.447	25.210	1035.287	846.814
63.461	25.356	1034.854	847.074
64.476	25.390	1033.832	846.323
65.490	25.494	1032.549	845.686
66.505	25.328	1031.818	844.235
67.520	25.348	1030.803	843.422
68.534	25.395	1030.751	843.525
69.549	25.277	1029.342	841.745
70.563	25.003	1028.346	839.572
71.578	24.894	1027.727	838.482
72.593	24.852	1027.007	837.623
73.607	24.716	1025.608	835.771
74.622	24.801	1024.773	835.417
75.636	24.999	1024.279	835.860
76.651	25.237	1023.455	836.228
77.666	25.058	1022.615	834.630
78.680	24.896	1021.845	833.175
79.695	24.954	1021.423	833.028
80.709	25.060	1020.788	832.928
81.724	25.258	1019.977	833.112
82.739	25.267	1018.948	832.238
83.753	25.135	1018.545	831.227
84.768	25.513	1017.610	832.138
85.782	25.839	1017.715	833.662
86.797	26.037	1016.924	833.853
87.812	25.886	1015.990	832.316
88.826	25.801	1014.883	830.942
89.841	25.757	1014.309	830.195
90.855	25.875	1013.591	830.080
91.870	26.002	1012.351	829.577
92.884	25.948	1011.669	828.694
93.899	25.706	1011.133	827.069
94.914	25.679	1010.082	826.016
95.928	25.708	1009.039	825.219
96.943	25.953	1008.279	825.648
97.957	25.506	1007.521	822.910
98.972	25.383	1006.386	821.347
99.987	25.107	1005.139	818.997
101.001	25.218	1004.883	819.220
102.016	25.550	1004.222	820.123
103.030	25.605	1003.507	819.717
104.045	25.552	1002.083	818.243
105.060	25.470	1000.758	816.716
106.074	25.246	1000.109	815.098
107.089	25.299	999.330	814.629
108.103	25.574	998.814	815.382
109.118	25.678	998.164	815.251
110.133	25.348	997.028	812.760
111.147	25.210	996.214	811.398
112.162	25.109	995.015	809.893
113.176	25.003	993.586	808.182
114.191	25.096	993.397	808.373
115.206	25.258	992.554	808.347
116.220	25.025	991.061	806.012
117.235	24.885	990.228	804.633
118.249	24.945	989.919	804.580
119.264	24.900	989.282	803.790
120.279	24.909	988.230	802.904
121.293	24.916	987.301	802.109
122.308	25.032	986.820	802.171
123.322	24.994	986.061	801.310
124.337	25.000	984.872	800.299
125.352	24.943	983.591	798.933
126.366	24.472	982.318	795.730
127.381	24.125	981.069	793.103
128.395	24.714	980.909	795.524
129.410	25.372	980.169	797.781
130.424	25.430	980.067	797.882
131.439	25.561	978.790	797.355
132.454	25.410	978.205	796.138
133.468	25.503	977.444	795.859
134.483	25.435	976.487	794.710
135.497	25.407	975.743	793.909
136.512	25.753	974.981	794.749
137.527	25.817	974.502	794.569
138.541	25.753	974.049	793.846
139.556	25.839	972.877	793.199
140.570	25.730	972.745	792.542
141.585	25.824	971.648	791.992
142.600	25.871	970.768	791.412
143.614	25.795	969.831	790.245
144.629	25.904	969.123	790.074
145.643	26.101	968.861	790.656
146.658	26.047	967.644	789.352
147.673	25.936	965.947	787.416
148.687	25.611	965.369	785.458
149.702	25.514	964.762	784.469
150.716	25.448	963.101	782.762
151.731	25.482	962.314	782.200
152.746	25.533	961.776	781.917
153.760	25.679	961.284	782.080
154.775	25.855	960.783	782.371
155.789	26.005	959.411	781.834
156.804	25.893	958.726	780.720
157.819	25.976	957.666	780.148
158.833	25.793	957.177	778.889
159.848	25.959	956.233	778.769
160.862	26.054	955.471	778.488
161.877	25.770	954.689	776.561
162.892	25.768	953.822	775.777
163.906	25.880	953.068	775.578
164.921	25.853	952.072	774.579
165.935	25.760	950.980	773.226
166.950	25.773	950.176	772.561
167.964	25.864	949.230	772.109
168.979	25.981	947.690	771.291
169.994	25.816	946.587	769.621
171.008	25.675	945.778	768.292
172.023	25.712	945.367	768.049
173.037	25.873	944.505	767.964
174.052	25.729	943.582	766.532
175.067	25.603	942.461	765.022
176.081	25.668	941.542	764.481
177.096	25.555	941.226	763.678
178.110	25.584	940.106	762.826
179.125	25.516	938.881	761.476
180.140	25.179	938.090	759.341
181.154	25.195	937.324	758.722
182.169	25.266	936.545	758.322
183.183	25.544	936.376	759.293
184.198	25.876	936.088	760.396
185.213	25.758	935.506	759.356
186.227	25.729	934.855	758.639
187.242	25.690	934.519	758.136
188.256	25.796	933.667	757.824
189.271	25.958	932.728	757.674
190.286	25.983	932.201	757.283
191.300	25.917	930.658	755.688
192.315	25.201	929.610	751.771
193.329	24.408	928.254	747.287
194.344	24.173	926.657	744.953
195.359	24.654	927.350	747.453
196.373	25.453	927.791	751.086
197.388	25.720	927.568	751.953
198.402	25.499	926.982	750.490
199.417	25.720	926.196	750.708
200.432	25.757	925.924	750.576
201.446	25.721	924.654	749.332
202.461	25.376	924.405	747.629
203.475	25.401	924.045	747.373
204.490	24.967	922.440	744.208
205.504	23.917	920.178	737.961
206.519	24.130	920.186	738.785
207.534	25.139	920.994	743.555
208.548	25.285	920.200	743.454
209.563	25.522	919.959	744.176
210.577	25.719	919.096	744.224
211.592	25.382	918.328	742.146
212.607	25.721	918.600	743.698
213.621	26.008	917.947	744.292
214.636	25.864	917.282	743.092
215.650	25.934	916.666	742.815
216.665	25.710	915.967	741.260
217.680	25.935	915.380	741.643
218.694	26.001	915.093	741.618
219.709	25.762	913.904	739.608
220.723	25.401	912.752	737.128
221.738	25.684	912.221	737.795
222.753	25.733	911.825	737.610
223.767	25.701	911.396	737.066
224.782	25.810	910.377	736.625
225.796	25.905	909.812	736.490
226.811	26.107	909.500	736.996
227.826	25.627	908.589	734.237
228.840	24.836	907.265	729.876
229.855	24.638	906.214	728.159
230.869	24.938	905.985	729.132
231.884	24.726	904.847	727.290
232.899	24.707	904.244	726.662
233.913	25.367	904.766	729.700
234.928	25.626	904.215	730.244
235.942	25.576	903.410	729.327
236.957	25.607	902.763	728.863
237.972	25.278	901.698	726.611
238.986	25.251	900.884	725.779
240.001	25.342	900.926	726.119
241.015	25.457	900.148	725.892
242.030	25.495	899.209	725.221
243.045	25.606	899.081	725.501
244.059	25.604	898.828	725.227
245.074	25.785	898.372	725.525
246.088	25.773	897.417	724.641
247.103	25.468	896.365	722.500
248.117	25.450	896.006	722.075
249.132	25.953	895.967	723.998
250.147	26.299	895.952	725.314
251.161	26.481	894.793	725.040
252.176	26.511	895.197	725.422
253.190	26.539	894.298	724.741
254.205	26.582	893.545	724.241
255.220	26.845	893.141	724.899
256.234	26.831	892.580	724.327
257.249	26.709	891.447	722.854
258.263	26.521	891.300	721.921
259.278	26.612	890.451	721.533
260.293	26.605	890.257	721.283
261.307	26.711	889.986	721.422
262.322	26.626	889.001	720.221
263.336	26.640	888.003	719.404
264.351	25.917	887.240	715.855
265.366	24.889	885.207	710.073
266.380	24.521	884.072	707.642
267.395	25.400	884.508	711.412
268.409	26.120	885.088	714.666
269.424	26.056	884.585	713.943
270.439	26.165	883.817	713.692
271.453	26.315	883.070	713.617
272.468	26.339	882.318	713.042
273.482	26.458	882.208	713.361
274.497	26.668	881.695	713.708
275.512	26.567	880.157	712.004
276.526	25.915	879.130	708.549
277.541	26.150	878.729	709.085
278.555	26.454	878.707	710.201
279.570	26.229	877.848	708.559
280.585	26.198	877.398	708.011
281.599	26.332	876.754	707.954
282.614	26.382	875.997	707.475
283.628	25.843	875.035	704.531
284.643	25.558	874.493	702.918
285.657	25.854	874.582	704.083
286.672	25.820	873.777	703.240
287.687	25.377	872.326	700.282
288.701	25.588	872.716	701.357
289.716	26.083	872.249	702.848
290.730	25.790	871.202	700.805
291.745	25.574	870.937	699.689
292.760	25.514	869.767	698.452
293.774	25.441	869.031	697.517
294.789	26.183	869.939	701.066
295.803	26.802	870.079	703.520
296.818	26.945	869.494	703.539
297.833	27.009	868.831	703.187
298.847	26.864	867.596	701.563
299.862	26.380	866.657	698.873
300.876	26.618	866.150	699.323
301.891	26.884	866.273	700.386
302.906	26.912	865.677	699.951
303.920	26.671	864.132	697.711
304.935	26.587	863.544	696.850
305.949	26.773	863.658	697.597
306.964	26.971	862.996	697.763
307.979	26.863	862.137	696.591
308.993	26.694	861.712	695.536
310.008	26.963	861.312	696.185
311.022	27.238	860.944	696.880
312.037	26.858	860.570	695.059
313.052	26.725	859.583	693.692
314.066	26.630	859.014	692.806
315.081	26.022	857.437	689.151
316.095	25.143	856.250	684.783
317.110	25.671	856.357	686.823
318.125	26.484	856.466	689.953
319.139	26.191	855.628	688.101
320.154	24.979	854.094	682.191
321.168	24.487	852.987	679.373
322.183	24.925	853.537	681.421
323.197	26.102	853.409	685.735
324.212	26.349	853.435	686.631
325.227	26.631	853.203	687.453
326.241	26.666	852.606	687.047
327.256	26.575	851.930	686.094
328.270	26.429	851.336	685.005
329.285	26.501	850.224	684.320
330.300	26.261	849.872	683.071
331.314	26.045	848.970	681.469
332.329	26.037	848.352	680.882
333.343	26.557	848.259	682.709
334.358	26.849	848.250	683.741
335.373	26.771	847.212	682.549
336.387	26.681	846.906	681.907
337.402	26.978	846.740	682.827
338.416	27.314	846.460	683.807
339.431	27.256	845.486	682.741
340.446	27.263	845.060	682.363
341.460	27.386	844.796	682.552
342.475	27.371	844.157	681.918
343.489	27.195	843.356	680.550
344.504	27.200	842.864	680.113
345.519	27.434	842.684	680.782
346.533	27.665	842.438	681.388
347.548	27.798	841.549	681.104
348.562	27.651	841.073	680.111
349.577	27.641	840.672	679.689
350.592	27.546	840.064	678.781
351.606	27.403	839.860	678.024
352.621	27.479	839.364	677.846
353.635	27.466	838.908	677.372
354.650	27.459	837.579	676.211
355.665	27.085	837.160	674.425
356.679	25.880	835.650	668.682
357.694	25.819	835.227	668.057
358.708	26.523	834.978	670.409
359.723	26.579	834.352	670.052
360.738	26.633	834.233	670.098
361.752	27.275	833.972	672.201
362.767	27.446	833.346	672.271
363.781	27.339	833.729	672.125
364.796	27.811	833.345	673.498
365.810	27.942	832.681	673.385
366.825	27.908	832.451	673.012
367.840	27.987	832.370	673.178
368.854	27.845	831.725	672.075
369.869	27.407	830.641	669.530
370.883	27.237	830.286	668.559
371.898	27.289	829.561	668.105
372.913	27.228	828.779	667.194
373.927	27.273	828.026	666.695
374.942	27.452	827.577	666.928
375.956	27.503	827.059	666.639
376.971	27.656	826.313	666.537
377.986	27.721	825.985	666.453
379.000	27.922	825.726	666.919
380.015	27.815	825.320	666.139
381.029	27.793	824.296	665.174
382.044	27.663	823.878	664.305
383.059	27.799	823.250	664.237
384.073	28.053	822.836	664.766
385.088	28.008	822.571	664.330
386.102	28.000	821.840	663.651
387.117	27.727	821.225	662.104
388.132	27.635	820.356	661.014
389.146	27.457	820.038	660.054
390.161	26.886	818.923	657.031
391.175	26.897	818.700	656.834
392.190	27.479	818.941	659.074
393.205	27.595	817.919	658.612
394.219	26.622	816.461	653.871
395.234	25.101	813.696	646.119
396.248	24.179	812.703	641.953
397.263	25.036	814.087	646.081
398.278	26.841	815.472	653.635
399.292	27.566	815.413	656.141
400.307	27.066	814.634	653.658
401.321	27.027	813.974	652.931
402.336	27.152	813.522	652.959
403.350	27.590	813.548	654.497
404.365	28.019	813.513	655.951
405.380	28.171	813.396	656.341
406.394	28.423	813.362	657.159
407.409	28.620	813.049	657.556
408.423	28.588	812.572	656.998
409.438	28.495	811.906	656.066
410.453	28.398	811.083	654.998
411.467	28.638	810.641	655.439
412.482	28.685	810.419	655.368
413.496	28.446	810.154	654.245
414.511	28.416	810.135	654.066
415.526	28.460	809.413	653.580
416.540	28.627	808.836	653.652
417.555	28.567	808.205	652.871
418.569	28.278	807.207	650.980
419.584	28.128	807.117	650.315
420.599	28.433	806.253	650.646
421.613	96.062	1265.274	1380.095
422.628	82.472	1332.194	1380.219
