DTS Sentinel unit serial number:	SN413079Multiplexer serial number:	ORYXHardware model number:	OX4-SRSoftware version number:	ORYX F/W v4.00 Oryx Data Collector v3.7.2.0data status	okinstallation	princeton_trtdifferential loss correction	single-endedforward channel	channel 3reverse channel	N/Adate	2019/09/18time	11:28:35forward acquisition time	60.00reverse acquisition time	0.00gamma	496.2192k internal	0.2326k external	0.2326temperature offset calibration	0.9957default loss term (dB/km)	0.3790temperature slope calibration	1.0000multiplexer offset coefficient	1.0000multiplexer slope coefficient	1.0000fibre end	0.00T internal ref (°C)	30.36T ext. ref 1 (°C)	0.43T ext. ref 2 (°C)	28.19length (m)	temperature (°C)	Stokes	anti-Stokes-747.200	71.917	0.307	0.323
-746.185	-143.109	-0.423	0.041
-745.171	-200.000	-0.008	0.140
-744.156	-71.921	-0.388	0.146
-743.142	-50.728	0.189	-0.090
-742.127	1.922	-0.106	0.077
-741.112	-26.806	-0.210	-0.124
-740.098	-200.000	-0.006	0.030
-739.083	-27.168	0.173	0.101
-738.069	800.000	-0.074	0.320
-737.054	-36.373	0.295	-0.160
-736.039	800.000	-0.023	-0.102
-735.025	-200.000	0.010	-0.114
-734.010	-200.000	-0.056	-0.353
-732.996	5.634	0.065	0.049
-731.981	-88.680	0.272	0.082
-730.966	-116.162	-0.250	0.047
-729.952	632.898	0.169	-0.432
-728.937	485.743	-0.019	0.044
-727.923	-32.018	-0.341	-0.193
-726.908	171.530	-0.007	0.011
-725.894	9.512	0.057	-0.043
-724.879	-16.481	-0.393	-0.251
-723.864	208.165	0.067	-0.106
-722.850	143.424	-0.175	-0.235
-721.835	-105.258	-0.145	0.033
-720.821	130.574	0.192	0.248
-719.806	23.368	0.278	-0.230
-718.791	800.000	0.050	-0.222
-717.777	-173.227	-0.225	0.007
-716.762	47.050	-0.239	0.224
-715.748	-200.000	-0.005	0.107
-714.733	-179.864	0.411	0.009
-713.718	-22.713	0.373	0.227
-712.704	-157.009	0.214	0.013
-711.689	208.299	0.215	0.338
-710.675	-8.789	0.381	0.258
-709.660	91.181	0.067	-0.076
-708.645	326.867	-0.235	-0.454
-707.631	800.000	0.086	0.357
-706.616	-90.437	0.232	0.068
-705.602	34.626	-0.023	-0.020
-704.587	462.652	0.139	0.313
-703.572	-7.120	0.161	-0.110
-702.558	800.000	0.041	-0.168
-701.543	251.731	-0.239	-0.409
-700.529	-160.675	-0.300	-0.016
-699.514	-113.155	-0.275	0.055
-698.499	264.816	0.133	0.233
-697.485	509.751	0.133	0.312
-696.470	800.000	-0.102	0.319
-695.456	-145.674	-0.421	-0.038
-694.441	203.938	-0.189	0.294
-693.426	-131.702	-0.426	-0.056
-692.412	-188.368	-0.361	0.005
-691.397	800.000	0.152	-0.526
-690.383	-179.102	-0.236	0.005
-689.368	-6.067	0.310	-0.214
-688.354	-9.024	0.082	0.055
-687.339	172.242	-0.125	-0.181
-686.324	-200.000	-0.009	-0.238
-685.310	800.000	-0.053	0.214
-684.295	51.279	0.120	-0.115
-683.281	189.460	-0.179	-0.271
-682.266	-141.100	0.159	-0.016
-681.251	800.000	-0.088	-0.246
-680.237	-28.689	0.092	0.053
-679.222	51.479	-0.259	-0.248
-678.208	-162.779	-0.346	0.017
-677.193	99.042	0.103	-0.120
-676.178	-76.513	-0.525	-0.186
-675.164	-143.703	0.212	-0.020
-674.149	-112.830	-0.326	-0.065
-673.135	800.000	-0.034	-0.114
-672.120	-200.000	-0.008	-0.287
-671.105	342.111	0.112	0.220
-670.091	464.117	-0.083	-0.186
-669.076	-84.913	-0.181	0.057
-668.062	800.000	-0.044	-0.134
-667.047	186.211	-0.103	-0.154
-666.032	-200.000	0.004	0.092
-665.018	222.378	-0.058	0.094
-664.003	-101.222	0.354	0.087
-662.989	-200.000	0.002	-0.152
-661.974	125.513	-0.319	0.405
-660.959	-200.000	-0.013	0.069
-659.945	1.823	0.230	0.167
-658.930	-37.377	0.039	-0.021
-657.916	-200.000	-0.352	0.000
-656.901	-22.557	-0.316	-0.192
-655.886	-112.659	-0.320	0.064
-654.872	66.552	-0.236	-0.241
-653.857	347.966	0.179	-0.354
-652.843	800.000	0.056	0.234
-651.828	-72.787	0.113	-0.042
-650.814	35.312	-0.138	-0.122
-649.799	-151.440	-0.317	0.024
-648.784	-200.000	0.044	-0.221
-647.770	-15.869	0.104	0.067
-646.755	-70.112	-0.266	0.102
-645.741	-70.454	-0.114	0.043
-644.726	-30.446	-0.185	-0.105
-643.711	-140.772	-0.419	-0.043
-642.697	-200.000	-0.052	-0.394
-641.682	46.059	-0.036	0.033
-640.668	-22.458	0.205	0.124
-639.653	778.194	-0.016	-0.043
-638.638	-200.000	-0.037	-0.287
-637.624	800.000	-0.083	-0.362
-636.609	213.061	-0.193	0.306
-635.595	-43.174	-0.144	0.073
-634.580	-200.000	0.011	-0.051
-633.565	329.254	-0.177	-0.342
-632.551	145.756	-0.061	0.082
-631.536	-127.320	-0.043	0.006
-630.522	-59.889	-0.195	0.084
-629.507	35.919	0.125	-0.111
-628.492	120.638	-0.236	-0.294
-627.478	-22.945	0.287	-0.174
-626.463	800.000	-0.082	0.352
-625.449	-90.010	0.093	0.027
-624.434	121.938	-0.412	-0.516
-623.419	-6.669	0.108	-0.074
-622.405	4.322	-0.106	-0.078
-621.390	-200.000	-0.054	0.266
-620.376	-166.268	-0.342	0.015
-619.361	-156.016	-0.138	-0.009
-618.346	800.000	0.023	-0.091
-617.332	-200.000	-0.034	-0.272
-616.317	-200.000	0.024	0.147
-615.303	45.344	-0.173	-0.161
-614.288	718.247	-0.139	0.372
-613.273	-111.441	-0.085	0.017
-612.259	-165.793	-0.025	-0.001
-611.244	121.990	0.169	0.212
-610.230	-135.476	-0.161	0.019
-609.215	112.803	-0.105	0.128
-608.201	-200.000	-0.009	-0.121
-607.186	800.000	-0.072	-0.279
-606.171	-28.766	0.271	-0.157
-605.157	-104.580	0.018	0.004
-604.142	91.029	0.055	0.062
-603.128	800.000	-0.024	0.075
-602.113	-113.080	-0.297	-0.059
-601.098	212.769	0.196	0.310
-600.084	-200.000	0.018	-0.191
-599.069	-130.411	-0.173	-0.023
-598.055	108.808	-0.111	0.133
-597.040	-63.505	0.087	0.036
-596.025	14.762	-0.082	0.064
-595.011	107.141	-0.210	0.251
-593.996	152.112	0.157	0.215
-592.982	-200.000	-0.056	0.369
-591.967	380.348	0.071	-0.146
-590.952	-125.127	0.110	0.017
-589.938	128.316	0.216	0.276
-588.923	198.819	-0.078	-0.120
-587.909	-121.119	0.198	0.033
-586.894	78.360	0.175	0.187
-585.879	-48.254	-0.223	0.108
-584.865	-40.940	0.120	-0.062
-583.850	132.529	0.101	0.131
-582.836	456.374	0.083	-0.186
-581.821	-30.509	0.232	-0.132
-580.806	-98.719	0.400	0.102
-579.792	12.572	0.324	-0.251
-578.777	-56.228	-0.287	0.128
-577.763	492.121	-0.160	0.367
-576.748	-175.108	-0.276	0.008
-575.733	-104.577	-0.204	0.047
-574.719	-200.000	0.035	-0.421
-573.704	800.000	-0.078	-0.258
-572.690	178.282	-0.071	-0.104
-571.675	92.918	0.373	0.422
-570.661	129.371	0.053	-0.068
-569.646	245.320	-0.204	-0.343
-568.631	92.656	0.156	-0.177
-567.617	-98.200	-0.131	0.034
-566.602	-172.905	-0.158	-0.005
-565.588	-7.806	-0.025	-0.017
-564.573	-200.000	0.056	-0.000
-563.558	800.000	0.008	-0.024
-562.544	621.558	0.054	0.137
-561.529	237.386	-0.232	0.385
-560.515	122.771	-0.270	-0.339
-559.500	-4.236	0.101	-0.070
-558.485	800.000	0.140	0.543
-557.471	-132.588	0.235	0.030
-556.456	-200.000	-0.019	-0.225
-555.442	800.000	-0.117	-0.410
-554.427	-124.533	-0.183	0.028
-553.412	-20.143	-0.242	-0.149
-552.398	207.538	-0.022	0.035
-551.383	20.546	0.056	-0.045
-550.369	-62.062	-0.306	-0.128
-549.354	238.475	-0.057	0.094
-548.339	-115.534	0.083	-0.016
-547.325	-200.000	-0.009	0.185
-546.310	-120.551	0.123	-0.021
-545.296	-200.000	0.016	-0.071
-544.281	557.295	-0.042	0.102
-543.266	-200.000	0.089	-0.431
-542.252	-43.210	-0.160	-0.081
-541.237	59.946	-0.132	0.130
-540.223	-55.834	-0.155	0.069
-539.208	-6.989	-0.304	-0.207
-538.193	276.337	0.075	-0.133
-537.179	-87.656	-0.273	-0.082
-536.164	-87.711	-0.027	-0.008
-535.150	178.587	0.075	-0.110
-534.135	-146.660	0.128	-0.011
-533.121	-136.221	-0.178	-0.021
-532.106	-77.676	-0.398	-0.138
-531.091	4.796	0.203	-0.150
-530.077	45.949	0.111	0.102
-529.062	-37.861	0.152	0.081
-528.048	-200.000	-0.002	0.159
-527.033	9.644	0.261	0.198
-526.018	51.285	0.122	0.116
-525.004	50.880	-0.087	-0.082
-523.989	-200.000	-0.037	-0.341
-522.975	13.766	-0.211	-0.164
-521.960	271.055	-0.097	0.171
-520.945	-200.000	-0.000	0.178
-519.931	-195.675	0.494	-0.004
-518.916	301.219	0.090	-0.166
-517.902	-167.541	0.183	-0.007
-516.887	392.390	-0.078	-0.162
-515.872	-111.113	-0.028	0.006
-514.858	-200.000	-0.016	-0.232
-513.843	576.608	0.090	0.219
-512.829	-200.000	0.066	0.321
-511.814	26.502	0.164	-0.137
-510.799	38.212	-0.159	-0.141
-509.785	-27.024	-0.053	0.031
-508.770	163.023	0.306	-0.429
-507.756	259.712	-0.209	-0.361
-506.741	-158.974	-0.078	0.004
-505.726	-200.000	-0.022	0.307
-504.712	79.193	-0.124	-0.133
-503.697	-192.696	-0.273	0.003
-502.683	-200.000	0.037	0.176
-501.668	-61.175	0.159	0.067
-500.653	-122.523	0.341	-0.055
-499.639	223.771	-0.216	0.348
-498.624	95.653	0.218	0.248
-497.610	-35.333	0.093	0.051
-496.595	96.778	-0.156	-0.179
-495.581	57.538	-0.309	-0.301
-494.566	-158.889	0.047	-0.003
-493.551	-200.000	-0.023	-0.127
-492.537	-63.336	0.201	-0.083
-491.522	-56.532	-0.132	-0.058
-490.508	233.300	0.057	0.093
-489.493	68.515	-0.052	-0.053
-488.478	800.000	0.028	-0.098
-487.464	32.417	-0.305	-0.263
-486.449	375.791	0.078	0.160
-485.435	8.527	-0.317	0.238
-484.420	594.897	0.183	0.452
-483.405	71.431	-0.037	0.039
-482.391	-104.987	0.364	-0.083
-481.376	58.051	-0.024	-0.023
-480.362	-200.000	0.001	0.180
-479.347	-200.000	0.037	-0.182
-478.332	277.581	0.110	-0.195
-477.318	800.000	0.054	-0.234
-476.303	-5.214	-0.198	-0.136
-475.289	-151.462	0.254	-0.019
-474.274	39.105	0.130	0.116
-473.259	473.654	-0.047	-0.105
-472.245	-200.000	-0.021	-0.149
-471.230	-87.291	0.279	0.085
-470.216	-200.000	-0.000	0.129
-469.201	800.000	-0.029	-0.091
-468.186	-83.252	-0.312	0.100
-467.172	-90.273	0.296	-0.086
-466.157	800.000	0.073	0.201
-465.143	800.000	-0.068	-0.242
-464.128	800.000	-0.064	0.227
-463.113	264.310	-0.144	-0.250
-462.099	-129.073	0.258	0.036
-461.084	800.000	0.048	-0.159
-460.070	-67.055	-0.195	-0.077
-459.055	309.503	-0.121	-0.226
-458.040	-82.428	0.436	0.141
-457.026	-200.000	0.051	0.438
-456.011	800.000	0.031	0.119
-454.997	-120.142	-0.352	0.060
-453.982	69.140	0.278	0.285
-452.968	63.734	0.042	0.042
-451.953	26.832	0.092	0.077
-450.938	-200.000	-0.021	-0.130
-449.924	43.939	0.120	-0.110
-448.909	-70.128	0.222	-0.084
-447.895	-3.864	-0.330	0.229
-446.880	-200.000	-0.027	0.387
-445.865	50.234	0.104	-0.098
-444.851	-200.000	-0.037	-0.264
-443.836	800.000	-0.046	-0.127
-442.822	447.542	-0.146	0.321
-441.807	-53.875	0.034	-0.015
-440.792	-87.912	0.130	0.039
-439.778	-118.651	-0.102	-0.018
-438.763	-71.005	0.324	-0.122
-437.749	790.741	-0.080	0.220
-436.734	107.098	0.203	-0.241
-435.719	800.000	0.071	-0.262
-434.705	-182.185	-0.333	0.006
-433.690	-200.000	-0.049	0.289
-432.676	-104.308	0.345	-0.080
-431.661	800.000	0.069	0.238
-430.646	74.731	0.111	0.117
-429.632	-65.601	-0.187	-0.075
-428.617	20.913	0.160	-0.129
-427.603	-200.000	-0.022	-0.263
-426.588	-3.683	0.187	0.129
-425.573	368.895	-0.019	0.039
-424.559	-5.655	-0.043	0.030
-423.544	-16.165	-0.112	-0.071
-422.530	800.000	-0.048	0.164
-421.515	431.207	0.049	0.107
-420.500	61.308	0.150	-0.149
-419.486	653.475	-0.055	-0.142
-418.471	556.878	0.098	0.236
-417.457	-200.000	-0.001	0.093
-416.442	165.297	0.211	-0.297
-415.428	120.735	0.063	0.078
-414.413	-200.000	0.019	0.339
-413.398	-200.000	-0.065	0.460
-412.384	-83.288	-0.192	0.062
-411.369	-200.000	0.023	-0.116
-410.355	-66.400	0.168	-0.066
-409.340	636.110	0.069	0.175
-408.325	-149.550	-0.186	0.015
-407.311	184.962	-0.090	0.132
-406.296	66.809	-0.190	0.193
-405.282	-102.596	0.146	-0.035
-404.267	-200.000	0.039	0.221
-403.252	-45.600	-0.095	0.047
-402.238	-98.838	0.086	-0.022
-401.223	-52.238	0.341	0.157
-400.209	800.000	-0.188	0.516
-399.194	-137.645	-0.113	-0.013
-398.179	-115.609	-0.175	0.033
-397.165	15.450	-0.144	0.112
-396.150	-40.226	0.095	-0.049
-395.136	-88.772	-0.167	-0.049
-394.121	-113.499	-0.292	-0.057
-393.106	-33.632	0.028	-0.015
-392.092	-190.606	-0.345	0.004
-391.077	7.220	-0.301	0.224
-390.063	-62.772	0.187	0.077
-389.048	-88.377	0.013	0.004
-388.033	289.918	0.037	0.067
-387.019	-89.208	-0.248	0.073
-386.004	-63.859	-0.027	-0.011
-384.990	228.198	0.223	0.362
-383.975	75.248	0.033	-0.034
-382.960	-200.000	0.033	0.180
-381.946	176.530	-0.136	-0.197
-380.931	-103.132	0.114	0.027
-379.917	238.659	-0.183	0.302
-378.902	800.000	0.074	-0.280
-377.888	96.069	-0.219	-0.249
-376.873	108.124	-0.069	0.082
-375.858	-200.000	0.036	0.218
-374.844	-65.200	0.240	-0.096
-373.829	294.411	0.093	-0.169
-372.815	-200.000	-0.015	0.218
-371.800	-158.147	0.329	-0.019
-370.785	-127.121	-0.315	-0.046
-369.771	-54.105	0.090	-0.041
-368.756	29.439	0.121	0.102
-367.742	-137.408	-0.159	0.018
-366.727	141.129	0.269	0.354
-365.712	423.297	-0.073	0.155
-364.698	25.097	0.240	-0.198
-363.683	237.786	-0.133	0.219
-362.669	310.214	0.092	0.171
-361.654	-200.000	-0.003	-0.123
-360.639	304.950	-0.101	-0.187
-359.625	144.408	0.083	-0.110
-358.610	178.946	-0.194	0.281
-357.596	-43.089	-0.093	-0.047
-356.581	436.836	-0.116	0.250
-355.566	-39.375	0.390	0.203
-354.552	42.004	0.241	-0.217
-353.537	89.624	0.192	0.213
-352.523	-100.028	-0.164	-0.041
-351.508	-99.442	0.328	0.082
-350.493	161.406	-0.060	0.083
-349.479	517.339	0.040	-0.092
-348.464	-200.000	0.019	0.142
-347.450	-200.000	0.026	-0.130
-346.435	-167.319	0.056	-0.002
-345.420	-200.000	0.272	-0.000
-344.406	176.284	0.239	0.344
-343.391	-200.000	0.023	0.125
-342.377	-66.352	0.071	-0.028
-341.362	-200.000	0.023	-0.178
-340.348	-133.050	-0.257	-0.032
-339.333	206.397	0.084	-0.131
-338.318	232.061	0.176	-0.286
-337.304	-123.619	0.157	0.025
-336.289	274.022	0.136	-0.239
-335.275	-95.133	-0.467	-0.125
-334.260	-147.606	-0.219	-0.018
-333.245	-135.601	-0.097	0.011
-332.231	-118.667	0.364	-0.064
-331.216	34.234	-0.150	0.130
-330.202	-200.000	-0.006	-0.323
-329.187	97.076	0.037	-0.042
-328.172	-47.345	0.072	0.035
-327.158	758.952	-0.070	-0.187
-326.143	-147.866	-0.380	-0.031
-325.129	43.992	-0.224	-0.203
-324.114	800.000	0.073	-0.276
-323.099	-32.122	0.249	-0.138
-322.085	-44.127	-0.288	-0.143
-321.070	-200.000	0.049	0.350
-320.056	-42.232	0.143	0.072
-319.041	492.490	-0.063	0.144
-318.026	64.591	0.336	0.336
-317.012	-200.000	0.041	0.336
-315.997	-89.128	0.209	0.061
-314.983	-55.631	0.126	-0.056
-313.968	-148.711	-0.205	-0.016
-312.953	659.563	0.099	-0.252
-311.939	79.120	-0.112	-0.119
-310.924	25.852	0.245	-0.202
-309.910	213.460	-0.017	-0.027
-308.895	98.646	0.100	0.115
-307.880	-24.539	0.126	0.074
-306.866	41.730	-0.109	-0.098
-305.851	40.998	0.150	-0.134
-304.837	37.039	0.246	-0.216
-303.822	528.537	0.132	-0.308
-302.807	-200.000	-0.047	0.291
-301.793	-200.000	-0.010	-0.299
-300.778	-49.303	0.384	-0.182
-299.764	-154.448	-0.070	-0.005
-298.749	-39.498	-0.197	-0.102
-297.735	18.786	-0.328	-0.261
-296.720	264.671	-0.110	-0.190
-295.705	440.781	0.217	-0.470
-294.691	-108.190	-0.374	0.080
-293.676	-25.311	0.218	0.128
-292.662	187.482	0.101	-0.149
-291.647	-102.848	-0.085	0.020
-290.632	-114.678	-0.217	-0.041
-289.618	44.427	-0.169	0.153
-288.603	113.343	-0.177	0.212
-287.589	-152.300	-0.234	0.017
-286.574	87.029	0.273	-0.299
-285.559	246.306	0.083	-0.139
-284.545	18.386	0.143	0.113
-283.530	210.621	0.058	-0.090
-282.516	104.317	-0.117	0.137
-281.501	70.131	-0.113	-0.115
-280.486	-109.722	0.413	0.086
-279.472	800.000	-0.090	0.313
-278.457	-96.649	0.156	0.041
-277.443	426.622	-0.161	0.343
-276.428	800.000	-0.047	0.155
-275.413	-165.137	0.521	-0.023
-274.399	-145.816	-0.227	0.020
-273.384	-9.752	0.076	0.050
-272.370	-200.000	0.001	0.281
-271.355	-102.725	-0.235	0.055
-270.340	-68.944	-0.336	0.128
-269.326	-85.359	0.141	0.044
-268.311	-146.480	0.216	0.019
-267.297	-106.080	-0.113	0.025
-266.282	204.110	-0.113	0.174
-265.267	-26.466	0.064	0.037
-264.253	121.858	0.215	0.266
-263.238	-11.348	-0.124	0.081
-262.224	-28.969	0.401	0.228
-261.209	-146.942	0.347	0.029
-260.195	-98.649	0.166	0.042
-259.180	-200.000	0.019	-0.193
-258.165	47.004	-0.026	0.024
-257.151	-197.345	-0.458	-0.003
-256.136	37.723	0.123	-0.108
-255.122	-200.000	0.031	-0.234
-254.107	-19.885	0.292	-0.178
-253.092	270.994	-0.081	-0.141
-252.078	-122.120	0.272	-0.044
-251.063	-200.000	0.002	-0.270
-250.049	-63.091	-0.236	0.096
-249.034	-200.000	-0.024	0.133
-248.019	-125.646	0.338	-0.051
-247.005	406.705	0.211	-0.440
-245.990	557.285	0.062	0.149
-244.976	-196.437	0.128	0.001
-243.961	-200.000	-0.016	0.193
-242.946	-14.609	0.157	-0.100
-241.932	-18.159	0.405	-0.250
-240.917	-34.826	-0.170	-0.092
-239.903	800.000	0.047	-0.180
-238.888	669.964	-0.050	0.129
-237.873	226.631	0.142	-0.228
-236.859	93.796	-0.019	-0.021
-235.844	-108.235	0.162	-0.035
-234.830	-132.863	0.270	-0.034
-233.815	-74.927	-0.081	-0.029
-232.800	91.981	0.285	-0.317
-231.786	51.213	-0.278	-0.261
-230.771	102.241	-0.178	-0.206
-229.757	488.444	0.057	-0.129
-228.742	-30.260	0.390	-0.219
-227.727	-200.000	-0.034	0.271
-226.713	-52.453	-0.040	0.019
-225.698	-200.000	0.020	0.114
-224.684	181.059	-0.041	-0.060
-223.669	30.827	0.204	-0.173
-222.655	-192.970	-0.287	-0.003
-221.640	237.670	-0.184	0.302
-220.625	371.888	0.058	0.116
-219.611	-82.990	-0.198	0.063
-218.596	-200.000	-0.051	0.246
-217.582	680.232	-0.128	-0.329
-216.567	434.725	-0.115	0.247
-215.552	95.551	0.079	-0.089
-214.538	-200.000	-0.022	0.284
-213.523	-39.280	-0.028	0.015
-212.509	-200.000	0.022	-0.134
-211.494	98.715	0.206	0.235
-210.479	-200.000	0.032	0.311
-209.465	310.245	-0.081	-0.149
-208.450	800.000	-0.039	0.122
-207.436	121.952	0.158	0.194
-206.421	800.000	0.112	0.340
-205.406	193.157	0.074	-0.111
-204.392	800.000	-0.064	0.192
-203.377	57.944	-0.119	-0.115
-202.363	-200.000	-0.031	-0.197
-201.348	-6.514	0.235	0.158
-200.333	193.447	-0.124	0.185
-199.319	311.343	0.100	-0.186
-198.304	-76.465	0.155	0.054
-197.290	-86.794	-0.325	0.098
-196.275	-46.633	-0.080	-0.039
-195.260	366.950	-0.172	0.343
-194.246	-200.000	-0.060	-0.311
-193.231	-169.721	-0.074	0.003
-192.217	-151.893	0.595	0.043
-191.202	-200.000	0.039	-0.175
-190.187	168.331	0.042	0.059
-189.173	-12.321	-0.278	-0.179
-188.158	231.293	0.125	0.203
-187.144	-200.000	-0.010	-0.158
-186.129	800.000	-0.062	0.172
-185.114	-115.575	0.268	0.050
-184.100	-61.196	-0.144	-0.060
-183.085	332.592	0.129	-0.245
-182.071	-138.289	-0.322	0.035
-181.056	-200.000	-0.007	0.097
-180.042	-9.072	-0.276	-0.182
-179.027	-128.662	-0.522	0.073
-178.012	150.332	-0.153	-0.206
-176.998	-3.323	0.244	0.168
-175.983	-71.304	-0.257	0.095
-174.969	-42.408	0.212	0.107
-173.954	-4.817	-0.141	0.096
-172.939	-164.619	-0.561	0.025
-171.925	229.690	-0.122	-0.196
-170.910	-113.683	-0.311	0.060
-169.896	-200.000	0.278	0.000
-168.881	-2.082	0.096	-0.066
-167.866	-200.000	0.016	-0.236
-166.852	-70.715	-0.197	0.073
-165.837	-147.967	0.036	0.003
-164.823	800.000	-0.107	0.309
-163.808	78.621	0.222	-0.234
-162.793	-200.000	-0.405	0.001
-161.779	800.000	-0.032	0.118
-160.764	-200.000	0.037	0.201
-159.750	185.123	0.098	0.143
-158.735	-83.574	0.104	-0.033
-157.720	-104.932	0.311	0.070
-156.706	-4.668	0.297	-0.202
-155.691	-156.349	-0.407	-0.025
-154.677	-92.605	0.111	-0.031
-153.662	310.421	0.150	-0.276
-152.647	-200.000	-0.010	-0.229
-151.633	-150.537	0.089	-0.007
-150.618	-75.426	0.136	-0.048
-149.604	162.239	-0.066	0.092
-148.589	-150.285	0.124	0.009
-147.574	127.137	0.164	-0.205
-146.560	-7.231	0.124	-0.083
-145.545	38.816	-0.058	-0.051
-144.531	-149.401	-0.170	0.013
-143.516	-134.704	0.196	-0.023
-142.502	372.288	-0.164	0.329
-141.487	77.757	0.118	0.124
-140.472	-122.182	0.067	-0.011
-139.458	-110.056	0.025	-0.005
-138.443	-25.851	0.193	0.112
-137.429	-39.016	-0.042	-0.022
-136.414	-92.828	-0.283	0.078
-135.399	-200.000	0.016	0.148
-134.385	-26.923	-0.052	0.030
-133.370	-200.000	-0.002	-0.249
-132.356	-200.000	-0.096	0.430
-131.341	63.208	-0.104	0.103
-130.326	374.791	0.167	0.334
-129.312	-118.592	-0.217	0.038
-128.297	-90.134	-0.184	0.053
-127.283	31.193	-0.180	-0.152
-126.268	133.507	0.047	0.060
-125.253	188.592	0.167	0.246
-124.239	-135.021	-0.157	0.019
-123.224	-200.000	0.020	-0.159
-122.210	-145.024	0.077	0.007
-121.195	-57.278	-0.131	0.057
-120.180	92.351	-0.163	-0.181
-119.166	423.184	0.162	-0.343
-118.151	800.000	-0.022	0.062
-117.137	263.470	-0.110	0.188
-116.122	-200.000	0.026	-0.200
-115.107	-149.032	0.341	-0.027
-114.093	800.000	0.134	-0.398
-113.078	-200.000	-0.046	-0.285
-112.064	-49.313	-0.108	0.051
-111.049	-41.754	-0.227	-0.115
-110.034	800.000	0.101	-0.377
-109.020	108.907	0.025	0.029
-108.005	-119.403	-0.329	0.056
-106.991	-200.000	-0.027	0.183
-105.976	5.307	0.183	0.133
-104.962	99.459	-0.039	-0.044
-103.947	252.192	-0.145	0.244
-102.932	146.310	0.102	0.134
-101.918	-165.469	0.120	0.005
-100.903	-70.457	0.329	-0.123
-99.889	17.155	0.062	-0.049
-98.874	450.622	-0.041	-0.089
-97.859	196.686	0.090	0.135
-96.845	6.868	-0.063	0.046
-95.830	345.542	-0.234	0.452
-94.816	340.952	-0.095	0.183
-93.801	111.997	0.056	-0.066
-92.786	63.951	-0.167	-0.165
-91.772	19.712	-0.271	-0.215
-90.757	-44.919	-0.165	-0.081
-89.743	269.645	0.105	0.181
-88.728	-36.081	0.220	0.117
-87.713	800.000	-0.028	-0.092
-86.699	800.000	-0.035	0.144
-85.684	620.959	-0.054	0.133
-84.670	-146.692	0.195	0.017
-83.655	-85.178	-0.410	0.126
-82.640	-200.000	-0.014	-0.084
-81.626	-115.074	0.070	-0.013
-80.611	800.000	-0.047	0.133
-79.597	428.232	-0.075	-0.159
-78.582	800.000	-0.043	0.154
-77.567	-116.186	-0.511	-0.093
-76.553	187.583	-0.141	0.206
-75.538	193.697	0.150	0.224
-74.524	269.350	-0.041	-0.070
-73.509	230.939	-0.104	-0.168
-72.494	-151.926	0.342	0.025
-71.480	-200.000	0.050	0.274
-70.465	769.424	-0.064	-0.171
-69.451	800.000	-0.102	-0.359
-68.436	800.000	-0.160	-0.477
-67.422	173.899	-0.027	-0.038
-66.407	-88.817	-0.150	-0.044
-65.392	-200.000	0.013	-0.063
-64.378	161.555	0.094	-0.129
-63.363	669.670	-0.049	0.125
-62.349	-200.000	-0.007	0.035
-61.334	24.778	-1.017	-0.828
-60.319	208.591	0.382	0.587
-59.305	800.000	-0.292	-1.096
-58.290	430.254	0.545	1.159
-57.276	254.156	0.964	1.618
-56.261	-200.000	98.987	565.423
-55.246	475.009	1437.036	3185.372
-54.232	149.676	2642.653	3516.293
-53.217	107.908	2209.744	2585.254
-52.203	41.051	1729.658	1533.789
-51.188	33.475	1534.805	1308.861
-50.173	31.090	1507.734	1269.521
-49.159	51.141	1558.729	1451.657
-48.144	52.095	1576.417	1474.678
-47.130	33.752	1535.542	1311.198
-46.115	30.752	1519.840	1277.191
-45.100	30.482	1516.629	1272.591
-44.086	30.477	1514.984	1271.124
-43.071	30.423	1512.850	1268.915
-42.057	30.386	1510.956	1267.025
-41.042	30.408	1509.496	1265.901
-40.027	30.453	1508.023	1264.921
-39.013	30.374	1506.729	1263.251
-37.998	30.250	1505.841	1261.609
-36.984	30.389	1503.554	1260.590
-35.969	30.360	1502.456	1259.418
-34.954	30.353	1501.133	1258.216
-33.940	30.249	1500.128	1256.618
-32.925	30.454	1498.258	1256.390
-31.911	30.372	1497.659	1255.283
-30.896	30.434	1495.705	1254.009
-29.881	30.471	1494.843	1253.486
-28.867	30.494	1492.941	1251.996
-27.852	30.353	1491.941	1250.158
-26.838	30.496	1490.173	1249.595
-25.823	30.400	1489.141	1248.029
-24.809	30.384	1487.016	1246.096
-23.794	30.469	1485.982	1245.749
-22.779	30.360	1485.000	1244.144
-21.765	30.430	1483.866	1243.617
-20.750	30.484	1482.169	1242.503
-19.736	30.394	1481.672	1241.436
-18.721	30.319	1480.528	1239.926
-17.706	30.411	1478.672	1238.940
-16.692	30.348	1478.109	1237.999
-15.677	30.317	1477.023	1236.833
-14.663	30.277	1475.955	1235.621
-13.648	30.286	1474.752	1234.624
-12.633	30.323	1474.070	1234.249
-11.619	30.360	1473.422	1233.905
-10.604	30.281	1472.434	1232.502
-9.590	30.384	1471.312	1232.203
-8.575	30.312	1470.667	1231.133
-7.560	30.321	1469.735	1230.361
-6.546	30.251	1468.823	1229.085
-5.531	30.296	1467.885	1228.550
-4.517	30.323	1466.787	1227.767
-3.502	30.248	1466.188	1226.715
-2.487	30.320	1464.745	1225.938
-1.473	30.350	1464.241	1225.661
-0.458	30.322	1462.446	1223.932
0.556	29.126	1453.397	1215.598
1.571	26.774	1429.433	1180.156
2.586	23.684	1368.217	1110.231
3.600	22.000	1284.904	1032.638
4.615	20.482	1239.426	987.378
5.629	17.457	1182.532	925.545
6.644	8.833	1094.779	813.194
7.659	1.706	1053.291	747.412
8.673	0.590	1047.665	737.902
9.688	0.419	1044.449	734.740
10.702	0.403	1043.193	733.714
11.717	0.318	1041.167	731.813
12.731	2.936	1043.967	746.449
13.746	11.140	1054.833	794.297
14.761	16.862	1061.577	827.312
15.775	17.101	1061.256	828.154
16.790	16.709	1059.317	824.658
17.804	15.518	1057.475	817.359
18.819	14.697	1055.668	811.898
19.834	14.312	1054.442	809.013
20.848	13.994	1053.274	806.505
21.863	13.746	1052.472	804.616
22.877	13.441	1051.990	802.697
23.892	13.366	1050.853	801.394
24.907	13.172	1049.970	799.711
25.921	13.134	1049.611	799.182
26.936	13.236	1048.585	798.827
27.950	13.260	1048.063	798.473
28.965	13.285	1047.391	798.012
29.980	13.240	1046.710	797.204
30.994	13.393	1045.148	796.679
32.009	13.343	1044.541	795.909
33.023	13.455	1043.339	795.459
34.038	13.419	1043.114	795.044
35.053	13.394	1042.414	794.321
36.067	13.410	1041.173	793.382
37.082	13.316	1040.613	792.433
38.096	13.340	1039.703	791.785
39.111	13.384	1038.949	791.351
40.126	13.335	1038.207	790.481
41.140	13.388	1037.299	789.975
42.155	13.328	1035.841	788.507
43.169	13.192	1035.359	787.421
44.184	13.139	1034.173	786.200
45.199	13.274	1033.013	785.890
46.213	13.236	1032.203	785.022
47.228	13.172	1031.113	783.820
48.242	13.248	1030.232	783.444
49.257	13.424	1029.247	783.458
50.271	13.319	1028.489	782.313
51.286	13.355	1026.971	781.260
52.301	13.283	1026.814	780.732
53.315	13.275	1025.453	779.593
54.330	13.392	1025.042	779.760
55.344	13.232	1024.290	778.368
56.359	13.294	1022.724	777.397
57.374	13.374	1021.817	777.016
58.388	13.328	1020.956	776.076
59.403	13.272	1020.441	775.354
60.417	13.189	1019.862	774.455
61.432	13.177	1019.317	773.916
62.447	13.165	1018.714	773.336
63.461	13.146	1017.922	772.576
64.476	13.190	1016.580	771.697
65.490	13.149	1015.894	770.916
66.505	13.125	1015.283	770.271
67.520	13.172	1014.563	769.876
68.534	13.247	1013.491	769.343
69.549	13.248	1012.638	768.633
70.563	13.098	1012.561	767.808
71.578	13.280	1011.318	767.645
72.593	13.155	1010.643	766.482
73.607	13.132	1009.655	765.559
74.622	13.109	1008.903	764.816
75.636	13.073	1007.606	763.598
76.651	13.080	1007.679	763.619
77.666	13.051	1006.341	762.404
78.680	13.104	1005.693	762.087
79.695	13.151	1005.096	761.785
80.709	13.241	1004.621	761.771
81.724	13.100	1003.805	760.436
82.739	13.212	1002.423	759.836
83.753	13.183	1002.087	759.381
84.768	13.161	1001.503	758.770
85.782	13.301	1000.406	758.514
86.797	13.360	999.828	758.282
87.812	13.306	998.869	757.237
88.826	13.350	997.660	756.456
89.841	13.291	996.864	755.518
90.855	13.254	996.497	755.006
91.870	13.367	995.594	754.768
92.884	13.384	994.715	754.111
93.899	13.397	994.302	753.793
94.914	13.354	993.418	752.859
95.928	13.527	992.448	752.845
96.943	13.600	991.560	752.433
97.957	13.507	991.196	751.671
98.972	13.289	990.553	750.126
99.987	13.258	989.777	749.334
101.001	13.432	988.680	749.224
102.016	13.447	987.888	748.626
103.030	13.380	987.105	747.664
104.045	13.359	986.267	746.865
105.060	13.464	985.042	746.346
106.074	13.440	984.311	745.621
107.089	13.384	983.488	744.677
108.103	13.324	982.955	743.939
109.118	13.258	981.947	742.810
110.133	13.221	981.096	741.937
111.147	13.263	980.097	741.305
112.162	13.300	979.123	740.667
113.176	13.307	978.184	739.923
114.191	13.249	977.443	739.039
115.206	13.425	976.528	739.067
116.220	13.295	975.863	737.918
117.235	13.303	975.105	737.313
118.249	13.279	974.343	736.568
119.264	13.243	973.446	735.665
120.279	13.223	972.530	734.817
121.293	13.272	971.624	734.283
122.308	13.250	970.713	733.432
123.322	13.352	970.052	733.323
124.337	13.292	968.925	732.140
125.352	13.173	967.904	730.778
126.366	13.280	966.941	730.459
127.381	13.246	965.787	729.372
128.395	13.271	964.734	728.620
129.410	13.209	963.893	727.650
130.424	13.252	963.137	727.205
131.439	13.322	961.771	726.416
132.454	13.231	961.226	725.540
133.468	13.346	960.387	725.345
134.483	13.405	959.949	725.208
135.497	13.462	958.939	724.633
136.512	13.256	958.426	723.280
137.527	13.432	957.366	723.184
138.541	13.329	956.882	722.304
139.556	13.374	956.093	721.841
140.570	13.246	955.826	721.017
141.585	13.341	954.803	720.596
142.600	13.436	953.690	720.106
143.614	13.571	953.111	720.194
144.629	13.437	952.480	719.068
145.643	13.540	951.519	718.728
146.658	13.572	950.633	718.132
147.673	13.481	949.844	717.080
148.687	13.356	949.083	715.901
149.702	13.409	948.409	715.559
150.716	13.355	947.232	714.375
151.731	13.396	946.220	713.723
152.746	13.390	945.540	713.125
153.760	13.519	945.254	713.399
154.775	13.480	943.926	712.168
155.789	13.517	943.392	711.860
156.804	13.460	942.626	710.973
157.819	13.403	941.846	710.078
158.833	13.428	941.613	709.945
159.848	13.560	940.446	709.568
160.862	13.551	939.986	709.123
161.877	13.606	939.270	708.754
162.892	13.696	937.996	708.116
163.906	13.584	937.071	706.876
164.921	13.605	936.448	706.431
165.935	13.549	935.392	705.335
166.950	13.421	934.432	704.003
167.964	13.666	933.264	704.101
168.979	13.584	932.907	703.423
169.994	13.532	932.139	702.562
171.008	13.686	930.919	702.231
172.023	13.708	929.912	701.502
173.037	13.586	929.756	700.808
174.052	13.693	928.569	700.302
175.067	13.822	927.968	700.332
176.081	13.603	927.595	699.062
177.096	13.691	926.264	698.369
178.110	13.561	925.867	697.459
179.125	13.683	924.588	696.948
180.140	13.775	923.895	696.750
181.154	13.733	923.648	696.328
182.169	13.823	922.679	695.912
183.183	13.763	922.104	695.164
184.198	13.878	921.448	695.091
185.213	13.716	920.918	693.951
186.227	13.763	920.421	693.713
187.242	13.806	920.050	693.550
188.256	13.958	918.932	693.281
189.271	13.917	918.665	692.847
190.286	13.990	917.664	692.335
191.300	13.882	916.491	690.939
192.315	13.614	916.380	689.682
193.329	13.644	915.988	689.447
194.344	13.730	914.986	688.991
195.359	13.709	913.943	688.058
196.373	13.789	913.687	688.135
197.388	13.903	912.964	688.001
198.402	13.934	912.668	687.848
199.417	14.053	912.344	688.034
200.432	13.992	911.753	687.275
201.446	13.998	911.390	686.966
202.461	14.053	910.934	686.787
203.475	14.084	910.844	686.790
204.490	14.126	910.002	686.268
205.504	14.079	909.062	685.303
206.519	14.060	908.545	684.775
207.534	13.937	907.894	683.717
208.548	14.070	906.827	683.398
209.563	14.135	905.894	682.904
210.577	14.016	905.249	681.866
211.592	14.075	904.984	681.850
212.607	14.049	904.482	681.303
213.621	14.022	903.871	680.673
214.636	14.243	902.488	680.476
215.650	14.211	902.086	679.983
216.665	14.285	901.411	679.712
217.680	14.145	901.203	678.928
218.694	14.300	900.819	679.207
219.709	14.385	899.826	678.745
220.723	14.449	899.076	678.380
221.738	14.222	898.736	677.140
222.753	14.313	897.788	676.735
223.767	14.320	897.181	676.248
224.782	14.216	896.539	675.283
225.796	14.424	895.509	675.291
226.811	14.430	894.818	674.732
227.826	14.459	894.277	674.384
228.840	14.295	893.912	673.386
229.855	14.398	892.789	672.896
230.869	14.488	892.445	672.938
231.884	14.373	891.896	672.002
232.899	14.339	891.157	671.249
233.913	14.292	890.990	670.875
234.928	14.350	889.722	670.095
235.942	14.331	889.080	669.475
236.957	14.310	888.566	668.944
237.972	14.349	887.747	668.425
238.986	14.324	887.313	667.939
240.001	14.424	887.008	668.048
241.015	14.395	886.018	667.130
242.030	14.458	885.301	666.781
243.045	14.390	884.718	666.013
244.059	14.702	883.727	666.452
245.074	14.542	883.550	665.622
246.088	14.452	883.228	664.961
247.103	14.640	882.262	664.923
248.117	14.730	881.421	664.592
249.132	14.594	881.192	663.817
250.147	14.660	880.648	663.613
251.161	14.659	879.841	662.941
252.176	14.924	879.009	663.307
253.190	14.931	878.302	662.741
254.205	14.991	877.430	662.263
255.220	14.945	877.210	661.855
256.234	14.912	876.423	661.073
257.249	14.901	876.009	660.661
258.263	14.928	875.513	660.334
259.278	15.015	874.688	659.995
260.293	14.948	874.249	659.341
261.307	15.047	873.535	659.134
262.322	14.996	873.623	658.941
263.336	14.894	872.671	657.767
264.351	15.057	872.220	658.005
265.366	15.134	871.125	657.426
266.380	15.129	871.000	657.255
267.395	15.087	870.046	656.311
268.409	15.046	869.761	655.877
269.424	15.113	868.435	655.082
270.439	15.184	868.156	655.090
271.453	15.125	867.023	653.948
272.468	15.058	866.256	653.050
273.482	15.042	865.818	652.599
274.497	15.087	865.001	652.099
275.512	15.051	864.751	651.714
276.526	15.144	863.863	651.348
277.541	15.099	863.509	650.849
278.555	15.190	862.690	650.528
279.570	15.172	862.105	649.958
280.585	15.445	861.262	650.323
281.599	15.377	861.266	650.006
282.614	15.296	860.342	648.939
283.628	15.276	859.845	648.428
284.643	15.260	859.567	648.098
285.657	15.138	859.042	647.174
286.672	15.286	858.407	647.209
287.687	15.394	857.775	647.094
288.701	15.501	856.654	646.603
289.716	15.496	856.315	646.270
290.730	15.293	856.221	645.361
291.745	15.551	855.262	645.572
292.760	15.522	854.387	644.745
293.774	15.509	853.887	644.259
294.789	15.594	853.350	644.121
295.803	15.414	853.179	643.248
296.818	15.528	852.343	642.994
297.833	15.516	851.759	642.453
298.847	15.562	850.983	641.985
299.862	15.481	850.553	641.297
300.876	15.491	849.822	640.728
301.891	15.585	848.999	640.406
302.906	15.544	848.669	639.945
303.920	15.669	847.388	639.398
304.935	15.628	847.143	639.001
305.949	15.681	846.653	638.776
306.964	15.722	845.976	638.366
307.979	15.683	845.436	637.752
308.993	15.791	844.807	637.631
310.008	15.690	844.440	636.915
311.022	15.652	843.866	636.284
312.037	15.784	843.215	636.236
313.052	15.805	843.003	636.098
314.066	15.804	842.020	635.295
315.081	15.792	841.541	634.832
316.095	15.875	841.102	634.759
317.110	15.727	840.554	633.732
318.125	15.809	839.784	633.403
319.139	15.775	839.434	632.955
320.154	15.709	839.220	632.488
321.168	15.732	838.327	631.846
322.183	15.720	837.952	631.463
323.197	15.859	837.141	631.317
324.212	15.920	836.615	631.095
325.227	15.975	836.266	630.980
326.241	15.911	835.631	630.207
327.256	15.904	834.855	629.539
328.270	15.894	834.352	629.065
329.285	15.927	833.896	628.789
330.300	15.960	833.299	628.407
331.314	15.862	833.138	627.867
332.329	15.890	832.194	627.202
333.343	15.975	831.093	626.632
334.358	15.958	831.238	626.623
335.373	16.149	830.398	626.644
336.387	16.059	830.197	626.105
337.402	16.179	829.432	625.917
338.416	16.063	829.102	625.180
339.431	16.155	828.446	624.974
340.446	16.205	827.638	624.492
341.460	16.095	827.446	623.885
342.475	16.114	826.732	623.362
343.489	16.341	825.898	623.517
344.504	16.308	825.437	622.993
345.519	16.282	824.768	622.335
346.533	16.366	824.366	622.287
347.548	16.460	823.927	622.248
348.562	16.378	823.398	621.491
349.577	16.253	823.104	620.753
350.592	16.283	822.468	620.330
351.606	16.183	822.152	619.669
352.621	16.452	821.140	619.839
353.635	16.314	821.087	619.239
354.650	16.308	820.582	618.778
355.665	16.429	820.053	618.770
356.679	16.378	819.980	618.474
357.694	16.513	819.161	618.294
358.708	16.410	818.263	617.183
359.723	16.269	818.334	616.670
360.738	16.419	817.830	616.781
361.752	16.366	817.258	616.102
362.767	16.401	816.569	615.655
363.781	16.587	816.398	616.152
364.796	16.668	815.477	615.694
365.810	16.565	815.522	615.301
366.825	16.655	814.681	614.940
367.840	16.788	814.337	615.108
368.854	16.776	813.870	614.655
369.869	16.758	813.328	614.128
370.883	16.622	812.957	613.302
371.898	16.635	812.230	612.746
372.913	16.775	811.428	612.591
373.927	16.753	811.301	612.361
374.942	16.681	810.571	611.496
375.956	16.751	809.957	611.230
376.971	16.784	809.646	611.062
377.986	16.787	809.133	610.632
379.000	16.794	808.286	609.963
380.015	16.899	808.101	610.148
381.029	16.900	807.207	609.424
382.044	16.953	806.712	609.185
383.059	16.898	806.469	608.752
384.073	16.908	805.744	608.185
385.088	17.010	805.150	608.049
386.102	17.044	804.577	607.685
387.117	16.828	804.283	606.635
388.132	16.880	803.888	606.468
389.146	16.849	803.588	606.077
390.161	17.027	803.037	606.245
391.175	17.020	802.500	605.760
392.190	17.091	802.193	605.728
393.205	16.971	801.796	604.948
394.219	17.115	801.236	604.986
395.234	17.083	800.863	604.535
396.248	17.085	800.207	603.996
397.263	17.047	799.683	603.410
398.278	17.043	799.541	603.234
399.292	16.974	799.285	602.744
400.307	16.941	798.761	602.178
401.321	17.073	798.150	602.131
402.336	16.993	798.008	601.689
403.350	17.163	797.545	601.888
404.365	17.144	796.859	601.248
405.380	17.113	796.713	600.976
406.394	17.337	795.422	600.743
407.409	17.188	795.310	600.077
408.423	17.210	794.766	599.691
409.438	17.264	794.518	599.642
410.453	17.245	794.327	599.376
411.467	17.309	793.645	599.036
412.482	17.393	793.016	598.803
413.496	17.483	792.795	598.902
414.511	17.300	792.679	598.116
415.526	17.411	792.278	598.151
416.540	17.385	791.828	597.667
417.555	17.499	791.391	597.684
418.569	17.437	790.928	597.062
419.584	17.465	790.461	596.757
420.599	17.410	789.959	596.132
421.613	109.475	1290.200	1468.310
422.628	93.967	1363.076	1468.418
