DTS Sentinel unit serial number:	SN413079Multiplexer serial number:	ORYXHardware model number:	OX4-SRSoftware version number:	ORYX F/W v4.00 Oryx Data Collector v3.7.2.0data status	okinstallation	princeton_trtdifferential loss correction	single-endedforward channel	channel 3reverse channel	N/Adate	2019/09/14time	10:16:35forward acquisition time	60.00reverse acquisition time	0.00gamma	496.2192k internal	0.2308k external	0.2308temperature offset calibration	1.0052default loss term (dB/km)	0.3790temperature slope calibration	1.0000multiplexer offset coefficient	1.0000multiplexer slope coefficient	1.0000fibre end	0.00T internal ref (°C)	34.02T ext. ref 1 (°C)	4.11T ext. ref 2 (°C)	32.81length (m)	temperature (°C)	Stokes	anti-Stokes-747.200	-0.303	0.066	-0.047
-746.185	-200.000	-0.055	0.537
-745.171	317.394	-0.084	0.161
-744.156	373.941	-0.110	0.227
-743.142	800.000	0.006	0.024
-742.127	155.811	0.193	-0.271
-741.112	-95.612	0.049	0.013
-740.098	447.905	-0.207	0.463
-739.083	800.000	0.033	0.127
-738.069	-45.118	-0.275	0.139
-737.054	-140.645	-0.100	-0.010
-736.039	24.034	-0.166	-0.139
-735.025	-107.392	0.213	-0.047
-734.010	-200.000	0.019	-0.188
-732.996	-28.811	-0.202	-0.118
-731.981	-200.000	-0.022	-0.280
-730.966	-200.000	0.050	0.259
-729.952	-200.000	-0.040	-0.202
-728.937	270.291	-0.059	-0.106
-727.923	188.288	0.029	0.044
-726.908	-75.983	0.196	-0.070
-725.894	-57.591	0.116	-0.052
-724.879	-20.648	-0.293	0.183
-723.864	-21.308	-0.278	0.172
-722.850	591.860	-0.089	0.223
-721.835	-200.000	-0.001	-0.034
-720.821	-200.000	-0.025	-0.324
-719.806	-123.474	-0.312	-0.050
-718.791	-200.000	0.011	0.442
-717.777	65.256	0.071	0.073
-716.762	-46.754	-0.275	0.137
-715.748	-200.000	0.006	0.086
-714.733	-55.162	-0.303	-0.138
-713.718	800.000	-0.036	0.124
-712.704	-200.000	0.052	-0.388
-711.689	-200.000	-0.021	0.165
-710.675	-75.528	0.251	0.091
-709.660	800.000	0.068	0.198
-708.645	-172.056	-0.121	-0.004
-707.631	-109.862	-0.228	-0.048
-706.616	36.342	-0.162	-0.145
-705.602	-200.000	-0.005	0.056
-704.587	544.119	-0.073	0.178
-703.572	147.212	-0.140	0.191
-702.558	-200.000	0.020	-0.206
-701.543	-135.367	0.099	-0.012
-700.529	-127.133	0.184	0.027
-699.514	19.204	-0.167	0.136
-698.499	-33.288	0.114	0.064
-697.485	33.409	-0.159	-0.140
-696.470	409.546	-0.082	0.176
-695.456	-27.551	-0.141	0.083
-694.441	800.000	-0.049	0.201
-693.426	10.944	0.118	0.092
-692.412	-150.818	0.271	-0.021
-691.397	672.833	-0.096	-0.253
-690.383	234.443	0.075	0.125
-689.368	-75.448	0.167	-0.060
-688.354	175.294	-0.027	0.040
-687.339	800.000	0.111	0.355
-686.324	-75.355	0.285	-0.103
-685.310	-200.000	-0.012	0.149
-684.295	262.718	-0.209	0.369
-683.281	66.409	0.272	0.280
-682.266	-78.878	0.135	0.047
-681.251	-116.705	0.018	0.003
-680.237	199.952	-0.095	-0.147
-679.222	-120.880	-0.306	-0.052
-678.208	-67.578	-0.278	0.111
-677.193	73.374	-0.069	-0.073
-676.178	296.236	-0.060	-0.111
-675.164	-136.088	0.104	0.012
-674.149	346.398	0.102	-0.203
-673.135	776.088	-0.049	0.136
-672.120	-200.000	0.000	0.037
-671.105	133.146	0.087	-0.113
-670.091	-200.000	0.022	0.114
-669.076	416.490	0.195	0.421
-668.062	300.390	-0.080	-0.149
-667.047	183.698	0.148	0.221
-666.032	-133.484	-0.262	-0.033
-665.018	-200.000	-0.235	-0.001
-664.003	800.000	-0.107	0.342
-662.989	-42.988	0.279	0.143
-661.974	-200.000	-0.001	-0.056
-660.959	-200.000	0.029	-0.161
-659.945	585.310	-0.015	-0.037
-658.930	535.571	0.151	0.362
-657.916	-89.486	-0.336	0.100
-656.901	21.060	0.261	0.214
-655.886	-55.695	-0.234	0.106
-654.872	360.151	-0.113	0.230
-653.857	37.792	-0.317	0.285
-652.843	21.771	-0.066	-0.054
-651.828	800.000	-0.013	0.038
-650.814	-60.923	-0.071	-0.031
-649.799	-4.360	-0.162	0.113
-648.784	800.000	-0.035	0.097
-647.770	800.000	0.018	-0.054
-646.755	800.000	-0.012	-0.044
-645.741	19.472	-0.064	0.052
-644.726	-23.723	0.021	0.013
-643.711	264.644	0.122	0.215
-642.697	-120.838	-0.281	-0.048
-641.682	143.028	0.188	0.253
-640.668	82.020	-0.063	-0.069
-639.653	-200.000	-0.045	-0.311
-638.638	-54.674	0.124	-0.057
-637.624	-18.728	0.070	-0.044
-636.609	-33.515	0.200	0.112
-635.595	800.000	0.093	0.281
-634.580	128.503	0.213	0.274
-633.565	-64.004	0.119	0.049
-632.551	-60.464	0.122	-0.052
-631.536	-78.104	-0.374	0.130
-630.522	-140.599	-0.153	0.016
-629.507	-140.036	-0.064	0.007
-628.492	-200.000	-0.025	-0.138
-627.478	14.622	-0.158	0.125
-626.463	-25.460	-0.055	-0.033
-625.449	800.000	0.038	0.145
-624.434	160.617	0.158	0.222
-623.419	-200.000	-0.000	0.146
-622.405	-83.607	0.292	-0.094
-621.390	120.570	-0.160	-0.201
-620.376	227.227	-0.160	0.263
-619.361	-200.000	0.010	-0.081
-618.346	59.263	-0.219	-0.218
-617.332	66.003	0.275	-0.282
-616.317	-36.533	-0.165	0.090
-615.303	-200.000	0.002	0.089
-614.288	127.881	0.041	0.053
-613.273	664.048	0.058	-0.150
-612.259	800.000	0.055	0.232
-611.244	-40.358	-0.349	-0.184
-610.230	-157.744	0.210	0.013
-609.215	-197.816	0.054	0.000
-608.201	-53.990	-0.143	0.066
-607.186	800.000	0.060	-0.233
-606.171	-67.335	0.385	0.153
-605.157	392.163	0.050	0.105
-604.142	-55.411	-0.306	-0.139
-603.128	39.467	0.116	-0.105
-602.113	514.274	0.041	-0.098
-601.098	800.000	0.043	-0.162
-600.084	594.267	-0.071	-0.176
-599.069	-111.490	0.148	-0.031
-598.055	382.199	0.083	-0.173
-597.040	-200.000	0.013	0.091
-596.025	-200.000	-0.001	-0.018
-595.011	341.152	-0.116	-0.229
-593.996	-19.654	0.043	0.027
-592.982	1.406	-0.305	-0.222
-591.967	-156.077	-0.153	-0.010
-590.952	-107.691	0.217	0.048
-589.938	-200.000	0.023	0.337
-588.923	-200.000	0.015	0.129
-587.909	99.049	0.269	0.314
-586.894	-200.000	0.011	0.244
-585.879	800.000	0.030	0.086
-584.865	-160.452	-0.206	0.011
-583.850	726.435	0.155	0.416
-582.836	-143.767	0.405	-0.039
-581.821	-200.000	0.009	0.131
-580.806	166.938	0.286	0.410
-579.792	80.490	0.140	0.152
-578.777	8.450	-0.166	0.126
-577.763	-60.483	-0.332	0.142
-576.748	60.032	0.328	-0.327
-575.733	-4.570	0.130	0.091
-574.719	70.115	-0.247	0.258
-573.704	77.875	0.255	0.274
-572.690	-191.663	0.307	-0.003
-571.675	-13.785	-0.072	0.047
-570.661	-200.000	0.097	-0.434
-569.646	800.000	0.020	-0.072
-568.631	-43.295	-0.111	-0.057
-567.617	-162.435	0.208	0.010
-566.602	45.217	-0.248	-0.230
-565.588	177.487	-0.124	-0.182
-564.573	800.000	0.030	0.128
-563.558	-145.036	0.337	-0.031
-562.544	80.713	0.309	-0.336
-561.529	-45.141	0.128	0.064
-560.515	-79.963	-0.194	-0.066
-559.500	-200.000	-0.001	-0.313
-558.485	-200.000	-0.016	-0.084
-557.471	-72.898	0.234	-0.087
-556.456	42.083	-0.116	-0.106
-555.442	-96.540	0.233	-0.062
-554.427	800.000	-0.091	-0.257
-553.412	800.000	-0.073	-0.241
-552.398	-28.005	-0.217	-0.127
-551.383	307.680	0.097	0.182
-550.369	114.053	0.291	-0.358
-549.354	303.537	-0.135	-0.252
-548.339	80.154	0.143	0.155
-547.325	25.672	0.244	0.205
-546.310	164.403	-0.209	-0.297
-545.296	-92.037	-0.164	-0.047
-544.281	-200.000	-0.020	0.261
-543.266	255.242	-0.081	0.140
-542.252	557.366	0.049	-0.120
-541.237	76.983	0.227	-0.243
-540.223	-138.366	-0.373	-0.041
-539.208	171.081	0.140	-0.203
-538.193	-163.856	-0.330	-0.016
-537.179	8.351	0.271	-0.206
-536.164	-200.000	-0.030	-0.196
-535.150	192.925	-0.120	-0.183
-534.135	-150.553	-0.120	0.009
-533.121	-137.745	-0.194	0.022
-532.106	771.079	-0.054	-0.149
-531.091	166.949	-0.101	-0.145
-530.077	109.728	-0.241	-0.292
-529.062	-75.143	0.161	0.058
-528.048	17.680	0.082	-0.066
-527.033	800.000	-0.106	-0.338
-526.018	-32.913	0.176	0.099
-525.004	6.789	0.115	0.086
-523.989	390.894	-0.024	-0.050
-522.975	72.235	-0.102	-0.107
-521.960	-200.000	0.002	-0.067
-520.945	-161.336	0.096	-0.005
-519.931	630.594	0.091	0.233
-518.916	-161.601	0.285	0.015
-517.902	-1.475	0.040	0.029
-516.887	-56.243	-0.118	-0.053
-515.872	-200.000	0.028	-0.186
-514.858	-19.209	-0.436	-0.273
-513.843	433.389	-0.198	-0.434
-512.829	-155.153	-0.381	0.025
-511.814	-50.790	0.082	-0.039
-510.799	-200.000	-0.013	0.136
-509.785	-85.146	0.071	-0.022
-508.770	-158.787	0.152	0.009
-507.756	-25.126	-0.142	0.085
-506.741	-200.000	-0.008	-0.232
-505.726	35.741	0.026	0.023
-504.712	-200.000	-0.018	-0.145
-503.697	-52.082	-0.198	-0.093
-502.683	-200.000	0.024	-0.184
-501.668	641.602	-0.008	-0.021
-500.653	13.111	-0.111	-0.087
-499.639	101.544	-0.073	0.086
-498.624	-32.766	0.161	0.090
-497.610	-185.139	0.078	0.001
-496.595	11.852	0.085	0.066
-495.581	124.045	-0.167	-0.211
-494.566	-200.000	-0.007	-0.153
-493.551	-200.000	-0.029	0.144
-492.537	-200.000	0.006	0.490
-491.522	123.234	0.095	0.119
-490.508	800.000	0.067	-0.217
-489.493	137.220	0.178	-0.235
-488.478	84.605	0.229	0.252
-487.464	800.000	-0.118	-0.366
-486.449	71.449	-0.211	0.220
-485.435	-141.215	0.305	-0.031
-484.420	-126.708	0.097	-0.015
-483.405	54.919	-0.193	0.188
-482.391	-88.371	0.137	0.041
-481.376	800.000	-0.074	0.253
-480.362	52.688	0.140	-0.134
-479.347	194.781	-0.168	0.257
-478.332	-113.573	-0.221	0.043
-477.318	74.845	0.013	-0.014
-476.303	28.761	0.140	0.120
-475.289	-62.316	-0.405	-0.170
-474.274	170.381	-0.240	0.346
-473.259	-200.000	0.058	-0.273
-472.245	-26.723	0.233	0.137
-471.230	-200.000	-0.019	0.132
-470.216	-177.328	0.288	0.007
-469.201	-75.499	0.272	0.097
-468.186	72.735	-0.087	-0.092
-467.172	150.340	-0.097	-0.133
-466.157	60.251	0.222	0.221
-465.143	-66.717	0.241	-0.096
-464.128	-36.944	-0.256	0.138
-463.113	-89.197	-0.173	-0.051
-462.099	-200.000	0.034	0.175
-461.084	-139.964	-0.448	-0.048
-460.070	403.927	0.077	-0.162
-459.055	394.478	-0.077	0.162
-458.040	-37.572	0.196	0.105
-457.026	-200.000	0.007	0.062
-456.011	-79.390	-0.145	-0.049
-454.997	-100.555	-0.174	-0.043
-453.982	-76.097	0.101	-0.036
-452.968	-200.000	-0.258	0.001
-451.953	72.674	-0.090	0.094
-450.938	705.804	-0.083	0.221
-449.924	89.476	0.204	0.229
-448.909	-200.000	-0.009	-0.302
-447.895	-124.186	0.081	-0.013
-446.880	-200.000	-0.033	-0.247
-445.865	-176.401	-0.120	0.003
-444.851	-200.000	0.043	0.335
-443.836	761.798	-0.053	-0.146
-442.822	448.700	-0.138	0.306
-441.807	-67.400	-0.118	0.047
-440.792	-200.000	0.009	0.090
-439.778	800.000	0.064	0.201
-438.763	78.446	0.353	0.379
-437.749	72.449	-0.137	0.144
-436.734	-1.600	-0.123	0.087
-435.719	42.482	-0.349	0.319
-434.705	48.412	0.153	-0.144
-433.690	284.271	-0.141	0.255
-432.676	333.051	0.142	0.275
-431.661	8.615	0.210	0.159
-430.646	-85.042	-0.106	-0.033
-429.632	-75.180	-0.138	0.049
-428.617	29.927	0.150	0.129
-427.603	-200.000	-0.020	0.091
-426.588	-11.294	-0.030	0.020
-425.573	-26.581	0.221	0.130
-424.559	23.656	-0.114	-0.094
-423.544	57.298	-0.311	0.305
-422.530	24.169	-0.131	0.109
-421.515	-14.967	-0.014	-0.009
-420.500	24.848	0.315	-0.262
-419.486	-77.599	0.187	-0.065
-418.471	-53.453	0.278	0.128
-417.457	67.787	0.072	-0.074
-416.442	-200.000	-0.044	0.505
-415.428	-25.923	-0.130	0.077
-414.413	-111.090	-0.266	0.055
-413.398	15.530	-0.073	-0.058
-412.384	-14.513	-0.211	-0.136
-411.369	89.637	-0.135	0.151
-410.355	261.501	-0.074	-0.128
-409.340	-35.404	-0.226	-0.123
-408.325	135.291	-0.124	-0.162
-407.311	-41.580	0.132	0.068
-406.296	122.828	0.261	0.328
-405.282	-120.658	-0.366	0.062
-404.267	-200.000	-0.022	-0.170
-403.252	75.688	-0.131	0.138
-402.238	-119.332	0.354	0.062
-401.223	161.912	0.157	0.220
-400.209	-115.237	-0.256	0.049
-399.194	25.374	-0.069	-0.058
-398.179	703.128	-0.125	-0.330
-397.165	-200.000	-0.053	-0.303
-396.150	-131.145	0.198	-0.026
-395.136	135.971	-0.141	-0.184
-394.121	-200.000	0.051	-0.239
-393.106	28.185	-0.081	0.068
-392.092	-200.000	-0.008	0.079
-391.077	-6.928	0.016	0.011
-390.063	800.000	0.050	-0.168
-389.048	800.000	-0.035	-0.136
-388.033	-200.000	0.006	-0.062
-387.019	-23.750	-0.326	-0.196
-386.004	-17.564	0.117	-0.074
-384.990	-40.271	0.236	-0.123
-383.975	64.973	-0.040	-0.040
-382.960	-15.382	0.125	-0.080
-381.946	107.157	0.109	-0.130
-380.931	-36.936	0.174	-0.093
-379.917	26.221	0.186	0.155
-378.902	205.508	-0.084	-0.131
-377.888	395.233	0.084	-0.176
-376.873	235.901	0.125	-0.207
-375.858	-89.473	0.152	-0.045
-374.844	-200.000	0.043	0.197
-373.829	-38.412	0.310	-0.165
-372.815	-79.354	-0.364	-0.124
-371.800	-26.018	0.174	-0.103
-370.785	-0.219	0.307	-0.219
-369.771	-130.340	-0.288	-0.039
-368.756	-42.613	0.037	0.019
-367.742	354.138	-0.097	0.194
-366.727	149.873	0.036	0.049
-365.712	-200.000	-0.019	0.387
-364.698	5.922	-0.217	0.161
-363.683	140.761	-0.036	0.047
-362.669	90.454	-0.184	-0.207
-361.654	-72.229	-0.296	-0.110
-360.639	136.690	-0.090	0.117
-359.625	-157.303	0.507	-0.031
-358.610	63.430	0.050	-0.051
-357.596	505.618	-0.054	0.125
-356.581	800.000	-0.065	-0.189
-355.566	800.000	0.116	0.323
-354.552	-200.000	0.018	0.099
-353.537	-120.107	-0.109	0.019
-352.523	-92.253	0.348	0.098
-351.508	270.210	-0.131	0.231
-350.493	-128.393	0.342	-0.049
-349.479	-5.905	-0.224	0.154
-348.464	-172.851	-0.239	0.007
-347.450	592.004	-0.036	-0.088
-346.435	-10.714	-0.278	-0.184
-345.420	72.889	0.280	-0.293
-344.406	303.514	0.069	-0.128
-343.391	-55.565	-0.219	0.098
-342.377	-200.000	0.087	-0.463
-341.362	9.255	-0.215	0.163
-340.348	-200.000	0.043	-0.235
-339.333	-143.623	0.068	-0.006
-338.318	-39.492	0.249	-0.130
-337.304	-200.000	0.005	-0.094
-336.289	124.037	-0.069	0.087
-335.275	-95.077	0.166	0.045
-334.260	174.477	-0.144	0.208
-333.245	-187.645	-0.182	0.002
-332.231	800.000	-0.083	-0.342
-331.216	103.613	0.193	-0.226
-330.202	11.813	-0.193	-0.148
-329.187	-200.000	-0.039	-0.386
-328.172	-107.677	-0.294	-0.064
-327.158	-200.000	-0.042	-0.252
-326.143	-200.000	0.071	0.334
-325.129	-87.416	-0.124	-0.037
-324.114	-200.000	-0.030	0.180
-323.099	48.425	-0.171	0.160
-322.085	-30.937	-0.121	0.068
-321.070	-200.000	-0.022	0.098
-320.056	-153.424	0.487	0.034
-319.041	800.000	0.118	-0.365
-318.026	348.020	-0.107	-0.212
-317.012	-99.981	-0.162	-0.040
-315.997	-46.094	-0.527	-0.259
-314.983	512.694	-0.069	0.162
-313.968	-151.394	0.235	-0.017
-312.953	-117.246	-0.268	-0.049
-311.939	-48.740	0.337	-0.161
-310.924	-148.132	-0.137	0.011
-309.910	166.963	0.270	0.383
-308.895	800.000	0.040	0.134
-307.880	-69.399	0.311	-0.119
-306.866	336.581	0.052	0.100
-305.851	800.000	0.082	0.231
-304.837	-49.337	-0.135	0.064
-303.822	132.161	-0.204	0.263
-302.807	46.006	-0.184	0.170
-301.793	-185.420	0.215	0.003
-300.778	46.749	0.194	0.180
-299.764	54.693	0.127	0.122
-298.749	-200.000	0.029	-0.266
-297.735	77.819	0.119	-0.126
-296.720	-200.000	0.034	0.555
-295.705	113.622	-0.250	0.303
-294.691	782.938	-0.017	0.046
-293.676	585.082	0.129	-0.316
-292.662	-151.133	0.295	0.022
-291.647	-76.843	-0.176	-0.061
-290.632	800.000	-0.033	0.131
-289.618	-10.684	-0.096	0.063
-288.603	-200.000	0.005	0.122
-287.589	-74.857	0.306	0.110
-286.574	0.207	0.230	0.164
-285.559	800.000	0.049	0.167
-284.545	176.388	0.216	0.313
-283.530	-128.848	-0.112	-0.016
-282.516	104.008	0.216	0.253
-281.501	93.285	0.197	0.223
-280.486	104.273	0.256	-0.301
-279.472	-102.049	-0.127	-0.031
-278.457	-124.985	-0.120	-0.019
-277.443	-200.000	0.007	-0.040
-276.428	498.716	-0.137	0.316
-275.413	-200.000	-0.070	0.340
-274.399	-38.914	-0.110	-0.058
-273.384	249.080	-0.149	0.251
-272.370	-128.230	0.156	-0.022
-271.355	-144.574	0.212	-0.020
-270.340	241.541	-0.091	-0.151
-269.326	-33.851	-0.318	0.175
-268.311	-146.561	-0.184	-0.016
-267.297	77.753	-0.065	0.069
-266.282	625.366	-0.028	-0.069
-265.267	366.831	-0.158	0.318
-264.253	-200.000	-0.113	0.528
-263.238	-67.089	-0.197	0.077
-262.224	-200.000	-0.041	0.207
-261.209	-134.391	0.248	0.030
-260.195	800.000	-0.052	0.171
-259.180	12.040	0.114	-0.087
-258.165	-58.066	0.247	0.107
-257.151	7.013	0.312	0.232
-256.136	-21.862	0.235	-0.142
-255.122	-200.000	-0.018	-0.389
-254.107	716.132	0.056	-0.148
-253.092	-34.435	0.462	0.253
-252.078	112.623	0.181	0.218
-251.063	-64.425	0.190	-0.077
-250.049	-68.285	-0.017	0.006
-249.034	800.000	0.101	-0.319
-248.019	-200.000	-0.007	0.254
-247.005	-66.684	-0.437	-0.173
-245.990	-76.936	-0.209	0.073
-244.976	-118.010	0.099	0.018
-243.961	533.935	0.096	0.228
-242.946	-163.468	-0.056	-0.003
-241.932	1.612	-0.084	-0.060
-240.917	315.061	-0.156	-0.292
-239.903	-119.684	0.267	-0.046
-238.888	-10.796	-0.366	-0.241
-237.873	-200.000	-0.040	-0.249
-236.859	79.065	-0.206	-0.219
-235.844	-73.661	0.365	0.132
-234.830	-148.457	-0.105	-0.009
-233.815	-106.065	-0.074	0.016
-232.800	-200.000	0.006	0.095
-231.786	800.000	-0.091	-0.369
-230.771	-34.853	-0.252	0.137
-229.757	308.272	0.092	0.172
-228.742	800.000	-0.025	0.084
-227.727	410.856	0.105	-0.221
-226.713	-81.836	-0.472	-0.154
-225.698	-46.449	0.229	0.112
-224.684	388.416	-0.096	-0.197
-223.669	235.958	-0.133	0.218
-222.655	269.574	0.065	0.113
-221.640	-200.000	0.069	-0.323
-220.625	-100.644	0.314	0.077
-219.611	232.762	0.044	0.071
-218.596	259.483	0.129	-0.222
-217.582	-72.487	0.235	-0.087
-216.567	-200.000	-0.018	0.102
-215.552	37.458	-0.102	-0.090
-214.538	-107.900	0.427	0.092
-213.523	-200.000	-0.011	0.257
-212.509	318.098	-0.089	0.167
-211.494	-13.672	-0.380	0.245
-210.479	93.369	0.179	0.202
-209.465	-200.000	-0.080	0.421
-208.450	-200.000	0.008	-0.274
-207.436	-130.724	0.171	0.023
-206.421	114.659	0.116	-0.141
-205.406	-200.000	0.020	0.114
-204.392	579.594	-0.074	-0.179
-203.377	454.981	-0.063	-0.140
-202.363	-44.244	-0.140	-0.070
-201.348	19.393	0.186	0.149
-200.333	37.389	-0.050	-0.044
-199.319	-19.291	0.207	-0.128
-198.304	-73.855	-0.407	-0.147
-197.290	92.047	0.183	0.205
-196.275	3.703	-0.156	0.113
-195.260	35.364	0.119	0.104
-194.246	22.564	-0.118	-0.096
-193.231	325.110	-0.193	-0.368
-192.217	-48.992	-0.073	0.035
-191.202	-200.000	-0.037	0.233
-190.187	225.524	-0.092	-0.149
-189.173	40.168	0.143	0.128
-188.158	-83.499	0.138	0.044
-187.144	800.000	0.137	-0.390
-186.129	-200.000	-0.016	0.237
-185.114	-8.503	-0.117	0.078
-184.100	800.000	0.033	-0.133
-183.085	119.378	-0.194	0.239
-182.071	-200.000	0.069	-0.392
-181.056	-200.000	-0.013	-0.385
-180.042	800.000	-0.039	0.144
-179.027	-46.826	-0.200	-0.097
-178.012	92.990	-0.227	-0.255
-176.998	800.000	0.080	0.220
-175.983	107.568	-0.214	0.253
-174.969	-186.107	0.145	0.002
-173.954	1.505	0.181	0.130
-172.939	-69.987	-0.163	0.062
-171.925	800.000	-0.029	0.115
-170.910	14.773	-0.039	-0.030
-169.896	-32.465	-0.177	-0.098
-168.881	-91.353	-0.195	0.055
-167.866	27.610	-0.104	-0.087
-166.852	800.000	0.069	0.212
-165.837	-122.548	-0.149	0.024
-164.823	-57.670	0.420	-0.183
-163.808	-200.000	-0.006	-0.114
-162.793	-63.843	0.209	-0.085
-161.779	-200.000	0.043	-0.350
-160.764	-41.073	-0.017	-0.009
-159.750	-34.248	0.111	0.061
-158.735	-200.000	-0.003	-0.305
-157.720	465.339	-0.095	-0.212
-156.706	58.315	-0.330	-0.321
-155.691	-99.980	0.386	-0.096
-154.677	89.994	-0.079	0.088
-153.662	-200.000	0.048	-0.282
-152.647	-200.000	0.032	-0.196
-151.633	-133.941	-0.318	-0.039
-150.618	-200.000	0.000	0.091
-149.604	-200.000	-0.008	-0.220
-148.589	539.627	0.067	-0.157
-147.574	-200.000	0.016	0.084
-146.560	-50.777	0.099	0.046
-145.545	-200.000	-0.020	-0.123
-144.531	-59.105	0.206	0.088
-143.516	-28.923	0.279	-0.159
-142.502	-177.884	0.117	-0.003
-141.487	331.811	0.124	-0.238
-140.472	636.953	0.035	-0.087
-139.458	-200.000	0.013	0.278
-138.443	-200.000	0.003	-0.029
-137.429	403.843	0.161	0.337
-136.414	800.000	0.017	0.056
-135.399	-86.602	-0.055	-0.017
-134.385	337.107	0.064	0.123
-133.370	-200.000	-0.048	0.287
-132.356	-200.000	0.036	0.182
-131.341	19.914	-0.175	-0.140
-130.326	171.445	0.114	0.162
-129.312	-200.000	0.084	-0.441
-128.297	-31.816	0.198	-0.110
-127.283	-200.000	0.001	-0.170
-126.268	-118.717	-0.093	0.016
-125.253	-38.274	0.107	0.056
-124.239	27.697	-0.138	-0.115
-123.224	800.000	0.074	0.248
-122.210	678.392	-0.161	0.414
-121.195	800.000	0.136	0.410
-120.180	317.833	0.091	-0.170
-119.166	296.489	0.005	-0.009
-118.151	93.651	-0.209	-0.235
-117.137	800.000	0.034	-0.092
-116.122	-147.281	-0.237	-0.020
-115.107	800.000	-0.055	0.170
-114.093	-112.522	0.242	0.048
-113.078	29.675	0.128	-0.108
-112.064	-100.499	0.282	-0.069
-111.049	-0.322	0.308	-0.217
-110.034	-200.000	-0.040	-0.199
-109.020	-200.000	0.040	-0.200
-108.005	493.643	-0.111	0.253
-106.991	456.559	0.080	0.176
-105.976	-50.317	-0.158	-0.074
-104.962	-200.000	-0.001	0.054
-103.947	-200.000	-0.001	0.195
-102.932	-200.000	0.002	-0.185
-101.918	-169.918	-0.287	-0.010
-100.903	-128.750	-0.454	0.063
-99.889	509.050	0.155	0.358
-98.874	186.834	-0.064	-0.095
-97.859	-84.588	0.072	-0.022
-96.845	-67.145	-0.151	0.059
-95.830	-73.804	0.042	0.015
-94.816	-94.922	0.169	0.045
-93.801	-2.831	0.311	0.215
-92.786	-200.000	-0.025	0.213
-91.772	-56.796	0.142	-0.062
-90.757	-200.000	0.054	-0.384
-89.743	58.221	0.140	0.136
-88.728	-42.020	0.339	0.172
-87.713	72.479	0.220	0.227
-86.699	-200.000	0.002	-0.190
-85.684	-107.713	-0.118	0.026
-84.670	-77.413	0.247	-0.085
-83.655	-100.894	0.138	-0.034
-82.640	-103.351	-0.288	0.067
-81.626	-26.003	0.046	-0.027
-80.611	-200.000	-0.033	0.179
-79.597	-116.956	-0.060	0.011
-78.582	-23.123	0.177	-0.105
-77.567	-200.000	-0.019	-0.191
-76.553	-89.207	0.156	0.046
-75.538	-61.549	0.056	0.023
-74.524	233.021	-0.127	0.206
-73.509	-79.199	0.448	0.150
-72.494	-89.887	0.320	0.093
-71.480	-59.843	-0.142	-0.060
-70.465	335.577	0.127	-0.244
-69.451	-43.480	-0.118	0.059
-68.436	-50.365	-0.019	0.009
-67.422	-61.849	0.095	-0.039
-66.407	800.000	-0.041	-0.150
-65.392	196.828	0.059	-0.089
-64.378	18.898	-0.134	0.107
-63.363	-175.603	0.189	0.005
-62.349	-51.346	-0.234	-0.108
-61.334	187.238	-0.661	-0.976
-60.319	-1.966	0.296	0.206
-59.305	800.000	-0.379	-1.121
-58.290	239.873	0.404	0.666
-57.276	-200.000	0.276	1.586
-56.261	-200.000	94.970	547.654
-55.246	603.424	1396.851	3438.096
-54.232	181.957	2632.143	3835.159
-53.217	117.388	2234.559	2718.683
-52.203	44.513	1761.559	1601.231
-51.188	37.074	1570.688	1375.184
-50.173	34.745	1542.810	1334.484
-49.159	52.457	1592.854	1503.949
-48.144	55.688	1611.921	1544.849
-47.130	37.478	1567.251	1374.820
-46.115	34.277	1552.034	1338.958
-45.100	34.051	1548.360	1334.149
-44.086	34.088	1546.478	1332.734
-43.071	34.074	1544.782	1331.124
-42.057	33.951	1543.489	1329.094
-41.042	33.928	1541.998	1327.595
-40.027	34.054	1540.616	1327.233
-39.013	34.106	1538.736	1325.926
-37.998	34.081	1537.273	1324.440
-36.984	33.991	1536.132	1322.774
-35.969	33.996	1535.141	1321.906
-34.954	34.065	1533.474	1320.898
-33.940	34.085	1532.135	1319.828
-32.925	33.959	1530.831	1317.777
-31.911	34.021	1529.476	1316.994
-30.896	34.050	1528.362	1316.181
-29.881	33.966	1527.096	1314.456
-28.867	34.099	1525.253	1313.733
-27.852	34.015	1524.230	1312.226
-26.838	34.034	1522.444	1310.765
-25.823	34.155	1520.298	1309.694
-24.809	34.142	1519.379	1308.765
-23.794	34.104	1517.455	1306.793
-22.779	34.099	1516.347	1305.751
-21.765	34.003	1515.572	1304.374
-20.750	34.054	1514.482	1303.736
-19.736	34.059	1513.724	1303.066
-18.721	33.937	1512.335	1300.982
-17.706	33.978	1510.770	1299.866
-16.692	33.928	1510.328	1299.089
-15.677	34.070	1508.721	1298.627
-14.663	33.910	1508.393	1297.201
-13.648	33.935	1507.345	1296.422
-12.633	34.012	1505.796	1295.563
-11.619	34.044	1505.343	1295.337
-10.604	33.950	1504.239	1293.696
-9.590	33.995	1503.043	1292.921
-8.575	33.908	1502.640	1291.929
-7.560	34.058	1501.053	1291.533
-6.546	33.991	1500.629	1290.667
-5.531	33.972	1499.932	1289.888
-4.517	33.964	1498.860	1288.861
-3.502	33.919	1497.801	1287.591
-2.487	33.861	1496.948	1286.415
-1.473	33.864	1496.091	1285.649
-0.458	33.925	1494.511	1284.651
0.556	34.690	1486.124	1277.884
1.571	32.518	1460.482	1241.421
2.586	29.671	1398.315	1170.474
3.600	28.041	1314.195	1090.250
4.615	26.035	1267.238	1039.655
5.629	21.874	1207.458	967.620
6.644	12.390	1118.205	847.336
7.659	5.209	1075.514	779.184
8.673	4.115	1069.401	769.257
9.688	4.117	1066.993	767.466
10.702	4.086	1065.090	765.877
11.717	4.103	1063.733	764.918
12.731	6.767	1066.155	779.761
13.746	15.267	1078.810	831.261
14.761	20.809	1084.686	863.270
15.775	20.219	1083.491	859.316
16.790	19.157	1081.234	852.200
17.804	18.049	1079.068	844.939
18.819	17.209	1077.055	839.143
19.834	16.828	1075.857	836.255
20.848	16.619	1074.156	833.829
21.863	16.337	1073.970	832.223
22.877	16.058	1073.320	830.268
23.892	15.991	1072.196	828.997
24.907	15.850	1071.281	827.525
25.921	15.867	1070.810	827.172
26.936	15.840	1069.957	826.305
27.950	15.845	1069.192	825.664
28.965	15.929	1068.130	825.186
29.980	16.047	1066.467	824.403
30.994	16.079	1065.466	823.715
32.009	16.187	1064.550	823.459
33.023	16.130	1064.228	822.861
34.038	16.215	1063.272	822.463
35.053	16.156	1062.158	821.242
36.067	16.089	1061.442	820.288
37.082	15.969	1060.364	818.801
38.096	15.966	1059.561	818.091
39.111	16.078	1058.853	818.017
40.126	16.103	1057.710	817.181
41.140	16.059	1056.658	816.082
42.155	15.806	1055.432	813.844
43.169	15.768	1054.746	813.057
44.184	15.786	1053.212	811.890
45.199	15.607	1052.611	810.493
46.213	15.628	1051.532	809.691
47.228	15.824	1050.445	809.724
48.242	15.864	1049.283	808.949
49.257	15.937	1048.392	808.542
50.271	15.899	1047.815	807.842
51.286	15.969	1046.964	807.449
52.301	16.180	1045.474	807.240
53.315	16.016	1045.350	806.286
54.330	15.950	1044.409	805.175
55.344	15.859	1043.520	803.983
56.359	15.758	1042.095	802.333
57.374	15.730	1041.655	801.792
58.388	15.856	1040.072	801.101
59.403	15.611	1039.743	799.609
60.417	15.705	1038.522	799.049
61.432	15.755	1038.118	798.902
62.447	15.686	1037.511	798.040
63.461	15.491	1036.946	796.606
64.476	15.612	1035.334	795.873
65.490	15.520	1034.796	794.955
66.505	15.530	1033.634	794.037
67.520	15.526	1033.166	793.587
68.534	15.668	1031.949	793.253
69.549	15.641	1031.395	792.629
70.563	15.720	1030.720	792.415
71.578	15.623	1030.026	791.352
72.593	15.524	1028.774	789.854
73.607	15.482	1027.744	788.798
74.622	15.490	1026.669	787.938
75.636	15.399	1026.168	787.060
76.651	15.434	1025.570	786.696
77.666	15.586	1024.622	786.609
78.680	15.589	1023.484	785.682
79.695	15.573	1023.403	785.475
80.709	15.549	1022.715	784.764
81.724	15.504	1022.305	784.171
82.739	15.732	1021.030	784.185
83.753	15.809	1020.468	784.044
84.768	15.869	1019.642	783.617
85.782	15.846	1019.623	783.430
86.797	16.186	1018.771	784.286
87.812	16.190	1017.576	783.312
88.826	15.983	1016.677	781.593
89.841	15.896	1016.336	780.860
90.855	15.929	1015.302	780.146
91.870	16.112	1014.344	780.189
92.884	16.083	1013.576	779.395
93.899	16.127	1013.017	779.099
94.914	15.985	1012.478	777.960
95.928	16.211	1011.641	778.290
96.943	16.136	1010.918	777.319
97.957	16.017	1009.891	775.915
98.972	16.099	1008.785	775.374
99.987	16.069	1008.362	774.843
101.001	16.054	1007.523	774.060
102.016	16.028	1007.148	773.584
103.030	15.980	1005.803	772.262
104.045	16.150	1004.699	772.122
105.060	16.020	1003.725	770.711
106.074	16.002	1002.990	769.997
107.089	15.892	1001.679	768.423
108.103	15.804	1000.816	767.289
109.118	15.665	1000.089	766.032
110.133	15.600	999.639	765.322
111.147	15.734	997.796	764.453
112.162	15.628	997.238	763.475
113.176	15.703	996.316	763.043
114.191	15.655	995.666	762.261
115.206	15.814	994.894	762.324
116.220	15.714	994.247	761.307
117.235	15.678	993.003	760.124
118.249	15.705	992.471	759.771
119.264	15.718	991.501	759.019
120.279	15.710	990.391	758.070
121.293	15.661	990.003	757.482
122.308	15.772	988.723	756.935
123.322	15.539	988.459	755.620
124.337	15.407	987.316	754.084
125.352	15.460	986.249	753.443
126.366	15.507	984.776	752.460
127.381	15.442	983.734	751.308
128.395	15.629	982.890	751.433
129.410	15.596	981.574	750.209
130.424	15.611	980.952	749.738
131.439	15.698	979.796	749.173
132.454	15.735	979.231	748.840
133.468	15.816	978.331	748.445
134.483	15.918	977.835	748.454
135.497	15.860	977.099	747.565
136.512	15.819	976.412	746.792
137.527	15.762	975.932	746.108
138.541	15.806	975.100	745.600
139.556	15.831	974.221	744.973
140.570	15.869	973.393	744.442
141.585	15.838	972.831	743.808
142.600	15.947	972.199	743.740
143.614	16.162	971.130	743.806
144.629	16.217	969.836	742.992
145.643	16.171	969.884	742.759
146.658	16.067	968.884	741.469
147.673	16.071	967.712	740.525
148.687	15.996	966.727	739.379
149.702	15.820	966.229	738.159
150.716	15.776	964.979	736.945
151.731	15.867	964.377	736.821
152.746	15.840	963.576	736.024
153.760	15.851	963.305	735.799
154.775	15.883	961.872	734.779
155.789	15.980	961.333	734.727
156.804	15.863	960.765	733.716
157.819	15.988	959.906	733.539
158.833	16.020	958.961	732.893
159.848	16.182	958.682	733.318
160.862	16.133	958.056	732.561
161.877	16.080	957.161	731.584
162.892	15.999	955.930	730.225
163.906	15.819	955.063	728.722
164.921	15.707	954.350	727.628
165.935	15.890	952.890	727.240
166.950	15.888	952.397	726.792
167.964	15.984	951.574	726.514
168.979	15.957	950.445	725.472
169.994	15.919	949.461	724.493
171.008	15.991	948.469	723.981
172.023	15.971	947.840	723.351
173.037	16.034	947.052	722.956
174.052	16.257	946.330	723.297
175.067	16.138	945.467	722.063
176.081	16.039	944.734	721.015
177.096	15.950	943.821	719.876
178.110	15.908	943.188	719.150
179.125	15.977	942.369	718.756
180.140	15.937	941.458	717.825
181.154	16.068	940.476	717.570
182.169	16.122	940.370	717.656
183.183	16.122	939.678	717.067
184.198	16.264	938.730	716.883
185.213	16.343	938.140	716.703
186.227	16.262	937.768	716.011
187.242	16.269	937.109	715.474
188.256	16.380	936.365	715.315
189.271	16.384	935.701	714.761
190.286	16.345	934.951	713.959
191.300	16.233	933.996	712.693
192.315	15.972	933.127	710.868
193.329	15.836	932.357	709.645
194.344	15.958	931.594	709.513
195.359	16.001	931.289	709.400
196.373	16.072	930.773	709.241
197.388	16.134	930.664	709.357
198.402	16.346	929.680	709.434
199.417	16.552	928.965	709.693
200.432	16.514	929.014	709.506
201.446	16.482	928.702	709.073
202.461	16.589	928.111	709.008
203.475	16.707	927.108	708.671
204.490	16.729	926.817	708.478
205.504	16.520	925.772	706.743
206.519	16.500	924.659	705.746
207.534	16.525	923.923	705.229
208.548	16.434	923.199	704.232
209.563	16.378	922.936	703.737
210.577	16.531	921.797	703.441
211.592	16.337	921.684	702.485
212.607	16.505	921.387	702.896
213.621	16.715	920.316	702.889
214.636	16.675	919.753	702.231
215.650	16.621	918.711	701.149
216.665	16.581	918.453	700.727
217.680	16.706	917.907	700.764
218.694	16.693	917.682	700.475
219.709	16.873	916.475	700.236
220.723	16.729	916.334	699.474
221.738	16.782	915.689	699.138
222.753	16.690	915.119	698.258
223.767	16.598	914.389	697.262
224.782	16.746	913.219	696.918
225.796	16.873	912.664	696.956
226.811	16.895	912.141	696.585
227.826	16.948	911.268	696.075
228.840	16.754	910.639	694.736
229.855	16.681	910.095	693.958
230.869	16.733	908.851	693.164
231.884	16.735	908.513	692.854
232.899	16.673	907.693	691.912
233.913	16.686	907.319	691.618
234.928	16.605	906.360	690.495
235.942	16.574	906.183	690.173
236.957	16.739	904.951	689.848
237.972	16.674	904.173	688.928
238.986	16.640	903.609	688.297
240.001	16.622	903.066	687.749
241.015	16.745	902.213	687.541
242.030	16.763	901.721	687.178
243.045	16.899	900.847	687.003
244.059	16.862	900.621	686.618
245.074	16.851	899.987	686.032
246.088	16.786	899.448	685.294
247.103	17.002	898.303	685.236
248.117	16.893	898.176	684.638
249.132	17.047	897.429	684.628
250.147	17.192	897.081	684.888
251.161	17.400	896.172	684.970
252.176	17.421	896.035	684.891
253.190	17.423	895.213	684.210
254.205	17.434	894.991	684.021
255.220	17.466	894.404	683.640
256.234	17.374	893.294	682.363
257.249	17.501	892.754	682.398
258.263	17.482	892.467	682.046
259.278	17.483	891.579	681.308
260.293	17.473	891.240	680.949
261.307	17.614	890.467	680.861
262.322	17.461	890.501	680.215
263.336	17.531	889.392	679.589
264.351	17.717	888.503	679.591
265.366	17.690	888.021	679.055
266.380	17.778	887.342	678.827
267.395	17.635	886.920	677.875
268.409	17.636	886.139	677.221
269.424	17.594	884.919	676.062
270.439	17.491	884.740	675.455
271.453	17.607	883.694	675.057
272.468	17.435	883.549	674.207
273.482	17.572	882.738	674.068
274.497	17.492	882.190	673.274
275.512	17.591	881.089	672.768
276.526	17.526	880.426	671.943
277.541	17.654	879.462	671.652
278.555	17.596	878.965	670.987
279.570	17.609	878.990	670.996
280.585	17.748	878.238	670.913
281.599	17.720	877.780	670.391
282.614	17.741	876.860	669.712
283.628	17.599	876.501	668.820
284.643	17.637	875.625	668.244
285.657	17.700	875.090	668.020
286.672	17.696	874.842	667.758
287.687	17.832	874.204	667.745
288.701	17.909	873.492	667.444
289.716	17.795	873.160	666.682
290.730	17.669	872.513	665.637
291.745	17.753	871.915	665.450
292.760	17.845	871.053	665.093
293.774	17.756	870.537	664.292
294.789	17.768	870.458	664.221
295.803	18.110	869.327	664.630
296.818	17.911	868.971	663.523
297.833	17.803	868.129	662.405
298.847	17.800	867.611	661.939
299.862	17.805	866.663	661.175
300.876	17.907	866.008	661.012
301.891	18.091	865.451	661.242
302.906	18.062	864.556	660.385
303.920	18.162	864.142	660.397
304.935	18.153	863.597	659.890
305.949	18.025	863.562	659.308
306.964	18.070	862.471	658.593
307.979	18.063	861.857	658.036
308.993	18.152	861.324	657.916
310.008	18.165	861.093	657.732
311.022	18.236	860.259	657.307
312.037	18.240	859.379	656.592
313.052	18.103	859.204	655.874
314.066	18.061	858.740	655.302
315.081	18.111	857.349	654.373
316.095	17.916	857.274	653.513
317.110	18.007	856.532	653.236
318.125	18.063	856.174	653.120
319.139	18.012	855.405	652.281
320.154	17.996	854.824	651.720
321.168	18.082	854.282	651.575
322.183	18.183	853.696	651.457
323.197	18.121	853.209	650.792
324.212	18.211	852.694	650.684
325.227	18.055	852.764	650.085
326.241	18.114	851.888	649.582
327.256	18.149	850.979	648.966
328.270	18.067	850.315	648.093
329.285	18.089	850.119	647.968
330.300	18.049	849.837	647.544
331.314	18.074	848.930	646.889
332.329	18.075	848.168	646.257
333.343	18.258	847.607	646.465
334.358	18.360	847.215	646.494
335.373	18.265	846.646	645.643
336.387	18.311	845.871	645.168
337.402	18.513	845.536	645.615
338.416	18.422	844.839	644.684
339.431	18.418	844.650	644.469
340.446	18.656	843.990	644.800
341.460	18.640	843.662	644.435
342.475	18.740	843.077	644.303
343.489	18.698	842.482	643.635
344.504	18.763	841.701	643.225
345.519	18.774	841.490	643.048
346.533	18.912	840.890	643.049
347.548	18.728	840.831	642.258
348.562	18.667	840.106	641.421
349.577	18.685	838.989	640.578
350.592	18.552	838.557	639.696
351.606	18.507	837.744	638.853
352.621	18.573	837.428	638.801
353.635	18.457	837.137	638.089
354.650	18.526	836.918	638.123
355.665	18.559	836.129	637.589
356.679	18.611	836.156	637.745
357.694	18.697	835.255	637.319
358.708	18.698	834.682	636.829
359.723	18.733	834.380	636.673
360.738	18.772	833.496	636.086
361.752	18.667	833.170	635.392
362.767	18.626	832.936	635.006
363.781	18.881	832.288	635.399
364.796	18.802	831.999	634.831
365.810	18.917	831.794	635.043
366.825	19.070	831.268	635.150
367.840	19.141	831.212	635.313
368.854	19.128	830.368	634.565
369.869	19.129	829.949	634.193
370.883	19.005	829.372	633.238
371.898	18.956	828.753	632.528
372.913	19.119	827.999	632.498
373.927	19.117	827.681	632.191
374.942	18.941	827.053	631.008
375.956	18.987	826.367	630.597
376.971	19.179	825.539	630.615
377.986	19.239	824.888	630.279
379.000	19.235	824.883	630.205
380.015	19.284	824.425	629.979
381.029	19.373	823.479	629.526
382.044	19.379	822.834	629.000
383.059	19.365	822.200	628.408
384.073	19.391	822.116	628.383
385.088	19.221	821.860	627.512
386.102	18.950	821.574	626.252
387.117	19.147	820.143	625.822
388.132	19.121	819.724	625.353
389.146	19.086	819.310	624.854
390.161	19.102	819.065	624.668
391.175	19.408	818.436	625.243
392.190	19.378	817.742	624.551
393.205	19.366	817.619	624.355
394.219	19.340	817.317	623.976
395.234	19.362	816.529	623.400
396.248	19.198	816.090	622.416
397.263	19.231	815.472	622.008
398.278	19.135	815.264	621.447
399.292	18.890	814.947	620.266
400.307	19.106	814.416	620.588
401.321	19.324	813.825	620.867
402.336	19.132	813.210	619.651
403.350	19.271	813.311	620.176
404.365	19.147	812.815	619.296
405.380	19.452	812.096	619.788
406.394	19.443	811.923	619.572
407.409	19.583	811.518	619.710
408.423	19.679	810.634	619.325
409.438	19.569	810.761	618.970
410.453	19.599	810.237	618.624
411.467	19.834	809.539	618.878
412.482	19.667	808.792	617.655
413.496	19.802	808.095	617.551
414.511	19.815	808.186	617.610
415.526	19.815	808.189	617.557
416.540	19.644	807.656	616.485
417.555	19.836	806.807	616.469
418.569	19.710	806.777	615.941
419.584	19.555	806.409	615.055
420.599	19.833	805.563	615.344
421.613	155.280	1370.128	1787.658
422.628	134.789	1452.418	1787.761
