DTS Sentinel unit serial number:	SN413079Multiplexer serial number:	ORYXHardware model number:	OX4-SRSoftware version number:	ORYX F/W v4.00 Oryx Data Collector v3.7.2.0data status	okinstallation	princeton_trtdifferential loss correction	single-endedforward channel	channel 3reverse channel	N/Adate	2019/09/15time	11:04:35forward acquisition time	60.00reverse acquisition time	0.00gamma	496.2192k internal	0.2307k external	0.2307temperature offset calibration	0.9976default loss term (dB/km)	0.3790temperature slope calibration	1.0000multiplexer offset coefficient	1.0000multiplexer slope coefficient	1.0000fibre end	0.00T internal ref (°C)	34.27T ext. ref 1 (°C)	5.05T ext. ref 2 (°C)	29.64length (m)	temperature (°C)	Stokes	anti-Stokes-747.200	123.272	-0.099	-0.126
-746.185	-200.000	-0.039	0.313
-745.171	-118.963	0.352	0.063
-744.156	-165.640	0.430	0.019
-743.142	-200.000	-0.025	0.230
-742.127	163.395	0.143	0.205
-741.112	-120.984	-0.181	0.031
-740.098	-23.641	-0.294	0.179
-739.083	5.766	0.135	-0.102
-738.069	800.000	-0.066	0.288
-737.054	-200.000	-0.017	0.132
-736.039	-83.031	-0.388	-0.127
-735.025	-200.000	-0.024	0.132
-734.010	-122.539	-0.154	-0.025
-732.996	-19.977	-0.421	-0.264
-731.981	64.373	-0.364	-0.373
-730.966	113.208	0.073	-0.089
-729.952	-107.033	-0.294	-0.066
-728.937	522.976	-0.038	-0.091
-727.923	800.000	0.016	0.045
-726.908	-91.700	0.284	0.082
-725.894	88.039	-0.132	-0.149
-724.879	-46.141	-0.178	-0.089
-723.864	175.366	0.102	-0.150
-722.850	-200.000	-0.022	-0.171
-721.835	98.516	-0.026	-0.030
-720.821	-190.497	0.327	-0.004
-719.806	-97.354	-0.493	-0.131
-718.791	-91.922	-0.007	0.002
-717.777	-200.000	0.002	-0.032
-716.762	204.230	0.204	0.321
-715.748	-20.417	0.080	0.050
-714.733	-151.059	0.066	-0.005
-713.718	761.707	-0.050	0.137
-712.704	-200.000	-0.012	-0.070
-711.689	-40.574	0.103	-0.054
-710.675	-200.000	-0.037	-0.172
-709.660	141.627	-0.089	-0.119
-708.645	558.964	-0.112	-0.274
-707.631	800.000	-0.149	0.493
-706.616	800.000	-0.042	-0.129
-705.602	-200.000	0.007	-0.176
-704.587	753.752	0.065	-0.179
-703.572	41.224	0.244	0.224
-702.558	-10.377	-0.240	-0.162
-701.543	-28.978	-0.061	-0.036
-700.529	-46.370	0.173	0.086
-699.514	-163.572	-0.303	0.015
-698.499	-200.000	0.058	-0.276
-697.485	370.365	-0.216	-0.444
-696.470	-93.451	-0.140	-0.039
-695.456	63.511	0.084	-0.085
-694.441	-174.323	0.315	-0.009
-693.426	-93.465	-0.040	0.011
-692.412	46.253	-0.185	-0.174
-691.397	-65.978	-0.312	0.126
-690.383	800.000	-0.046	0.162
-689.368	800.000	0.024	-0.088
-688.354	150.291	0.090	0.124
-687.339	800.000	-0.020	0.088
-686.324	-200.000	-0.033	-0.183
-685.310	216.428	0.107	-0.173
-684.295	45.873	-0.378	0.355
-683.281	-37.375	0.217	-0.118
-682.266	800.000	0.041	0.127
-681.251	-200.000	0.004	-0.287
-680.237	43.819	-0.032	-0.030
-679.222	26.341	0.253	0.214
-678.208	212.830	0.158	-0.254
-677.193	344.085	-0.188	0.374
-676.178	-200.000	0.000	0.145
-675.164	-200.000	0.017	0.210
-674.149	271.246	-0.141	-0.253
-673.135	-133.703	-0.137	0.017
-672.120	-49.427	-0.186	0.090
-671.105	-200.000	0.041	-0.271
-670.091	-122.371	0.298	0.049
-669.076	-53.764	-0.144	0.067
-668.062	-16.463	-0.325	0.209
-667.047	-12.382	-0.165	0.110
-666.032	-57.667	-0.312	0.139
-665.018	-200.000	0.076	-0.397
-664.003	-111.292	0.231	-0.048
-662.989	29.917	-0.286	-0.247
-661.974	-116.191	-0.509	-0.096
-660.959	-84.369	0.196	-0.063
-659.945	117.548	0.369	0.460
-658.930	-41.390	-0.124	-0.065
-657.916	301.954	-0.149	-0.280
-656.901	-55.330	0.395	-0.180
-655.886	-96.163	-0.244	0.066
-654.872	800.000	0.066	-0.214
-653.857	548.871	0.047	-0.115
-652.843	-45.005	0.243	0.122
-651.828	-43.850	-0.103	-0.053
-650.814	-136.078	-0.402	-0.048
-649.799	68.967	-0.086	-0.089
-648.784	137.329	-0.054	-0.071
-647.770	-42.797	0.229	0.118
-646.755	282.191	-0.152	0.276
-645.741	-112.777	0.158	-0.032
-644.726	-200.000	0.054	-0.425
-643.711	-159.278	-0.486	-0.028
-642.697	101.645	-0.055	0.065
-641.682	97.104	0.151	-0.176
-640.668	-14.613	0.352	0.229
-639.653	-175.948	0.238	-0.006
-638.638	236.925	0.042	0.071
-637.624	-200.000	-0.012	-0.166
-636.609	24.814	0.230	0.193
-635.595	217.722	-0.040	-0.065
-634.580	283.534	-0.023	-0.042
-633.565	-153.984	-0.169	0.012
-632.551	-60.013	-0.086	-0.037
-631.536	-80.086	0.128	0.044
-630.522	800.000	-0.064	-0.204
-629.507	-39.424	0.029	-0.016
-628.492	-74.591	0.184	-0.067
-627.478	-38.670	-0.153	0.082
-626.463	-36.258	0.205	0.112
-625.449	443.524	0.251	-0.556
-624.434	298.631	-0.022	0.042
-623.419	50.439	-0.253	-0.242
-622.405	-173.542	-0.234	-0.007
-621.390	199.583	0.135	0.210
-620.376	19.027	-0.084	0.068
-619.361	-200.000	-0.204	0.000
-618.346	-135.212	0.171	0.021
-617.332	-9.125	0.282	0.191
-616.317	-84.121	0.343	-0.110
-615.303	113.913	-0.124	0.153
-614.288	-8.145	0.335	0.228
-613.273	-52.951	0.198	-0.092
-612.259	-43.597	-0.126	0.064
-611.244	-102.828	-0.348	0.084
-610.230	496.124	-0.083	0.192
-609.215	-92.044	0.105	0.030
-608.201	-102.615	-0.085	-0.020
-607.186	-64.709	0.018	0.007
-606.171	217.300	-0.048	-0.078
-605.157	145.670	0.065	0.088
-604.142	-200.000	-0.035	0.242
-603.128	309.308	0.150	0.284
-602.113	800.000	0.052	-0.215
-601.098	-33.407	-0.453	0.253
-600.084	150.587	0.117	-0.161
-599.069	99.355	0.134	-0.157
-598.055	-24.407	-0.343	-0.207
-597.040	-159.905	0.157	0.009
-596.025	15.324	0.101	0.080
-595.011	7.654	0.105	-0.080
-593.996	-115.526	0.122	-0.023
-592.982	219.794	-0.061	-0.100
-591.967	-200.000	0.032	-0.174
-590.952	-5.172	-0.231	-0.160
-589.938	768.694	-0.053	-0.146
-588.923	-167.343	-0.280	0.011
-587.909	40.212	0.063	-0.057
-586.894	-136.845	0.266	0.031
-585.879	137.526	-0.130	-0.172
-584.865	-153.227	0.160	-0.011
-583.850	-67.621	-0.220	-0.087
-582.836	-200.000	-0.014	-0.281
-581.821	-188.607	-0.273	-0.003
-580.806	-200.000	0.015	-0.179
-579.792	-200.000	-0.021	0.254
-578.777	79.614	-0.256	-0.277
-577.763	87.726	0.258	-0.289
-576.748	800.000	0.076	-0.217
-575.733	-75.601	0.233	-0.084
-574.719	-65.678	0.083	-0.034
-573.704	-8.899	0.082	-0.055
-572.690	-8.820	-0.189	-0.128
-571.675	-22.494	-0.054	0.033
-570.661	800.000	-0.122	0.349
-569.646	800.000	0.072	0.256
-568.631	18.882	-0.068	0.055
-567.617	526.968	-0.079	-0.189
-566.602	354.986	0.029	-0.059
-565.588	219.745	0.219	0.354
-564.573	-200.000	-0.078	0.387
-563.558	800.000	0.047	0.131
-562.544	-200.000	-0.000	0.107
-561.529	-200.000	0.031	0.169
-560.515	54.784	-0.080	0.078
-559.500	93.038	-0.143	0.163
-558.485	18.798	0.373	0.302
-557.471	206.476	-0.127	0.200
-556.456	-85.946	-0.364	-0.114
-555.442	138.992	0.170	0.226
-554.427	-91.646	-0.023	0.007
-553.412	-21.543	0.147	0.090
-552.398	-10.102	-0.211	-0.142
-551.383	-200.000	-0.032	-0.269
-550.369	800.000	-0.045	0.133
-549.354	-200.000	0.006	0.237
-548.339	-41.583	-0.260	0.135
-547.325	93.770	0.018	-0.021
-546.310	-141.189	-0.402	-0.041
-545.296	800.000	0.028	-0.107
-544.281	132.879	0.157	0.205
-543.266	24.166	0.168	0.140
-542.252	18.999	0.156	0.126
-541.237	16.670	-0.159	-0.127
-540.223	29.233	0.222	0.190
-539.208	-200.000	-0.029	-0.225
-538.193	-200.000	0.013	-0.304
-537.179	-102.002	0.104	0.025
-536.164	800.000	-0.063	0.208
-535.150	78.152	-0.077	0.083
-534.135	800.000	0.049	0.148
-533.121	45.945	-0.167	-0.156
-532.106	64.886	-0.185	-0.188
-531.091	30.926	-0.128	-0.111
-530.077	249.967	0.026	0.045
-529.062	257.630	-0.247	0.429
-528.048	-167.747	0.140	0.006
-527.033	583.396	-0.148	0.367
-526.018	-35.050	0.261	0.144
-525.004	-7.714	-0.163	-0.111
-523.989	-146.852	0.108	-0.009
-522.975	-3.621	-0.142	0.100
-521.960	-164.276	-0.159	0.007
-520.945	-22.726	-0.045	0.028
-519.931	-143.140	0.131	0.013
-518.916	-200.000	-0.017	-0.220
-517.902	-14.723	-0.101	0.065
-516.887	-133.404	0.461	-0.058
-515.872	800.000	0.075	-0.281
-514.858	-13.772	0.121	-0.079
-513.843	-200.000	0.008	0.065
-512.829	179.157	-0.182	-0.268
-511.814	-52.674	0.076	0.035
-510.799	52.596	0.152	0.147
-509.785	-200.000	-0.046	-0.222
-508.770	-53.700	0.152	0.070
-507.756	52.804	-0.416	0.401
-506.741	-96.518	0.310	-0.082
-505.726	-105.956	0.139	-0.031
-504.712	35.776	-0.064	0.057
-503.697	-200.000	-0.025	-0.174
-502.683	-39.648	0.193	-0.102
-501.668	393.604	0.026	0.055
-500.653	-21.645	0.155	-0.095
-499.639	-131.527	-0.443	-0.059
-498.624	-75.732	-0.124	-0.044
-497.610	8.225	-0.357	-0.270
-496.595	-64.924	-0.104	-0.042
-495.581	-67.000	0.448	0.178
-494.566	-1.964	0.123	-0.087
-493.551	-200.000	-0.012	-0.223
-492.537	44.118	0.111	-0.103
-491.522	-161.222	0.463	0.024
-490.508	-200.000	0.004	0.091
-489.493	-34.044	-0.044	0.024
-488.478	800.000	0.028	-0.122
-487.464	237.183	0.214	-0.358
-486.449	208.661	-0.235	0.370
-485.435	-36.739	0.088	-0.047
-484.420	-112.971	0.221	0.044
-483.405	-113.112	0.304	0.060
-482.391	-200.000	-0.016	0.101
-481.376	237.757	-0.060	0.101
-480.362	-200.000	0.055	0.296
-479.347	-82.410	-0.140	-0.046
-478.332	-83.443	0.161	-0.052
-477.318	-200.000	0.336	0.001
-476.303	-49.234	-0.175	-0.084
-475.289	-113.024	0.256	-0.051
-474.274	37.390	0.251	-0.224
-473.259	338.051	0.189	0.369
-472.245	113.033	-0.152	0.186
-471.230	80.998	-0.193	-0.209
-470.216	-115.207	0.301	0.057
-469.201	218.297	0.202	-0.324
-468.186	-200.000	-0.022	-0.230
-467.172	-198.715	0.337	0.002
-466.157	-200.000	0.063	0.293
-465.143	-101.966	0.084	-0.020
-464.128	-2.840	-0.090	0.063
-463.113	338.032	0.103	0.201
-462.099	-74.533	0.137	0.050
-461.084	-200.000	-0.022	-0.167
-460.070	93.503	-0.022	-0.025
-459.055	800.000	-0.061	0.246
-458.040	800.000	0.043	0.174
-457.026	219.883	0.042	-0.068
-456.011	-29.197	-0.088	0.051
-454.997	21.343	0.103	-0.084
-453.982	-10.372	0.252	0.168
-452.968	-193.799	0.275	0.002
-451.953	632.740	0.109	0.277
-450.938	559.101	0.090	0.219
-449.924	-96.857	-0.137	0.036
-448.909	-200.000	-0.011	0.068
-447.895	800.000	0.045	0.134
-446.880	-139.841	-0.037	-0.004
-445.865	50.840	0.178	0.170
-444.851	-131.310	-0.170	0.023
-443.836	-121.838	-0.241	0.040
-442.822	132.666	0.079	0.103
-441.807	-15.994	0.076	0.049
-440.792	-29.853	0.195	-0.112
-439.778	-47.121	-0.432	0.212
-438.763	800.000	-0.035	-0.118
-437.749	-200.000	-0.085	0.383
-436.734	-162.850	-0.208	0.010
-435.719	128.937	-0.252	0.322
-434.705	-125.691	0.200	-0.030
-433.690	218.340	0.072	0.116
-432.676	-66.084	-0.287	0.115
-431.661	112.861	0.084	0.103
-430.646	800.000	0.098	0.311
-429.632	-127.782	0.190	-0.028
-428.617	-200.000	0.003	0.153
-427.603	-200.000	0.008	-0.046
-426.588	-6.723	0.105	0.072
-425.573	9.214	0.160	-0.122
-424.559	-200.000	-0.022	-0.247
-423.544	-200.000	0.030	0.208
-422.530	-90.121	-0.119	0.035
-421.515	189.965	-0.103	-0.155
-420.500	-83.796	0.322	0.103
-419.486	267.235	-0.099	0.173
-418.471	-16.463	0.202	-0.128
-417.457	789.459	0.089	0.246
-416.442	40.662	-0.162	0.147
-415.428	-171.837	-0.023	-0.001
-414.413	50.157	-0.188	0.178
-413.398	800.000	-0.025	-0.070
-412.384	177.285	-0.123	-0.180
-411.369	-65.138	-0.124	-0.050
-410.355	-71.704	0.118	0.044
-409.340	-18.321	-0.229	-0.144
-408.325	100.062	-0.065	-0.076
-407.311	-90.111	0.292	0.085
-406.296	-126.886	0.080	0.012
-405.282	525.534	0.068	0.161
-404.267	16.315	-0.135	0.107
-403.252	-43.245	0.333	-0.169
-402.238	-36.871	-0.098	0.053
-401.223	116.819	0.108	-0.134
-400.209	-43.531	-0.020	0.010
-399.194	800.000	0.031	0.134
-398.179	-109.411	-0.149	-0.032
-397.165	800.000	-0.080	-0.329
-396.150	-200.000	0.034	-0.373
-395.136	-143.317	-0.231	-0.022
-394.121	90.780	-0.135	0.152
-393.106	-152.467	0.198	0.014
-392.092	34.641	0.238	-0.209
-391.077	-7.002	-0.117	-0.080
-390.063	163.108	-0.157	0.221
-389.048	-140.819	-0.267	0.028
-388.033	6.315	-0.123	-0.092
-387.019	-59.382	0.248	-0.107
-386.004	-200.000	-0.012	0.186
-384.990	800.000	0.080	0.291
-383.975	800.000	-0.038	0.114
-382.960	149.555	-0.026	-0.036
-381.946	107.145	-0.064	0.077
-380.931	14.696	0.060	0.047
-379.917	-96.547	-0.468	-0.124
-378.902	-142.403	-0.180	-0.018
-377.888	-93.549	-0.401	0.111
-376.873	-155.900	-0.286	0.018
-375.858	-200.000	0.014	0.267
-374.844	800.000	-0.058	0.196
-373.829	-200.000	0.001	0.071
-372.815	115.007	-0.268	-0.327
-371.800	800.000	0.054	0.193
-370.785	396.876	0.129	-0.271
-369.771	232.623	-0.075	0.124
-368.756	507.252	-0.100	-0.233
-367.742	-168.619	-0.073	0.003
-366.727	-36.446	0.061	0.033
-365.712	-34.133	-0.351	0.193
-364.698	63.552	-0.120	-0.121
-363.683	-200.000	0.027	0.157
-362.669	64.324	-0.159	0.160
-361.654	201.387	-0.082	-0.127
-360.639	66.619	0.215	-0.219
-359.625	-84.793	0.057	0.018
-358.610	-200.000	-0.008	-0.310
-357.596	-71.077	-0.055	0.021
-356.581	-79.804	-0.100	-0.034
-355.566	-42.408	-0.155	0.079
-354.552	8.213	-0.043	0.033
-353.537	299.283	-0.172	0.317
-352.523	-9.583	0.129	0.086
-351.508	-111.052	-0.095	-0.020
-350.493	139.732	-0.187	0.247
-349.479	277.475	0.186	-0.331
-348.464	559.848	0.087	0.210
-347.450	-37.960	-0.141	0.075
-346.435	69.411	-0.221	-0.228
-345.420	132.913	0.057	0.074
-344.406	111.069	-0.033	0.040
-343.391	128.063	-0.137	-0.174
-342.377	56.675	-0.239	-0.233
-341.362	-78.093	-0.093	-0.032
-340.348	-200.000	-0.028	-0.179
-339.333	-50.423	-0.163	-0.077
-338.318	-14.963	0.177	-0.113
-337.304	-128.067	-0.316	0.045
-336.289	-200.000	-0.002	-0.149
-335.275	-100.996	0.202	-0.050
-334.260	54.210	-0.343	-0.330
-333.245	-200.000	0.095	0.000
-332.231	85.819	0.181	0.199
-331.216	-127.261	0.381	0.056
-330.202	190.449	-0.105	0.158
-329.187	-58.446	0.467	0.203
-328.172	800.000	0.069	-0.239
-327.158	-135.741	-0.177	0.021
-326.143	23.526	0.302	-0.249
-325.129	-171.031	0.154	-0.005
-324.114	-0.948	0.085	0.060
-323.099	-21.320	-0.263	-0.161
-322.085	11.242	-0.157	-0.120
-321.070	-23.363	-0.196	0.118
-320.056	691.812	0.073	-0.192
-319.041	55.945	0.197	0.191
-318.026	-200.000	0.020	0.277
-317.012	-116.309	0.089	0.017
-315.997	98.345	0.089	0.103
-314.983	476.288	0.084	-0.189
-313.968	-27.918	-0.126	-0.073
-312.953	-200.000	0.012	-0.078
-311.939	415.292	0.059	0.125
-310.924	323.322	-0.084	0.159
-309.910	713.010	-0.062	0.164
-308.895	-6.066	0.093	0.064
-307.880	-200.000	0.008	-0.054
-306.866	-200.000	-0.009	-0.196
-305.851	505.740	0.067	0.154
-304.837	-200.000	-0.002	-0.204
-303.822	-200.000	-0.028	-0.274
-302.807	-200.000	0.000	0.510
-301.793	131.014	-0.295	-0.378
-300.778	144.503	0.088	-0.118
-299.764	800.000	0.078	-0.271
-298.749	-140.694	0.130	-0.013
-297.735	-200.000	0.027	0.244
-296.720	4.342	0.241	-0.177
-295.705	395.537	0.184	0.383
-294.691	308.930	-0.255	0.477
-293.676	-115.456	0.314	-0.059
-292.662	-179.314	-0.112	0.002
-291.647	278.078	0.081	-0.144
-290.632	273.488	0.097	-0.172
-289.618	237.031	-0.064	0.107
-288.603	104.511	-0.134	-0.158
-287.589	21.236	-0.125	0.102
-286.574	22.273	-0.214	0.174
-285.559	147.455	0.091	-0.123
-284.545	800.000	-0.032	0.135
-283.530	59.166	0.198	-0.195
-282.516	-93.658	0.299	0.083
-281.501	-135.164	-0.173	-0.021
-280.486	-35.912	-0.310	-0.168
-279.472	-91.167	-0.256	0.073
-278.457	800.000	-0.087	-0.322
-277.443	-46.601	-0.236	0.116
-276.428	-98.277	-0.092	-0.023
-275.413	-168.343	-0.305	-0.012
-274.399	95.285	0.026	0.030
-273.384	208.237	-0.191	0.298
-272.370	269.645	0.182	0.319
-271.355	448.694	0.082	-0.181
-270.340	-200.000	0.082	-0.365
-269.326	200.806	0.182	-0.279
-268.311	-26.362	0.194	0.114
-267.297	-71.774	-0.053	-0.020
-266.282	-7.644	0.249	0.168
-265.267	-113.745	0.212	-0.041
-264.253	-200.000	-0.016	-0.118
-263.238	552.470	-0.059	-0.142
-262.224	542.308	-0.056	-0.133
-261.209	-2.897	0.164	0.114
-260.195	800.000	-0.050	-0.169
-259.180	-127.729	0.208	-0.030
-258.165	-15.808	0.204	-0.130
-257.151	800.000	-0.062	-0.182
-256.136	28.884	-0.284	0.240
-255.122	72.163	0.223	-0.232
-254.107	-49.543	0.277	0.132
-253.092	27.904	-0.163	-0.137
-252.078	99.055	-0.124	-0.143
-251.063	-200.000	0.040	-0.201
-250.049	-45.083	-0.272	-0.135
-249.034	-200.000	0.296	0.000
-248.019	52.969	0.097	-0.093
-247.005	51.765	-0.056	0.054
-245.990	43.088	-0.153	0.139
-244.976	272.808	0.154	0.272
-243.961	191.954	-0.250	-0.375
-242.946	800.000	0.059	-0.237
-241.932	607.769	0.066	0.164
-240.917	-42.090	0.215	0.110
-239.903	123.023	0.140	0.175
-238.888	-64.959	-0.398	0.160
-237.873	43.690	0.278	0.254
-236.859	329.391	-0.050	0.096
-235.844	645.707	-0.013	0.033
-234.830	13.653	0.291	-0.226
-233.815	352.420	0.193	-0.381
-232.800	-70.583	0.251	0.094
-231.786	-200.000	0.004	0.273
-230.771	37.058	-0.105	0.093
-229.757	-161.617	-0.210	-0.011
-228.742	250.997	0.009	0.016
-227.727	211.487	0.038	0.060
-226.713	-52.985	-0.161	-0.074
-225.698	-133.710	0.462	0.058
-224.684	800.000	0.055	-0.216
-223.669	-165.429	0.186	0.008
-222.655	800.000	-0.045	0.140
-221.640	66.793	0.067	0.068
-220.625	-200.000	-0.044	-0.235
-219.611	-59.645	0.188	-0.080
-218.596	-10.909	-0.050	-0.033
-217.582	39.480	0.142	-0.127
-216.567	-200.000	0.014	0.262
-215.552	-61.451	-0.445	0.186
-214.538	-151.552	-0.205	-0.015
-213.523	18.628	-0.131	-0.104
-212.509	167.784	-0.107	-0.152
-211.494	-80.697	0.360	-0.119
-210.479	-11.046	0.332	-0.218
-209.465	-200.000	0.035	-0.243
-208.450	123.938	-0.052	-0.065
-207.436	633.739	-0.046	-0.116
-206.421	180.518	0.036	-0.052
-205.406	-14.819	-0.289	-0.185
-204.392	12.023	-0.143	0.110
-203.377	-27.310	-0.055	-0.032
-202.363	261.161	-0.169	0.291
-201.348	-58.615	-0.175	-0.076
-200.333	70.346	0.023	0.024
-199.319	-200.000	-0.019	-0.099
-198.304	-85.553	-0.135	0.042
-197.290	579.851	0.070	-0.171
-196.275	34.641	-0.137	-0.119
-195.260	24.500	0.045	0.037
-194.246	24.398	-0.189	-0.155
-193.231	800.000	0.079	0.226
-192.217	-3.987	-0.230	0.159
-191.202	-200.000	0.060	-0.386
-190.187	224.595	-0.081	0.130
-189.173	205.654	0.007	0.011
-188.158	112.324	-0.247	-0.297
-187.144	307.544	0.091	-0.170
-186.129	-159.131	0.449	-0.025
-185.114	-46.654	0.123	0.060
-184.100	800.000	0.071	-0.291
-183.085	-40.694	-0.033	-0.017
-182.071	168.180	0.121	-0.171
-181.056	800.000	-0.105	-0.366
-180.042	281.884	0.041	-0.073
-179.027	-121.676	-0.238	0.039
-178.012	106.209	-0.149	0.176
-176.998	324.633	0.159	0.302
-175.983	-200.000	-0.010	0.328
-174.969	53.717	0.247	-0.236
-173.954	-158.317	0.246	-0.014
-172.939	134.748	-0.085	-0.110
-171.925	329.579	-0.154	0.295
-170.910	341.523	0.199	0.387
-169.896	-35.384	-0.347	-0.188
-168.881	-67.937	-0.307	0.119
-167.866	-139.750	0.327	-0.035
-166.852	128.830	-0.050	-0.063
-165.837	-116.812	-0.323	0.059
-164.823	122.987	0.185	-0.231
-163.808	501.347	-0.056	0.128
-162.793	800.000	0.067	0.224
-161.779	-200.000	0.013	-0.207
-160.764	12.876	-0.228	-0.175
-159.750	-52.108	-0.170	-0.078
-158.735	-81.417	0.087	-0.028
-157.720	800.000	0.046	0.126
-156.706	-5.193	0.161	0.110
-155.691	12.131	-0.047	0.036
-154.677	69.225	-0.189	0.193
-153.662	-67.059	-0.176	-0.069
-152.647	708.910	-0.150	-0.393
-151.633	800.000	-0.060	-0.193
-150.618	63.757	0.204	0.204
-149.604	-49.728	0.162	-0.077
-148.589	82.327	0.062	0.067
-147.574	800.000	0.041	-0.139
-146.560	-200.000	-0.008	-0.380
-145.545	771.433	-0.038	-0.102
-144.531	-200.000	0.026	0.141
-143.516	-200.000	-0.033	0.238
-142.502	356.778	-0.070	0.139
-141.487	17.073	0.033	-0.026
-140.472	800.000	-0.095	-0.356
-139.458	800.000	-0.031	-0.121
-138.443	-131.569	0.153	0.020
-137.429	-111.101	0.244	-0.050
-136.414	-76.246	-0.126	0.044
-135.399	139.768	-0.100	0.131
-134.385	12.684	-0.126	0.097
-133.370	-57.801	-0.205	-0.089
-132.356	-74.714	-0.123	0.044
-131.341	800.000	0.019	-0.073
-130.326	-150.509	-0.057	-0.004
-129.312	69.208	0.173	0.177
-128.297	-162.356	0.077	0.004
-127.283	666.770	-0.078	0.200
-126.268	-200.000	0.005	0.104
-125.253	-65.503	-0.256	-0.102
-124.239	54.736	-0.288	-0.275
-123.224	-130.469	-0.139	-0.019
-122.210	318.347	-0.063	-0.118
-121.195	92.264	-0.081	-0.090
-120.180	-200.000	0.011	-0.093
-119.166	-143.500	0.251	-0.024
-118.151	433.606	0.009	-0.020
-117.137	68.635	0.185	0.188
-116.122	-200.000	-0.041	0.344
-115.107	-145.611	-0.028	-0.003
-114.093	-13.018	-0.145	-0.093
-113.078	31.228	-0.250	-0.213
-112.064	-172.102	0.300	0.010
-111.049	800.000	-0.077	-0.238
-110.034	-47.885	-0.034	-0.017
-109.020	151.883	0.075	-0.101
-108.005	305.063	-0.040	0.074
-106.991	135.191	-0.102	-0.131
-105.976	2.026	-0.323	-0.231
-104.962	-21.218	-0.335	-0.203
-103.947	-50.391	0.182	-0.085
-102.932	328.978	-0.189	0.361
-101.918	-200.000	-0.043	0.270
-100.903	-120.645	0.156	0.026
-99.889	800.000	-0.047	-0.199
-98.874	800.000	-0.084	-0.325
-97.859	800.000	0.059	0.210
-96.845	487.216	-0.049	-0.112
-95.830	329.912	0.121	0.230
-94.816	-200.000	-0.032	0.148
-93.801	-200.000	-0.001	0.015
-92.786	19.665	-0.223	-0.178
-91.772	-200.000	-0.011	-0.370
-90.757	73.284	-0.091	0.094
-89.743	38.799	0.112	-0.099
-88.728	341.852	0.058	0.112
-87.713	56.581	-0.170	0.164
-86.699	-200.000	0.015	0.164
-85.684	-150.974	-0.279	0.021
-84.670	14.703	0.102	-0.079
-83.655	257.097	0.082	0.140
-82.640	-200.000	-0.051	-0.261
-81.626	750.114	0.120	-0.320
-80.611	-44.364	-0.226	-0.112
-79.597	-35.719	0.061	-0.033
-78.582	800.000	0.032	0.103
-77.567	-200.000	0.000	0.158
-76.553	17.074	-0.096	-0.076
-75.538	-83.333	-0.286	0.091
-74.524	-61.296	-0.144	-0.060
-73.509	533.549	-0.050	-0.116
-72.494	800.000	0.011	-0.037
-71.480	-51.566	-0.140	-0.065
-70.465	-121.409	-0.119	-0.020
-69.451	800.000	-0.077	-0.280
-68.436	140.437	0.223	-0.291
-67.422	-200.000	-0.021	0.190
-66.407	-200.000	0.055	-0.401
-65.392	-134.009	-0.160	-0.020
-64.378	70.072	0.104	-0.106
-63.363	249.115	-0.122	-0.205
-62.349	8.152	0.055	0.041
-61.334	164.702	-0.616	-0.861
-60.319	259.047	0.247	0.422
-59.305	-200.000	-0.183	-0.977
-58.290	223.590	0.508	0.812
-57.276	783.533	0.526	1.427
-56.261	-200.000	97.699	572.732
-55.246	627.442	1400.807	3501.903
-54.232	185.745	2608.616	3837.021
-53.217	119.637	2202.936	2701.031
-52.203	44.770	1735.314	1580.104
-51.188	37.493	1546.061	1357.175
-50.173	34.930	1519.442	1316.151
-49.159	53.439	1570.045	1489.908
-48.144	56.908	1588.264	1531.402
-47.130	37.735	1544.257	1357.064
-46.115	34.560	1528.471	1321.197
-45.100	34.370	1525.614	1317.369
-44.086	34.222	1523.803	1314.731
-43.071	34.323	1521.326	1313.232
-42.057	34.192	1520.205	1311.313
-41.042	34.225	1519.077	1310.514
-40.027	34.235	1517.142	1308.860
-39.013	34.273	1515.663	1307.796
-37.998	34.223	1514.807	1306.660
-36.984	34.312	1513.290	1305.912
-35.969	34.238	1512.037	1304.274
-34.954	34.267	1510.295	1302.912
-33.940	34.141	1509.425	1301.250
-32.925	34.258	1507.660	1300.474
-31.911	34.269	1506.375	1299.390
-30.896	34.385	1504.705	1298.692
-29.881	34.342	1503.687	1297.467
-28.867	34.261	1503.050	1296.316
-27.852	34.342	1501.337	1295.336
-26.838	34.272	1500.248	1293.870
-25.823	34.385	1498.252	1292.865
-24.809	34.323	1496.492	1290.876
-23.794	34.330	1495.230	1289.780
-22.779	34.269	1494.214	1288.443
-21.765	34.315	1493.163	1287.794
-20.750	34.366	1491.831	1286.941
-19.736	34.257	1490.969	1285.409
-18.721	34.271	1489.972	1284.591
-17.706	34.293	1488.549	1283.463
-16.692	34.329	1487.814	1283.023
-15.677	34.314	1486.655	1281.872
-14.663	34.314	1485.725	1281.015
-13.648	34.175	1485.179	1279.561
-12.633	34.222	1483.911	1278.734
-11.619	34.258	1483.074	1278.205
-10.604	34.192	1482.342	1277.079
-9.590	34.241	1480.890	1276.108
-8.575	34.232	1480.662	1275.799
-7.560	34.224	1479.213	1274.447
-6.546	34.150	1478.731	1273.484
-5.531	34.233	1477.536	1272.957
-4.517	34.129	1476.933	1271.697
-3.502	34.248	1475.557	1271.251
-2.487	34.183	1475.089	1270.369
-1.473	34.128	1473.806	1268.842
-0.458	34.329	1472.285	1268.822
0.556	33.204	1462.523	1257.896
1.571	30.156	1436.862	1215.762
2.586	26.530	1373.575	1139.334
3.600	24.662	1290.086	1058.932
4.615	23.185	1244.031	1012.596
5.629	20.531	1187.744	952.175
6.644	12.540	1102.346	842.849
7.659	6.204	1061.066	779.877
8.673	5.227	1055.160	770.647
9.688	5.061	1052.309	767.678
10.702	4.972	1050.608	765.935
11.717	4.921	1049.210	764.595
12.731	7.606	1051.863	779.654
13.746	15.080	1062.643	824.511
14.761	19.550	1067.249	850.068
15.775	18.689	1065.280	844.195
16.790	17.519	1062.949	836.528
17.804	16.271	1060.926	828.740
18.819	15.383	1058.752	822.614
19.834	14.988	1057.468	819.608
20.848	14.675	1056.146	816.980
21.863	14.462	1055.594	815.441
22.877	14.279	1054.454	813.595
23.892	14.112	1053.921	812.293
24.907	13.897	1053.148	810.578
25.921	14.084	1052.229	810.708
26.936	13.899	1051.830	809.431
27.950	14.063	1050.687	809.278
28.965	14.093	1049.416	808.370
29.980	14.300	1047.879	808.120
30.994	14.211	1047.001	806.942
32.009	14.297	1046.044	806.546
33.023	14.272	1045.563	805.986
34.038	14.287	1044.671	805.299
35.053	14.332	1043.411	804.474
36.067	14.242	1042.364	803.159
37.082	14.080	1041.719	801.808
38.096	14.199	1040.820	801.620
39.111	14.234	1040.379	801.380
40.126	14.209	1039.615	800.599
41.140	14.200	1038.314	799.483
42.155	13.941	1037.347	797.426
43.169	13.826	1036.463	796.126
44.184	13.897	1035.358	795.543
45.199	13.949	1033.769	794.502
46.213	13.938	1033.316	794.030
47.228	13.993	1032.038	793.243
48.242	13.970	1031.152	792.381
49.257	13.978	1030.572	791.901
50.271	14.138	1029.191	791.533
51.286	14.065	1028.730	790.763
52.301	14.116	1027.836	790.246
53.315	14.116	1026.966	789.508
54.330	14.047	1026.250	788.562
55.344	14.037	1025.207	787.642
56.359	14.195	1023.556	787.051
57.374	14.107	1023.102	786.216
58.388	13.940	1022.441	784.851
59.403	13.809	1021.696	783.592
60.417	13.935	1021.151	783.696
61.432	13.971	1020.153	783.033
62.447	13.890	1019.574	782.139
63.461	13.860	1018.536	781.131
64.476	13.791	1017.752	780.133
65.490	13.736	1016.774	779.059
66.505	13.709	1016.328	778.520
67.520	13.726	1015.630	777.996
68.534	13.799	1015.001	777.790
69.549	13.886	1013.809	777.215
70.563	13.827	1013.076	776.307
71.578	13.791	1012.202	775.401
72.593	13.694	1011.461	774.310
73.607	13.770	1010.001	773.481
74.622	13.815	1009.410	773.168
75.636	13.720	1008.686	772.100
76.651	13.801	1007.905	771.813
77.666	13.795	1007.074	771.079
78.680	13.710	1006.519	770.190
79.695	13.857	1005.666	770.156
80.709	13.881	1004.993	769.680
81.724	13.764	1004.567	768.743
82.739	13.896	1003.703	768.628
83.753	13.966	1002.814	768.201
84.768	13.989	1002.536	768.027
85.782	14.044	1001.525	767.436
86.797	14.211	1000.837	767.612
87.812	14.237	999.987	767.014
88.826	14.115	999.242	765.812
89.841	14.131	998.090	764.936
90.855	14.141	997.707	764.619
91.870	14.048	997.068	763.635
92.884	14.187	996.242	763.574
93.899	14.179	995.504	762.903
94.914	14.212	994.410	762.147
95.928	14.303	994.066	762.233
96.943	14.372	992.939	761.616
97.957	14.387	991.900	760.822
98.972	14.199	991.689	759.733
99.987	14.181	990.557	758.716
101.001	14.242	989.677	758.256
102.016	14.139	989.649	757.698
103.030	14.081	988.805	756.722
104.045	14.071	987.528	755.631
105.060	14.366	986.252	755.928
106.074	14.196	984.778	753.961
107.089	14.077	984.261	752.957
108.103	13.918	983.808	751.826
109.118	13.998	982.462	751.090
110.133	13.974	981.684	750.322
111.147	13.991	980.742	749.613
112.162	13.993	979.844	748.867
113.176	13.988	979.171	748.265
114.191	13.948	978.627	747.602
115.206	14.139	977.363	747.429
116.220	14.028	977.151	746.704
117.235	13.965	976.499	745.857
118.249	13.960	975.271	744.828
119.264	14.009	974.292	744.236
120.279	13.952	973.282	743.145
121.293	13.963	972.618	742.621
122.308	13.750	972.363	741.406
123.322	13.957	971.005	741.229
124.337	13.945	969.925	740.286
125.352	13.837	968.748	738.844
126.366	13.868	967.434	737.911
127.381	13.925	966.876	737.676
128.395	13.855	966.009	736.638
129.410	13.935	964.604	735.858
130.424	13.851	963.856	734.849
131.439	14.023	963.078	734.948
132.454	14.139	961.885	734.486
133.468	13.927	961.856	733.464
134.483	14.051	961.213	733.455
135.497	14.019	960.360	732.598
136.512	14.057	959.709	732.203
137.527	14.082	958.906	731.637
138.541	14.122	957.760	730.877
139.556	14.153	957.057	730.408
140.570	14.223	956.207	730.004
141.585	14.304	955.324	729.620
142.600	14.098	955.272	728.610
143.614	14.172	954.570	728.337
144.629	14.185	953.866	727.791
145.643	14.291	952.733	727.325
146.658	14.218	952.078	726.441
147.673	14.184	951.033	725.431
148.687	14.146	949.853	724.303
149.702	14.186	949.365	724.039
150.716	14.017	948.403	722.508
151.731	14.150	947.435	722.282
152.746	14.192	946.740	721.871
153.760	14.038	946.310	720.816
154.775	14.286	945.306	721.059
155.789	14.222	944.834	720.358
156.804	14.203	943.947	719.536
157.819	14.254	943.352	719.237
158.833	14.308	942.257	718.575
159.848	14.428	941.677	718.587
160.862	14.385	941.142	717.927
161.877	14.311	940.556	717.100
162.892	14.259	939.890	716.306
163.906	14.217	938.752	715.192
164.921	14.186	937.918	714.361
165.935	14.178	936.813	713.420
166.950	14.203	936.182	712.987
167.964	14.167	935.332	712.123
168.979	14.159	934.865	711.670
169.994	14.211	933.242	710.591
171.008	14.223	932.623	710.107
172.023	14.369	931.449	709.775
173.037	14.270	931.272	709.153
174.052	14.415	930.519	709.135
175.067	14.439	929.452	708.364
176.081	14.250	929.013	707.161
177.096	14.267	927.737	706.202
178.110	14.245	926.897	705.405
179.125	14.225	926.742	705.138
180.140	14.264	925.820	704.542
181.154	14.367	924.740	704.093
182.169	14.293	924.470	703.511
183.183	14.420	923.923	703.568
184.198	14.502	922.907	703.078
185.213	14.422	922.746	702.559
186.227	14.466	922.232	702.291
187.242	14.507	921.308	701.694
188.256	14.592	920.885	701.669
189.271	14.586	920.205	701.066
190.286	14.614	919.301	700.431
191.300	14.426	918.319	698.832
192.315	14.274	917.640	697.618
193.329	14.328	916.410	696.845
194.344	14.275	916.036	696.276
195.359	14.410	915.412	696.304
196.373	14.421	914.981	695.961
197.388	14.519	914.900	696.248
198.402	14.524	914.251	695.714
199.417	14.696	913.852	696.066
200.432	14.869	913.358	696.350
201.446	14.836	913.060	695.921
202.461	14.887	912.428	695.591
203.475	14.978	911.947	695.541
204.490	14.954	911.224	694.830
205.504	14.794	910.384	693.464
206.519	14.713	910.001	692.773
207.534	14.736	909.043	692.077
208.548	14.816	908.028	691.574
209.563	14.757	907.597	690.942
210.577	14.792	906.454	690.156
211.592	14.851	906.301	690.221
212.607	14.835	905.812	689.723
213.621	14.939	905.440	689.806
214.636	14.925	904.648	689.086
215.650	14.796	904.003	688.002
216.665	14.925	903.563	688.137
217.680	14.889	902.939	687.451
218.694	14.995	902.615	687.582
219.709	14.996	901.584	686.740
220.723	15.043	900.997	686.423
221.738	15.173	900.177	686.272
222.753	15.005	899.500	685.004
223.767	15.183	898.593	684.981
224.782	14.992	898.138	683.795
225.796	15.090	897.910	683.959
226.811	15.223	896.928	683.696
227.826	15.181	896.241	682.939
228.840	15.043	895.381	681.661
229.855	15.195	894.548	681.587
230.869	15.145	894.259	681.101
231.884	15.076	893.068	679.856
232.899	15.135	892.364	679.499
233.913	15.080	891.654	678.675
234.928	15.113	891.014	678.261
235.942	14.892	890.819	677.157
236.957	14.962	889.948	676.717
237.972	15.007	889.016	676.132
238.986	14.987	888.666	675.726
240.001	15.125	887.848	675.599
241.015	15.002	887.341	674.657
242.030	15.170	886.319	674.498
243.045	15.203	886.066	674.379
244.059	15.120	885.530	673.575
245.074	15.196	884.856	673.312
246.088	15.226	884.132	672.821
247.103	15.308	883.576	672.665
248.117	15.260	883.215	672.138
249.132	15.514	882.338	672.429
250.147	15.456	882.071	671.933
251.161	15.510	881.395	671.575
252.176	15.630	880.460	671.283
253.190	15.744	879.992	671.321
254.205	15.666	879.759	670.772
255.220	15.752	878.895	670.399
256.234	15.784	878.253	669.978
257.249	15.842	877.355	669.465
258.263	15.682	877.126	668.595
259.278	15.664	876.609	668.069
260.293	15.739	876.014	667.854
261.307	15.708	875.520	667.295
262.322	15.809	874.947	667.199
263.336	15.696	874.452	666.316
264.351	15.653	873.854	665.631
265.366	15.759	873.108	665.424
266.380	15.875	872.329	665.227
267.395	16.018	871.697	665.253
268.409	15.795	870.943	663.740
269.424	15.819	870.279	663.268
270.439	15.786	869.686	662.627
271.453	15.690	869.055	661.709
272.468	15.884	868.083	661.673
273.482	15.691	867.603	660.491
274.497	15.753	866.940	660.173
275.512	15.766	866.242	659.633
276.526	15.798	865.500	659.136
277.541	15.756	865.211	658.692
278.555	15.731	864.340	657.874
279.570	15.919	864.006	658.295
280.585	16.017	863.302	658.085
281.599	16.044	863.031	657.926
282.614	15.952	862.106	656.802
283.628	16.031	861.291	656.429
284.643	15.898	861.295	655.860
285.657	15.886	860.879	655.438
286.672	15.947	860.082	655.010
287.687	16.128	859.053	654.870
288.701	16.029	859.000	654.388
289.716	16.024	858.566	653.979
290.730	16.051	857.507	653.219
291.745	16.087	857.109	652.997
292.760	16.022	856.283	652.059
293.774	16.122	855.720	651.958
294.789	16.223	855.239	651.927
295.803	16.139	854.673	651.111
296.818	16.069	853.773	650.099
297.833	16.186	853.243	650.088
298.847	16.051	852.948	649.287
299.862	16.105	851.954	648.681
300.876	16.345	850.824	648.685
301.891	16.196	850.539	647.836
302.906	16.272	849.948	647.622
303.920	16.270	849.476	647.196
304.935	16.428	848.536	647.027
305.949	16.514	848.193	647.038
306.964	16.231	847.814	645.609
307.979	16.330	847.221	645.481
308.993	16.329	846.566	644.922
310.008	16.412	846.151	644.865
311.022	16.477	845.307	644.413
312.037	16.485	845.175	644.284
313.052	16.431	844.448	643.465
314.066	16.412	843.748	642.803
315.081	16.263	843.201	641.766
316.095	16.293	842.398	641.210
317.110	16.381	841.916	641.121
318.125	16.357	841.429	640.603
319.139	16.339	841.165	640.277
320.154	16.267	840.705	639.598
321.168	16.379	840.364	639.707
322.183	16.434	839.453	639.162
323.197	16.368	839.001	638.514
324.212	16.461	838.106	638.128
325.227	16.486	837.782	637.916
326.241	16.460	837.300	637.397
327.256	16.435	836.681	636.774
328.270	16.564	835.975	636.666
329.285	16.422	835.484	635.703
330.300	16.421	835.393	635.570
331.314	16.360	834.852	634.875
332.329	16.451	833.789	634.352
333.343	16.725	832.943	634.680
334.358	16.575	832.940	634.061
335.373	16.653	832.381	633.871
336.387	16.635	831.643	633.184
337.402	16.700	831.300	633.110
338.416	16.727	830.673	632.677
339.431	16.699	830.133	632.105
340.446	16.784	829.529	631.905
341.460	16.801	829.258	631.706
342.475	16.970	828.095	631.393
343.489	16.970	827.761	631.083
344.504	16.988	827.389	630.812
345.519	16.951	826.631	630.041
346.533	17.084	826.264	630.200
347.548	17.134	825.993	630.120
348.562	17.058	825.309	629.263
349.577	16.882	824.532	627.963
350.592	16.901	823.897	627.494
351.606	16.703	823.573	626.461
352.621	16.903	822.999	626.708
353.635	16.995	822.444	626.568
354.650	16.979	821.976	626.096
355.665	16.873	821.806	625.523
356.679	16.924	821.389	625.335
357.694	17.077	820.957	625.517
358.708	17.088	820.013	624.781
359.723	16.964	819.967	624.237
360.738	17.071	819.135	623.939
361.752	17.189	818.571	623.889
362.767	17.048	818.419	623.199
363.781	17.164	817.963	623.222
364.796	17.165	817.503	622.821
365.810	17.227	817.242	622.796
366.825	17.352	816.724	622.801
367.840	17.483	816.247	622.863
368.854	17.357	816.120	622.250
369.869	17.449	815.049	621.713
370.883	17.383	814.502	621.002
371.898	17.307	813.674	620.037
372.913	17.328	813.506	619.933
373.927	17.372	812.867	619.549
374.942	17.374	812.269	619.047
375.956	17.215	811.973	618.186
376.971	17.432	811.224	618.349
377.986	17.521	810.494	618.065
379.000	17.475	810.058	617.508
380.015	17.412	809.713	616.964
381.029	17.626	809.031	617.165
382.044	17.569	808.278	616.329
383.059	17.690	807.769	616.324
384.073	17.706	807.319	615.984
385.088	17.543	807.251	615.288
386.102	17.460	806.402	614.289
387.117	17.449	805.616	613.593
388.132	17.479	805.221	613.349
389.146	17.433	805.541	613.369
390.161	17.593	804.468	613.076
391.175	17.651	803.894	612.793
392.190	17.669	803.844	612.764
393.205	17.641	803.601	612.424
394.219	17.625	802.733	611.651
395.234	17.530	802.387	610.994
396.248	17.573	801.757	610.614
397.263	17.560	801.243	610.120
398.278	17.544	800.689	609.590
399.292	17.537	800.389	609.280
400.307	17.709	799.783	609.381
401.321	17.524	799.718	608.617
402.336	17.478	799.436	608.182
403.350	17.652	798.920	608.358
404.365	17.626	798.763	608.093
405.380	17.730	798.207	607.984
406.394	17.709	797.627	607.415
407.409	17.797	797.213	607.358
408.423	17.902	796.373	607.039
409.438	17.881	796.495	607.006
410.453	17.953	795.862	606.723
411.467	17.996	795.556	606.588
412.482	17.917	794.957	605.799
413.496	17.933	794.728	605.628
414.511	18.086	794.205	605.716
415.526	18.081	793.870	605.390
416.540	17.975	793.557	604.724
417.555	18.113	793.311	604.968
418.569	18.100	792.524	604.269
419.584	18.149	792.190	604.136
420.599	18.090	791.269	603.173
421.613	153.178	1368.387	1789.589
422.628	132.442	1452.487	1789.676
