DTS Sentinel unit serial number:	SN413079Multiplexer serial number:	ORYXHardware model number:	OX4-SRSoftware version number:	ORYX F/W v4.00 Oryx Data Collector v3.7.2.0data status	okinstallation	princeton_trtdifferential loss correction	single-endedforward channel	channel 3reverse channel	N/Adate	2019/09/12time	19:19:04forward acquisition time	15.00reverse acquisition time	0.00gamma	496.2192k internal	0.2320k external	0.2320temperature offset calibration	1.0104default loss term (dB/km)	0.3790temperature slope calibration	1.0000multiplexer offset coefficient	1.0000multiplexer slope coefficient	1.0000fibre end	0.00T internal ref (°C)	32.44T ext. ref 1 (°C)	3.19T ext. ref 2 (°C)	27.00length (m)	temperature (°C)	Stokes	anti-Stokes-747.200	68.985	-0.187	0.194
-746.185	259.993	0.157	-0.273
-745.171	118.049	-0.582	-0.725
-744.156	-40.703	0.644	0.337
-743.142	-77.977	1.091	-0.380
-742.127	-90.389	-0.500	-0.147
-741.112	31.208	-0.318	-0.276
-740.098	-108.807	0.365	-0.079
-739.083	800.000	-0.094	-0.285
-738.069	800.000	0.150	0.516
-737.054	78.069	-0.369	0.398
-736.039	-107.542	-0.855	-0.189
-735.025	609.608	0.324	-0.817
-734.010	-200.000	0.103	0.462
-732.996	-138.385	-0.223	-0.025
-731.981	-132.230	0.319	0.042
-730.966	45.570	0.183	0.171
-729.952	-103.834	-0.090	-0.021
-728.937	-22.967	0.162	0.098
-727.923	-200.000	0.015	-0.139
-726.908	-151.738	-0.529	-0.039
-725.894	216.852	0.341	0.548
-724.879	72.195	-0.552	-0.580
-723.864	-114.521	-1.043	-0.202
-722.850	-14.920	-0.742	0.480
-721.835	238.190	0.232	-0.389
-720.821	-150.992	0.526	-0.040
-719.806	-93.569	-0.371	-0.104
-718.791	338.731	0.681	-1.340
-717.777	8.465	0.587	-0.446
-716.762	-154.450	-0.191	-0.013
-715.748	619.286	0.115	-0.292
-714.733	26.456	-0.308	0.260
-713.718	-26.114	-0.647	-0.384
-712.704	800.000	0.119	-0.442
-711.689	-130.765	0.553	-0.075
-710.675	-200.000	0.029	0.540
-709.660	77.846	-0.359	-0.386
-708.645	31.213	0.291	-0.252
-707.631	96.135	0.273	-0.315
-706.616	-77.041	-0.577	-0.203
-705.602	-70.056	-0.701	0.269
-704.587	-16.177	0.130	-0.083
-703.572	800.000	0.193	0.671
-702.558	245.164	0.623	-1.058
-701.543	493.429	-0.207	-0.480
-700.529	800.000	0.153	-0.434
-699.514	91.837	-0.466	0.529
-698.499	190.341	0.611	-0.926
-697.485	-62.652	0.776	-0.325
-696.470	-119.215	-0.188	-0.033
-695.456	-200.000	-0.082	-0.463
-694.441	800.000	-0.045	-0.139
-693.426	65.836	0.643	-0.658
-692.412	-200.000	0.034	-0.966
-691.397	133.517	0.047	-0.062
-690.383	283.246	0.063	0.114
-689.368	-127.854	-0.458	-0.067
-688.354	36.315	0.349	-0.310
-687.339	76.671	0.521	0.558
-686.324	800.000	-0.081	0.269
-685.310	299.588	0.357	0.664
-684.295	-177.270	0.107	-0.003
-683.281	800.000	0.327	-0.946
-682.266	-200.000	0.075	-0.392
-681.251	361.150	0.319	-0.646
-680.237	-200.000	-0.061	0.301
-679.222	215.629	-0.314	0.503
-678.208	800.000	0.083	0.282
-677.193	287.584	0.184	0.336
-676.178	68.050	-0.154	0.159
-675.164	-46.877	0.522	-0.257
-674.149	39.349	0.455	-0.411
-673.135	-118.937	0.480	0.085
-672.120	-95.130	-0.607	0.165
-671.105	200.632	0.249	-0.385
-670.091	-47.380	0.312	-0.153
-669.076	729.847	-0.297	0.800
-668.062	-200.000	-0.070	-0.422
-667.047	321.830	-0.313	-0.601
-666.032	-153.353	-0.038	0.003
-665.018	800.000	0.217	0.919
-664.003	54.199	-0.535	-0.519
-662.989	-65.698	-0.697	-0.281
-661.974	-200.000	-0.002	0.511
-660.959	-111.147	0.171	-0.035
-659.945	-184.563	0.438	-0.007
-658.930	-23.256	0.940	0.570
-657.916	-143.835	0.535	-0.051
-656.901	-200.000	-0.090	0.628
-655.886	800.000	0.159	-0.505
-654.872	36.913	0.168	-0.150
-653.857	800.000	-0.094	-0.311
-652.843	-200.000	-0.061	-1.126
-651.828	70.829	-0.225	0.235
-650.814	-50.425	0.328	0.156
-649.799	-106.445	0.715	-0.161
-648.784	800.000	0.216	-0.867
-647.770	144.010	-0.203	-0.273
-646.755	402.855	0.214	-0.454
-645.741	-181.688	0.618	0.012
-644.726	-143.943	-0.342	-0.032
-643.711	-66.606	-0.529	-0.211
-642.697	-54.819	-0.326	-0.148
-641.682	-200.000	0.233	1.130
-640.668	33.462	-0.200	0.175
-639.653	-60.297	0.799	0.342
-638.638	-200.000	0.077	0.511
-637.624	-200.000	0.024	0.209
-636.609	450.303	0.028	0.061
-635.595	29.070	0.029	0.024
-634.580	-109.634	-0.199	0.042
-633.565	-200.000	0.077	-0.881
-632.551	227.201	-0.437	-0.716
-631.536	-200.000	0.014	0.472
-630.522	-135.385	-0.651	-0.078
-629.507	169.128	-0.589	-0.846
-628.492	-37.933	-0.218	0.116
-627.478	49.202	-0.624	0.591
-626.463	-200.000	0.041	-0.234
-625.449	753.150	0.410	1.116
-624.434	361.461	-0.197	0.398
-623.419	208.138	-0.077	-0.121
-622.405	-92.275	-0.899	0.255
-621.390	800.000	-0.153	0.433
-620.376	-135.767	-0.311	-0.037
-619.361	253.756	-0.032	0.055
-618.346	-24.634	0.153	0.091
-617.332	-151.906	0.455	-0.034
-616.317	104.062	0.158	-0.187
-615.303	45.332	0.346	0.321
-614.288	-32.787	-0.517	-0.289
-613.273	800.000	0.286	-1.197
-612.259	-113.032	0.735	0.146
-611.244	-200.000	-0.039	-0.553
-610.230	-36.435	0.311	0.169
-609.215	589.625	0.114	-0.283
-608.201	446.924	0.118	-0.261
-607.186	-143.760	0.401	0.038
-606.171	-200.000	-0.045	-0.346
-605.157	-200.000	0.013	0.116
-604.142	-170.601	0.485	0.017
-603.128	58.254	-0.269	-0.265
-602.113	-200.000	-0.032	0.504
-601.098	407.913	0.241	-0.513
-600.084	5.049	-0.160	-0.118
-599.069	2.726	-0.510	-0.372
-598.055	-146.571	-0.871	0.076
-597.040	800.000	0.055	0.161
-596.025	-36.371	-0.449	0.243
-595.011	-71.376	-0.293	-0.110
-593.996	800.000	0.209	0.860
-592.982	800.000	0.059	0.245
-591.967	-200.000	-0.095	-0.823
-590.952	-16.771	0.312	-0.199
-589.938	-59.927	0.582	-0.250
-588.923	800.000	0.121	-0.350
-587.909	70.116	0.132	0.137
-586.894	-183.442	0.753	0.013
-585.879	202.249	-0.393	0.609
-584.865	-200.000	-0.043	-0.627
-583.850	-59.075	-0.309	0.134
-582.836	-72.321	-0.127	-0.047
-581.821	-200.000	0.062	-0.960
-580.806	800.000	-0.062	-0.210
-579.792	-152.077	-0.763	-0.056
-578.777	-141.295	-0.859	-0.088
-577.763	-63.584	0.715	-0.295
-576.748	-3.128	0.329	-0.231
-575.733	800.000	0.159	-0.570
-574.719	-48.486	0.182	-0.088
-573.704	-200.000	-0.092	0.439
-572.690	172.745	-0.310	0.448
-571.675	-162.473	-0.708	-0.035
-570.661	127.568	-0.286	-0.365
-569.646	800.000	0.218	0.629
-568.631	-200.000	0.041	0.218
-567.617	800.000	-0.101	-0.338
-566.602	43.312	-0.401	0.368
-565.588	-17.917	-0.144	0.091
-564.573	800.000	-0.239	-0.786
-563.558	-200.000	-0.076	0.737
-562.544	-200.000	-0.017	0.294
-561.529	800.000	0.074	0.213
-560.515	-62.787	0.565	0.235
-559.500	-200.000	0.000	0.155
-558.485	344.928	-0.160	0.316
-557.471	-152.068	-0.267	0.019
-556.456	-34.421	-0.289	-0.159
-555.442	712.711	0.078	0.208
-554.427	-46.990	0.376	0.185
-553.412	-5.284	-0.242	-0.167
-552.398	-54.242	-0.820	-0.374
-551.383	-10.371	-0.226	-0.150
-550.369	415.542	0.301	0.644
-549.354	411.204	0.194	-0.413
-548.339	-85.086	-1.238	0.389
-547.325	-31.700	-1.062	-0.598
-546.310	-200.000	-0.293	-1.385
-545.296	23.299	0.882	-0.727
-544.281	379.367	0.254	-0.522
-543.266	291.167	0.362	0.661
-542.252	-115.374	-0.686	-0.130
-541.237	800.000	0.147	0.472
-540.223	239.059	0.200	-0.334
-539.208	544.366	0.402	-0.964
-538.193	-200.000	-0.021	-0.314
-537.179	-0.028	0.589	-0.421
-536.164	800.000	0.132	0.412
-535.150	-200.000	-0.004	0.220
-534.135	181.595	0.249	-0.367
-533.121	163.432	-0.157	-0.221
-532.106	558.290	-0.240	0.580
-531.091	-200.000	0.012	0.209
-530.077	-105.996	-0.970	0.219
-529.062	-200.000	0.037	0.388
-528.048	7.711	0.122	-0.091
-527.033	108.515	0.488	-0.584
-526.018	592.451	-0.230	0.570
-525.004	-200.000	-0.059	0.470
-523.989	-45.977	0.274	0.135
-522.975	58.980	0.776	-0.765
-521.960	-49.016	-0.598	0.287
-520.945	634.670	0.244	-0.621
-519.931	-134.592	-0.819	0.100
-518.916	-200.000	-0.014	0.159
-517.902	-65.777	-0.757	-0.304
-516.887	41.781	-0.218	-0.198
-515.872	223.532	0.150	-0.243
-514.858	-200.000	-0.001	-0.410
-513.843	-200.000	0.090	0.493
-512.829	-200.000	-0.079	1.016
-511.814	32.397	0.479	0.414
-510.799	22.839	-0.794	-0.652
-509.785	244.726	-0.259	-0.436
-508.770	96.195	-0.457	-0.524
-507.756	-200.000	0.058	0.400
-506.741	-200.000	-0.095	0.501
-505.726	-48.112	0.640	-0.310
-504.712	-16.254	0.628	-0.399
-503.697	352.907	-0.317	-0.630
-502.683	-21.061	-0.650	-0.399
-501.668	-9.155	-0.361	-0.242
-500.653	121.982	-0.426	0.533
-499.639	-54.773	-1.093	-0.494
-498.624	-200.000	0.009	0.620
-497.610	322.313	0.666	-1.270
-496.595	-53.737	0.710	-0.324
-495.581	-111.113	-0.221	0.045
-494.566	21.262	0.629	0.512
-493.551	-148.137	-0.403	0.033
-492.537	151.267	-0.170	-0.231
-491.522	-200.000	-0.250	1.169
-490.508	-59.961	0.248	0.106
-489.493	233.073	0.312	-0.514
-488.478	117.432	-0.383	-0.471
-487.464	-24.707	-0.565	-0.336
-486.449	-200.000	-0.021	-0.139
-485.435	-151.137	0.920	-0.069
-484.420	372.994	-0.157	0.320
-483.405	235.060	-0.495	0.817
-482.391	-200.000	-0.038	0.284
-481.376	42.654	0.558	0.508
-480.362	-125.953	-0.212	-0.032
-479.347	33.801	0.720	0.627
-478.332	152.828	-0.399	-0.545
-477.318	-139.631	0.950	0.101
-476.303	75.853	-0.365	0.386
-475.289	-200.000	-0.049	-0.644
-474.274	-68.442	0.371	-0.144
-473.259	-80.602	-0.504	0.168
-472.245	-118.247	-0.483	-0.086
-471.230	-16.807	-0.080	0.051
-470.216	13.834	-0.595	-0.463
-469.201	-126.024	-0.643	0.097
-468.186	-122.511	-0.756	0.123
-467.172	-8.489	0.581	0.391
-466.157	-16.633	-0.342	0.217
-465.143	-103.760	-0.472	0.110
-464.128	60.833	-0.481	-0.477
-463.113	241.249	0.260	0.435
-462.099	-67.661	-0.464	0.182
-461.084	-78.505	-0.757	-0.259
-460.070	631.086	0.376	0.953
-459.055	-200.000	-0.011	-0.592
-458.040	-15.296	0.203	0.130
-457.026	-200.000	-0.002	-0.064
-456.011	-114.226	-0.566	0.109
-454.997	377.495	0.196	-0.401
-453.982	-79.352	-0.113	-0.038
-452.968	115.932	-0.153	-0.187
-451.953	-107.129	0.462	0.102
-450.938	94.974	-0.370	0.421
-449.924	-117.867	1.217	0.218
-448.909	86.811	-0.240	-0.264
-447.895	-28.195	0.886	-0.512
-446.880	-106.301	-0.799	0.179
-445.865	113.961	0.026	-0.032
-444.851	-190.318	0.743	-0.008
-443.836	-6.099	-0.327	0.223
-442.822	800.000	0.244	0.885
-441.807	-30.539	1.139	0.645
-440.792	-66.646	0.876	0.347
-439.778	-147.488	0.154	-0.013
-438.763	10.923	-0.294	0.224
-437.749	-46.727	-0.285	0.139
-436.734	-200.000	0.029	-0.293
-435.719	-43.006	0.506	-0.256
-434.705	800.000	0.238	0.851
-433.690	653.237	-0.239	0.611
-432.676	800.000	-0.126	-0.396
-431.661	-93.185	0.741	0.206
-430.646	-200.000	0.481	0.002
-429.632	800.000	0.100	-0.347
-428.617	231.552	0.146	-0.238
-427.603	-200.000	-0.077	0.946
-426.588	201.025	0.135	0.207
-425.573	-73.843	-0.275	-0.100
-424.559	144.844	0.642	-0.858
-423.544	290.119	0.371	0.672
-422.530	151.221	0.402	0.547
-421.515	127.172	-0.151	0.191
-420.500	-6.847	0.140	-0.095
-419.486	48.194	0.346	-0.323
-418.471	199.249	0.259	-0.396
-417.457	-76.338	0.804	-0.283
-416.442	-34.367	-0.775	-0.424
-415.428	1.603	0.656	0.471
-414.413	695.454	0.165	0.434
-413.398	28.522	0.444	0.375
-412.384	147.159	0.436	-0.586
-411.369	-23.980	-0.731	-0.436
-410.355	-200.000	-0.056	0.693
-409.340	-108.601	-0.263	0.056
-408.325	-200.000	0.088	-0.743
-407.311	-114.047	0.400	-0.077
-406.296	452.913	0.104	0.229
-405.282	-121.973	0.296	0.049
-404.267	-8.484	-0.224	-0.150
-403.252	-200.000	-0.025	0.235
-402.238	43.031	-0.153	-0.139
-401.223	102.373	-0.167	-0.195
-400.209	176.731	0.603	0.875
-399.194	64.446	0.595	0.598
-398.179	-33.628	0.197	0.109
-397.165	47.215	-1.107	-1.028
-396.150	49.652	-0.284	-0.267
-395.136	-52.832	-0.374	0.172
-394.121	637.037	0.291	-0.736
-393.106	-105.569	0.783	0.177
-392.092	-59.430	-0.219	-0.094
-391.077	147.191	-0.134	-0.179
-390.063	-200.000	-0.034	-0.403
-389.048	137.120	-0.157	-0.204
-388.033	423.583	-0.172	-0.370
-387.019	53.644	-0.307	-0.294
-386.004	-52.689	0.863	-0.397
-384.990	188.833	0.112	-0.168
-383.975	-37.624	0.332	-0.177
-382.960	498.312	0.299	-0.687
-381.946	-54.147	-0.467	0.211
-380.931	-135.483	-0.525	-0.062
-379.917	638.102	-0.240	0.607
-378.902	-77.106	-0.349	0.121
-377.888	-169.909	-0.991	0.035
-376.873	-200.000	0.028	0.778
-375.858	-61.579	-0.556	-0.233
-374.844	300.587	-0.013	-0.024
-373.829	31.978	0.560	0.481
-372.815	-200.000	-0.001	-0.736
-371.800	-153.523	0.513	-0.035
-370.785	207.063	-0.353	-0.548
-369.771	87.828	0.267	-0.294
-368.756	-48.961	0.117	0.056
-367.742	234.703	-0.525	0.863
-366.727	-130.514	-0.179	-0.024
-365.712	187.781	0.286	-0.426
-364.698	-200.000	0.321	0.001
-363.683	1.456	0.278	0.199
-362.669	-200.000	-0.011	-0.214
-361.654	-50.717	0.781	0.366
-360.639	12.613	0.317	-0.244
-359.625	-200.000	-0.065	-0.552
-358.610	-33.689	-0.408	0.224
-357.596	-144.634	1.017	-0.093
-356.581	70.938	-0.255	0.263
-355.566	10.867	0.217	0.165
-354.552	258.799	-0.305	0.524
-353.537	-200.000	-0.067	-0.739
-352.523	48.420	-0.447	-0.417
-351.508	-100.500	-0.496	-0.122
-350.493	-200.000	0.173	0.787
-349.479	-145.180	-0.695	0.063
-348.464	-200.000	0.063	0.758
-347.450	-64.547	-0.679	0.274
-346.435	800.000	0.090	0.257
-345.420	-82.564	-0.156	-0.050
-344.406	800.000	0.034	0.129
-343.391	569.707	0.084	0.203
-342.377	75.812	0.313	-0.329
-341.362	79.050	-0.182	-0.194
-340.348	-96.328	0.474	0.125
-339.333	737.652	-0.139	-0.372
-338.318	-45.966	-0.252	0.124
-337.304	113.243	-0.186	-0.224
-336.289	-173.012	-0.525	-0.016
-335.275	55.241	-0.396	0.381
-334.260	170.107	-0.140	0.200
-333.245	751.443	-0.347	-0.933
-332.231	-107.150	0.314	-0.069
-331.216	245.310	-0.460	0.770
-330.202	0.814	0.505	0.360
-329.187	-56.192	-0.426	0.189
-328.172	-200.000	0.029	-0.143
-327.158	-78.272	1.062	0.363
-326.143	800.000	0.151	-0.499
-325.129	-92.218	-0.326	0.091
-324.114	-0.193	0.618	-0.438
-323.099	101.610	-0.677	-0.785
-322.085	160.657	0.059	0.081
-321.070	93.856	0.399	-0.450
-320.056	-200.000	-0.186	-0.879
-319.041	-138.711	-0.597	-0.065
-318.026	290.485	-0.295	0.533
-317.012	-77.381	-0.904	-0.312
-315.997	-5.841	-0.386	-0.263
-314.983	-200.000	-0.121	-0.584
-313.968	-30.641	-0.135	-0.076
-312.953	-200.000	-0.010	0.187
-311.939	-175.808	0.280	0.007
-310.924	26.206	0.365	0.303
-309.910	-12.118	-0.640	0.416
-308.895	449.153	0.262	0.574
-307.880	-8.027	-0.298	0.200
-306.866	146.249	-0.513	0.684
-305.851	-0.052	-0.234	-0.166
-304.837	-44.205	0.399	0.199
-303.822	-76.764	-0.481	0.168
-302.807	-72.434	0.837	0.307
-301.793	761.568	-0.329	0.887
-300.778	-200.000	-0.006	0.360
-299.764	-123.639	-0.882	-0.139
-298.749	88.385	-0.161	-0.177
-297.735	-4.714	1.199	-0.822
-296.720	-162.986	-0.423	-0.020
-295.705	800.000	0.123	-0.446
-294.691	669.429	-0.166	0.427
-293.676	800.000	0.062	-0.192
-292.662	153.278	0.553	0.752
-291.647	-53.914	-0.728	-0.330
-290.632	225.125	0.245	0.395
-289.618	-148.551	-0.895	0.073
-288.603	-182.505	0.885	-0.016
-287.589	-96.807	0.800	0.209
-286.574	98.758	0.457	0.524
-285.559	572.480	-0.353	0.853
-284.545	-159.134	0.838	0.047
-283.530	800.000	0.152	-0.453
-282.516	448.559	0.457	1.000
-281.501	288.120	-0.296	-0.532
-280.486	-68.543	1.298	-0.500
-279.472	-8.758	-0.254	-0.169
-278.457	-49.596	-0.515	-0.244
-277.443	-200.000	-0.041	0.177
-276.428	449.260	0.124	0.272
-275.413	-144.076	0.409	-0.038
-274.399	-200.000	0.079	-0.611
-273.384	-23.753	-0.934	-0.555
-272.370	67.085	0.100	0.101
-271.355	-121.085	0.274	0.046
-270.340	800.000	0.315	-0.974
-269.326	-123.391	0.167	0.026
-268.311	-29.933	-0.983	0.556
-267.297	-10.262	-0.063	-0.042
-266.282	-77.682	0.495	0.170
-265.267	-200.000	0.059	0.571
-264.253	-41.150	0.547	0.280
-263.238	-33.494	0.624	-0.342
-262.224	149.771	-0.270	-0.364
-261.209	76.740	0.436	-0.459
-260.195	-200.000	-0.053	0.276
-259.180	-120.049	-0.507	-0.086
-258.165	-96.489	-0.452	0.119
-257.151	-64.773	-0.318	0.128
-256.136	115.652	0.407	-0.494
-255.122	-93.146	0.867	0.239
-254.107	-200.000	-0.115	0.511
-253.092	103.134	0.433	-0.504
-252.078	-200.000	0.051	1.053
-251.063	-37.494	-0.297	0.157
-250.049	571.872	0.109	0.263
-249.034	-39.626	0.353	-0.183
-248.019	-200.000	0.063	0.332
-247.005	32.337	-0.156	0.133
-245.990	73.202	0.237	-0.246
-244.976	-200.000	0.207	1.198
-243.961	-96.972	0.289	0.075
-242.946	-200.000	-0.028	-0.128
-241.932	800.000	0.219	0.800
-240.917	-181.730	0.438	-0.008
-239.903	-148.080	0.724	0.060
-238.888	-200.000	0.169	0.800
-237.873	19.600	0.462	-0.368
-236.859	-135.085	-0.219	0.026
-235.844	-21.838	0.689	-0.416
-234.830	-200.000	0.017	0.732
-233.815	7.511	0.273	0.203
-232.800	-200.000	-0.025	-0.408
-231.786	-62.245	-0.641	-0.265
-230.771	103.767	0.213	-0.248
-229.757	-128.163	-0.680	0.096
-228.742	-186.091	0.705	0.010
-227.727	317.558	-0.066	-0.123
-226.713	-7.141	0.395	-0.266
-225.698	-0.097	0.245	0.173
-224.684	-117.126	-0.633	0.114
-223.669	-38.478	0.413	0.216
-222.655	800.000	-0.172	0.625
-221.640	-47.881	-0.991	0.475
-220.625	800.000	0.240	0.701
-219.611	46.468	0.301	-0.277
-218.596	-200.000	0.026	0.172
-217.582	277.555	-0.318	-0.561
-216.567	-200.000	0.080	0.407
-215.552	37.341	-0.355	0.311
-214.538	-130.607	0.846	-0.113
-213.523	48.517	-0.493	0.457
-212.509	233.237	-0.461	-0.751
-211.494	-37.900	-0.717	0.378
-210.479	140.832	-0.117	-0.153
-209.465	-130.422	-0.705	-0.095
-208.450	800.000	0.096	-0.280
-207.436	52.004	-0.388	0.366
-206.421	-123.972	-0.755	0.118
-205.406	207.226	-0.516	-0.797
-204.392	363.150	-0.039	0.078
-203.377	192.373	0.029	-0.043
-202.363	616.571	0.022	0.055
-201.348	-121.168	0.187	0.031
-200.333	33.912	0.503	0.433
-199.319	-200.000	0.028	-0.187
-198.304	-200.000	0.012	-0.475
-197.290	296.203	-0.357	0.648
-196.275	37.083	-0.771	0.675
-195.260	376.461	-0.371	0.749
-194.246	356.798	0.266	0.525
-193.231	106.264	0.483	-0.566
-192.217	70.322	0.395	-0.404
-191.202	134.594	-0.052	-0.067
-190.187	625.533	-0.031	-0.078
-189.173	-200.000	0.029	0.670
-188.158	-158.624	0.225	-0.013
-187.144	800.000	-0.243	0.814
-186.129	800.000	-0.069	0.294
-185.114	335.646	0.113	-0.217
-184.100	91.791	0.164	-0.183
-183.085	-200.000	0.030	0.494
-182.071	585.054	-0.235	0.571
-181.056	-200.000	-0.055	-0.541
-180.042	-53.063	-0.505	-0.230
-179.027	104.133	0.722	-0.840
-178.012	273.847	0.300	0.526
-176.998	47.410	0.415	0.383
-175.983	-162.791	0.256	0.012
-174.969	-200.000	0.059	0.287
-173.954	60.918	0.336	0.330
-172.939	-142.818	-0.818	-0.079
-171.925	787.646	0.182	-0.494
-170.910	-27.833	0.278	-0.159
-169.896	-200.000	0.089	-0.951
-168.881	800.000	-0.163	-0.698
-167.866	-200.000	0.003	-0.345
-166.852	129.536	-0.287	-0.363
-165.837	-114.141	0.079	0.015
-164.823	-188.558	0.688	0.008
-163.808	54.474	0.555	-0.528
-162.793	800.000	0.068	0.251
-161.779	263.352	-0.195	0.334
-160.764	177.416	0.434	-0.624
-159.750	467.315	0.200	-0.444
-158.735	200.119	-0.262	-0.398
-157.720	-50.657	-0.062	-0.029
-156.706	-200.000	-0.024	-0.313
-155.691	293.426	-0.333	0.601
-154.677	-69.405	0.180	-0.068
-153.662	-28.847	0.366	-0.208
-152.647	-200.000	-0.013	-0.751
-151.633	-140.806	0.926	-0.094
-150.618	-200.000	0.023	-0.438
-149.604	17.972	-1.243	0.979
-148.589	-7.782	-0.915	0.611
-147.574	-14.211	-0.638	0.406
-146.560	60.576	-0.410	-0.401
-145.545	6.925	0.391	-0.288
-144.531	-10.270	-0.945	-0.620
-143.516	14.497	0.340	0.262
-142.502	-60.593	-0.640	-0.268
-141.487	-200.000	0.032	-0.371
-140.472	-11.499	0.349	0.227
-139.458	263.303	0.404	0.693
-138.443	-9.759	-0.665	-0.437
-137.429	397.037	-0.557	-1.150
-136.414	-22.809	-0.488	0.291
-135.399	-53.639	0.778	-0.351
-134.385	30.942	0.939	-0.795
-133.370	510.758	-0.371	-0.852
-132.356	-60.115	0.800	0.337
-131.341	26.870	0.306	0.253
-130.326	800.000	0.018	0.066
-129.312	-115.404	0.428	0.080
-128.297	-169.880	-0.584	0.021
-127.283	156.002	-0.483	0.657
-126.268	78.143	-0.715	0.753
-125.253	-200.000	0.037	-0.333
-124.239	66.092	-0.116	-0.116
-123.224	593.827	0.058	0.141
-122.210	108.646	-0.519	0.612
-121.195	4.312	0.595	-0.430
-120.180	-65.190	-0.373	0.148
-119.166	185.673	-0.490	-0.718
-118.151	-106.909	-0.247	-0.054
-117.137	-96.454	-0.389	-0.101
-116.122	88.253	0.285	-0.312
-115.107	-176.089	0.081	0.002
-114.093	-93.801	0.197	0.054
-113.078	-49.125	-0.230	0.108
-112.064	38.606	-1.038	0.913
-111.049	438.407	0.159	0.342
-110.034	84.679	0.595	0.643
-109.020	-40.704	0.488	0.249
-108.005	-96.576	0.907	0.236
-106.991	-117.420	0.316	-0.056
-105.976	-41.884	-0.657	0.332
-104.962	305.018	-0.522	-0.956
-103.947	19.232	0.299	-0.237
-102.932	-109.837	-0.177	-0.037
-101.918	84.026	-0.051	-0.055
-100.903	-117.515	0.570	-0.102
-99.889	-84.812	0.882	0.273
-98.874	-66.460	-0.410	0.161
-97.859	-54.513	-0.300	-0.134
-96.845	762.692	0.063	-0.168
-95.830	75.643	0.477	-0.496
-94.816	-18.355	0.180	0.111
-93.801	-200.000	-0.001	0.890
-92.786	-200.000	-0.050	-0.505
-91.772	-138.138	0.830	-0.091
-90.757	-124.310	0.194	0.030
-89.743	-200.000	-0.010	-0.319
-88.728	-6.263	-0.240	0.161
-87.713	160.923	-0.297	0.409
-86.699	800.000	0.162	-0.636
-85.684	-151.830	0.439	-0.032
-84.670	143.127	0.412	0.540
-83.655	235.476	-0.179	-0.292
-82.640	47.820	-0.286	-0.263
-81.626	800.000	0.220	-0.634
-80.611	-200.000	-0.268	1.164
-79.597	-136.513	0.633	0.072
-78.582	-115.963	-0.166	0.030
-77.567	39.176	0.519	-0.457
-76.553	-65.746	0.513	0.202
-75.538	334.195	-0.127	-0.243
-74.524	-4.700	0.892	-0.606
-73.509	-87.360	-0.796	0.238
-72.494	-4.663	0.680	0.462
-71.480	-29.396	-1.160	-0.654
-70.465	-87.920	0.324	-0.096
-69.451	-34.365	0.180	-0.097
-68.436	460.878	0.132	0.290
-67.422	242.031	-0.145	0.239
-66.407	625.418	-0.294	0.729
-65.392	-169.555	0.931	0.033
-64.378	800.000	0.097	-0.406
-63.363	13.830	-0.410	-0.314
-62.349	166.027	-0.123	-0.172
-61.334	-19.425	-1.579	-0.963
-60.319	14.258	0.329	0.253
-59.305	-200.000	0.007	-1.425
-58.290	70.735	0.795	0.810
-57.276	29.030	1.282	1.070
-56.261	-200.000	95.610	597.828
-55.246	682.185	1351.240	3466.415
-54.232	205.278	2512.483	3840.343
-53.217	118.764	2139.425	2600.838
-52.203	43.001	1692.176	1518.692
-51.188	35.701	1506.382	1302.660
-50.173	33.220	1481.122	1264.207
-49.159	53.257	1531.902	1444.179
-48.144	53.865	1549.729	1465.062
-47.130	35.666	1507.904	1303.529
-46.115	32.458	1495.071	1270.768
-45.100	32.523	1490.985	1267.687
-44.086	32.544	1488.581	1265.731
-43.071	32.199	1487.946	1262.824
-42.057	32.265	1485.424	1261.075
-41.042	32.438	1484.148	1261.101
-40.027	32.618	1481.487	1259.990
-39.013	32.620	1480.402	1259.034
-37.998	32.225	1479.495	1255.577
-36.984	32.215	1480.253	1256.100
-35.969	32.541	1477.610	1255.984
-34.954	32.439	1476.030	1253.914
-33.940	32.398	1474.518	1252.301
-32.925	32.647	1472.479	1252.174
-31.911	32.631	1471.607	1251.282
-30.896	32.345	1471.808	1249.500
-29.881	32.506	1469.220	1248.318
-28.867	32.503	1467.860	1247.099
-27.852	32.630	1465.367	1245.770
-26.838	32.486	1465.490	1244.872
-25.823	32.524	1463.288	1243.201
-24.809	32.408	1462.021	1241.310
-23.794	32.349	1460.612	1239.678
-22.779	32.445	1459.357	1239.196
-21.765	32.580	1458.036	1238.915
-20.750	32.583	1457.187	1238.159
-19.736	32.540	1456.206	1236.997
-18.721	32.456	1453.868	1234.412
-17.706	32.392	1453.926	1233.991
-16.692	32.415	1452.231	1232.651
-15.677	32.439	1452.160	1232.702
-14.663	32.346	1450.760	1230.858
-13.648	32.356	1449.681	1229.958
-12.633	32.356	1448.325	1228.756
-11.619	32.600	1447.162	1229.314
-10.604	32.306	1447.364	1227.518
-9.590	32.232	1446.541	1226.288
-8.575	32.367	1445.243	1226.018
-7.560	32.293	1444.148	1224.560
-6.546	32.309	1443.596	1224.147
-5.531	32.621	1442.362	1225.082
-4.517	32.330	1441.950	1222.791
-3.502	32.402	1440.873	1222.299
-2.487	32.454	1439.749	1221.632
-1.473	32.348	1438.493	1219.834
-0.458	32.359	1436.783	1218.405
0.556	33.588	1428.400	1208.458
1.571	30.566	1401.671	1166.808
2.586	26.815	1343.233	1095.452
3.600	25.017	1262.547	1019.342
4.615	23.511	1216.902	974.137
5.629	20.097	1159.769	910.414
6.644	10.936	1076.890	800.393
7.659	4.217	1035.226	737.485
8.673	3.377	1030.039	729.746
9.688	3.230	1025.876	726.039
10.702	3.066	1024.879	724.498
11.717	3.087	1023.492	723.552
12.731	6.217	1026.965	740.701
13.746	15.275	1040.567	793.497
14.761	23.252	1048.399	837.280
15.775	24.441	1049.731	843.898
16.790	24.096	1049.552	842.048
17.804	23.964	1047.785	839.932
18.819	23.537	1046.686	836.961
19.834	23.350	1046.550	835.898
20.848	23.646	1045.623	836.476
21.863	23.729	1045.702	836.856
22.877	24.083	1043.958	837.052
23.892	23.632	1044.471	835.267
24.907	23.747	1042.844	834.432
25.921	23.429	1041.961	832.161
26.936	23.634	1042.135	833.188
27.950	23.430	1041.206	831.414
28.965	23.082	1039.579	828.410
29.980	23.166	1039.666	828.800
30.994	23.491	1035.973	827.299
32.009	23.528	1036.299	827.662
33.023	23.540	1036.486	827.795
34.038	23.638	1035.582	827.455
35.053	23.472	1034.480	825.730
36.067	23.357	1033.777	824.559
37.082	23.349	1032.730	823.615
38.096	23.295	1032.237	822.895
39.111	23.649	1030.351	822.960
40.126	23.684	1030.240	822.963
41.140	23.399	1028.972	820.556
42.155	23.030	1027.867	817.899
43.169	22.673	1027.019	815.497
44.184	22.834	1025.521	814.982
45.199	23.089	1024.283	815.103
46.213	22.552	1024.164	812.457
47.228	22.865	1023.276	813.124
48.242	23.313	1023.333	815.161
49.257	23.342	1023.304	815.196
50.271	23.369	1022.110	814.299
51.286	23.577	1020.577	813.961
52.301	23.896	1020.389	815.200
53.315	23.654	1019.136	813.020
54.330	23.463	1019.256	812.168
55.344	23.480	1017.849	811.054
56.359	23.219	1016.603	808.796
57.374	23.229	1015.827	808.151
58.388	23.314	1014.803	807.654
59.403	23.494	1013.527	807.386
60.417	23.122	1013.379	805.503
61.432	22.921	1012.529	803.840
62.447	23.184	1012.708	805.109
63.461	22.917	1012.287	803.486
64.476	22.851	1011.052	802.140
65.490	23.164	1009.517	802.271
66.505	22.692	1008.410	799.178
67.520	22.615	1008.773	799.045
68.534	23.164	1007.539	800.482
69.549	23.298	1006.292	800.026
70.563	22.825	1005.286	797.020
71.578	22.702	1004.250	795.576
72.593	22.554	1003.115	793.939
73.607	22.401	1002.126	792.396
74.622	22.028	1001.815	790.404
75.636	22.410	1001.505	791.805
76.651	22.528	1000.156	791.202
77.666	22.784	999.406	791.683
78.680	22.791	999.045	791.361
79.695	22.650	998.676	790.367
80.709	22.463	997.847	788.804
81.724	22.512	997.116	788.374
82.739	22.685	997.103	789.068
83.753	23.188	995.110	789.668
84.768	23.108	995.589	789.617
85.782	23.902	995.415	792.955
86.797	24.116	994.486	793.099
87.812	24.114	993.599	792.313
88.826	23.830	993.410	790.826
89.841	23.791	991.666	789.196
90.855	23.864	991.884	789.624
91.870	23.513	991.193	787.444
92.884	23.858	990.405	788.278
93.899	24.159	987.840	787.498
94.914	23.454	989.060	785.283
95.928	23.778	987.297	785.241
96.943	23.817	986.320	784.569
97.957	23.718	985.168	783.145
98.972	23.477	984.472	781.462
99.987	23.639	983.991	781.725
101.001	23.999	982.645	782.169
102.016	23.606	982.320	780.112
103.030	23.636	980.989	779.118
104.045	23.525	980.897	778.488
105.060	23.612	979.178	777.436
106.074	23.510	979.119	776.878
107.089	23.755	976.826	776.057
108.103	23.072	978.285	774.159
109.118	23.632	975.167	774.065
110.133	22.912	974.511	770.337
111.147	22.927	973.539	769.566
112.162	22.673	973.029	767.991
113.176	22.920	971.647	767.904
114.191	22.625	970.952	766.009
115.206	22.905	971.353	767.472
116.220	22.656	970.621	765.742
117.235	22.783	968.821	764.806
118.249	22.750	967.876	763.850
119.264	22.257	968.301	761.985
120.279	22.830	965.693	762.340
121.293	22.499	965.072	760.353
122.308	22.651	963.584	759.769
123.322	22.540	963.535	759.185
124.337	22.388	962.344	757.526
125.352	22.225	961.522	756.111
126.366	22.114	960.905	755.080
127.381	22.392	959.610	755.191
128.395	22.543	959.454	755.649
129.410	22.815	957.556	755.248
130.424	22.775	957.218	754.744
131.439	23.221	956.256	755.825
132.454	22.591	957.436	753.997
133.468	22.925	954.918	753.369
134.483	23.087	955.014	754.072
135.497	23.071	954.187	753.282
136.512	23.244	952.576	752.681
137.527	23.208	952.833	752.664
138.541	22.924	953.105	751.602
139.556	23.305	951.543	751.921
140.570	23.351	950.266	751.042
141.585	23.580	950.559	752.177
142.600	23.428	951.158	751.941
143.614	23.420	949.857	750.811
144.629	23.552	948.607	750.317
145.643	23.874	948.170	751.265
146.658	23.975	946.384	750.207
147.673	23.836	944.595	748.140
148.687	23.422	944.464	746.226
149.702	23.069	943.998	744.308
150.716	23.014	942.406	742.757
151.731	22.942	941.093	741.351
152.746	23.144	940.656	741.788
153.760	23.352	939.510	741.690
154.775	23.451	938.441	741.194
155.789	23.692	938.342	742.059
156.804	23.567	938.061	741.249
157.819	23.581	937.080	740.465
158.833	23.556	935.998	739.440
159.848	23.594	935.463	739.110
160.862	23.724	934.418	738.762
161.877	23.797	934.433	739.012
162.892	23.780	932.936	737.693
163.906	23.684	931.680	736.237
164.921	23.089	930.667	732.907
165.935	23.274	929.332	732.554
166.950	23.076	929.599	731.882
167.964	23.300	928.451	731.836
168.979	23.655	927.976	732.864
169.994	23.614	925.866	730.963
171.008	23.323	924.861	728.910
172.023	23.247	924.167	727.984
173.037	23.507	924.849	729.527
174.052	23.937	923.613	730.256
175.067	23.514	922.591	727.646
176.081	23.615	921.081	726.804
177.096	23.033	919.889	723.420
178.110	22.915	918.558	721.826
179.125	23.154	917.862	722.193
180.140	23.124	917.238	721.513
181.154	23.089	917.105	721.201
182.169	23.236	916.932	721.600
183.183	23.648	916.597	722.953
184.198	23.630	916.388	722.652
185.213	23.398	916.144	721.449
186.227	23.361	915.424	720.667
187.242	23.830	913.908	721.316
188.256	23.401	914.623	720.072
189.271	23.816	913.301	720.653
190.286	23.709	912.753	719.721
191.300	23.601	911.350	718.114
192.315	23.093	909.561	714.589
193.329	22.647	909.020	712.302
194.344	22.370	909.281	711.324
195.359	22.749	908.341	712.055
196.373	23.505	907.393	714.294
197.388	23.328	907.746	713.797
198.402	23.835	906.233	714.580
199.417	23.965	906.124	714.956
200.432	24.046	906.564	715.563
201.446	24.176	906.930	716.312
202.461	23.937	905.995	714.553
203.475	24.054	905.348	714.447
204.490	23.837	905.129	713.338
205.504	23.146	903.835	709.487
206.519	23.205	903.180	709.147
207.534	23.268	902.994	709.191
208.548	23.783	901.437	709.962
209.563	23.463	900.352	707.768
210.577	23.718	900.261	708.650
211.592	23.610	899.289	707.393
212.607	23.906	899.738	708.866
213.621	24.248	898.151	708.910
214.636	23.968	898.673	708.147
215.650	23.815	897.511	706.561
216.665	23.535	898.286	705.995
217.680	23.774	896.400	705.399
218.694	23.848	896.006	705.317
219.709	23.785	896.182	705.147
220.723	24.017	895.077	705.133
221.738	23.433	893.974	701.890
222.753	23.745	892.803	702.141
223.767	23.812	891.543	701.352
224.782	23.524	891.234	699.911
225.796	23.768	891.881	701.322
226.811	24.000	891.243	701.673
227.826	23.911	889.576	699.948
228.840	23.343	888.469	696.781
229.855	23.188	888.463	696.107
230.869	23.483	888.050	696.881
231.884	23.358	887.624	695.994
232.899	23.563	885.884	695.369
233.913	23.370	886.858	695.317
234.928	23.341	885.686	694.221
235.942	23.294	884.238	692.842
236.957	23.038	883.455	691.167
237.972	23.166	882.132	690.570
238.986	22.950	882.359	689.843
240.001	22.924	882.116	689.491
241.015	23.116	881.691	689.845
242.030	23.104	881.289	689.423
243.045	23.262	879.629	688.677
244.059	23.660	879.002	689.672
245.074	23.226	879.930	688.651
246.088	23.795	878.436	689.633
247.103	23.758	877.857	688.971
248.117	24.172	877.526	690.258
249.132	24.111	877.325	689.799
250.147	24.356	878.196	691.375
251.161	24.538	877.375	691.370
252.176	24.969	877.278	692.900
253.190	24.816	875.991	691.232
254.205	24.665	876.075	690.656
255.220	24.874	875.095	690.626
256.234	24.730	873.703	688.914
257.249	24.698	873.355	688.455
258.263	24.609	873.347	688.045
259.278	24.374	872.754	686.612
260.293	24.501	872.854	687.119
261.307	24.280	871.309	684.991
262.322	24.593	870.541	685.529
263.336	24.694	870.583	685.891
264.351	24.390	870.509	684.603
265.366	24.009	869.365	682.185
266.380	24.207	869.081	682.659
267.395	24.716	867.940	683.650
268.409	24.529	867.742	682.719
269.424	24.739	865.456	681.658
270.439	24.636	865.589	681.312
271.453	24.722	864.067	680.382
272.468	24.301	863.963	678.635
273.482	24.594	863.429	679.269
274.497	24.459	863.728	678.930
275.512	24.265	861.677	676.525
276.526	24.827	861.145	678.175
277.541	24.445	862.223	677.517
278.555	24.795	860.812	677.672
279.570	24.611	861.492	677.451
280.585	24.951	861.058	678.337
281.599	25.167	859.649	677.985
282.614	24.745	859.262	676.023
283.628	24.284	858.228	673.412
284.643	24.099	856.829	671.556
285.657	24.253	857.090	672.283
286.672	24.146	857.012	671.759
287.687	24.553	855.340	671.920
288.701	24.285	856.037	671.399
289.716	24.690	855.661	672.569
290.730	24.560	854.257	670.916
291.745	24.381	854.584	670.441
292.760	24.214	853.670	669.037
293.774	24.532	853.109	669.731
294.789	24.733	852.861	670.232
295.803	24.898	853.159	671.024
296.818	24.591	851.612	668.601
297.833	24.540	851.051	667.908
298.847	24.439	850.240	666.835
299.862	24.559	849.206	666.416
300.876	24.694	849.140	666.806
301.891	24.772	848.502	666.537
302.906	24.815	848.753	666.838
303.920	25.024	846.689	665.934
304.935	25.263	846.791	666.843
305.949	25.090	847.507	666.703
306.964	25.210	846.017	665.919
307.979	24.721	845.535	663.664
308.993	24.669	844.856	662.879
310.008	24.918	843.697	662.833
311.022	24.845	843.906	662.670
312.037	24.963	843.128	662.436
313.052	24.884	842.549	661.632
314.066	24.462	841.248	658.992
315.081	24.300	840.387	657.665
316.095	24.024	840.682	656.817
317.110	24.182	839.984	656.798
318.125	24.633	839.486	658.009
319.139	24.289	838.007	655.529
320.154	23.708	838.144	653.440
321.168	23.770	837.008	652.724
322.183	24.103	836.909	653.814
323.197	24.205	837.383	654.498
324.212	23.968	837.035	653.299
325.227	24.440	835.865	654.057
326.241	24.239	835.574	653.037
327.256	23.933	835.077	651.470
328.270	23.949	833.949	650.589
329.285	24.170	832.549	650.249
330.300	23.901	832.544	649.204
331.314	23.476	832.284	647.392
332.329	24.054	830.904	648.368
333.343	24.511	829.905	649.192
334.358	24.908	830.613	651.135
335.373	24.767	830.539	650.505
336.387	24.647	829.890	649.503
337.402	24.879	829.368	649.880
338.416	24.801	828.684	649.003
339.431	24.959	829.015	649.780
340.446	25.289	828.305	650.359
341.460	25.226	828.311	650.079
342.475	25.547	826.952	650.116
343.489	25.368	826.488	649.047
344.504	25.468	826.904	649.676
345.519	25.486	826.138	649.082
346.533	26.165	825.717	651.143
347.548	25.840	825.008	649.357
348.562	25.258	824.772	647.017
349.577	25.363	823.387	646.250
350.592	24.995	822.940	644.517
351.606	24.969	821.869	643.530
352.621	24.945	821.113	642.793
353.635	25.085	820.864	643.044
354.650	24.795	819.974	641.250
355.665	24.881	820.559	641.961
356.679	24.699	819.987	640.803
357.694	24.832	819.140	640.561
358.708	25.167	818.889	641.507
359.723	24.989	817.873	640.018
360.738	24.661	816.662	637.843
361.752	24.825	816.150	637.973
362.767	24.660	816.725	637.778
363.781	24.985	817.461	639.455
364.796	25.557	816.709	640.850
365.810	25.688	815.491	640.302
366.825	25.563	815.080	639.479
367.840	25.699	815.145	639.957
368.854	25.666	815.406	639.990
369.869	25.458	814.069	638.143
370.883	25.465	812.562	636.930
371.898	25.294	812.340	636.097
372.913	25.622	811.619	636.635
373.927	25.753	811.094	636.629
374.942	25.399	811.387	635.551
375.956	25.229	811.142	634.700
376.971	25.573	810.224	635.143
377.986	25.495	810.061	634.683
379.000	25.482	809.734	634.325
380.015	25.573	808.534	633.650
381.029	25.514	807.710	632.741
382.044	25.796	807.019	633.134
383.059	25.293	806.755	631.103
384.073	25.927	805.928	632.627
385.088	25.916	805.215	631.970
386.102	25.610	804.520	630.297
387.117	25.389	804.655	629.574
388.132	25.218	803.001	627.626
389.146	25.144	802.576	626.980
390.161	25.350	801.960	627.163
391.175	25.239	802.760	627.344
392.190	25.856	801.921	628.789
393.205	25.482	801.765	627.304
394.219	25.341	801.348	626.429
395.234	25.012	800.330	624.432
396.248	24.375	799.312	621.366
397.263	24.787	798.201	621.878
398.278	24.920	798.201	622.288
399.292	24.804	797.964	621.642
400.307	24.722	797.497	620.939
401.321	24.750	797.011	620.606
402.336	24.620	796.860	619.979
403.350	24.463	797.002	619.492
404.365	25.033	797.022	621.429
405.380	25.647	796.764	623.299
406.394	25.812	796.425	623.552
407.409	26.159	795.957	624.331
408.423	26.236	794.976	623.773
409.438	25.999	795.088	622.984
410.453	26.226	794.408	623.182
411.467	26.196	793.652	622.429
412.482	26.104	793.923	622.269
413.496	26.107	792.440	621.064
414.511	25.858	793.223	620.763
415.526	26.131	791.876	620.592
416.540	26.198	791.510	620.483
417.555	26.003	790.729	619.144
418.569	25.904	791.633	619.457
419.584	26.052	791.118	619.507
420.599	26.067	789.944	618.587
421.613	160.805	1369.089	1793.991
422.628	139.277	1453.486	1794.067
