DTS Sentinel unit serial number:	SN413079Multiplexer serial number:	ORYXHardware model number:	OX4-SRSoftware version number:	ORYX F/W v4.00 Oryx Data Collector v3.7.2.0data status	okinstallation	princeton_trtdifferential loss correction	single-endedforward channel	channel 2reverse channel	N/Adate	2019/09/11time	03:13:10forward acquisition time	60.00reverse acquisition time	0.00gamma	496.2192k internal	0.2330k external	0.2330temperature offset calibration	0.9936default loss term (dB/km)	0.3790temperature slope calibration	1.0000multiplexer offset coefficient	1.0000multiplexer slope coefficient	1.0000fibre end	0.00T internal ref (°C)	29.34T ext. ref 1 (°C)	-0.29T ext. ref 2 (°C)	24.08length (m)	temperature (°C)	Stokes	anti-Stokes-747.200	-200.000	0.002	0.057
-746.185	-71.879	0.238	-0.089
-745.171	141.431	-0.143	-0.191
-744.156	-45.059	-0.194	-0.097
-743.142	-177.263	0.160	-0.004
-742.127	99.022	0.098	0.114
-741.112	-148.927	0.126	0.010
-740.098	101.781	0.108	0.126
-739.083	-131.933	0.269	0.035
-738.069	524.069	0.104	0.246
-737.054	-137.687	0.266	-0.030
-736.039	-153.701	-0.450	-0.031
-735.025	-59.551	0.141	0.061
-734.010	-137.947	-0.176	0.020
-732.996	-14.570	0.218	-0.141
-731.981	-200.000	0.004	-0.398
-730.966	85.176	-0.051	0.056
-729.952	-200.000	-0.029	-0.158
-728.937	-200.000	0.015	0.157
-727.923	523.873	-0.097	-0.231
-726.908	97.958	-0.141	-0.163
-725.894	800.000	0.048	-0.183
-724.879	-200.000	-0.028	-0.293
-723.864	-142.311	0.230	-0.023
-722.850	-163.455	0.047	0.002
-721.835	-200.000	0.010	-0.073
-720.821	-200.000	0.011	-0.431
-719.806	-31.143	0.296	-0.168
-718.791	-47.327	-0.281	0.137
-717.777	34.714	0.171	-0.150
-716.762	-159.545	0.286	-0.016
-715.748	331.698	0.016	-0.032
-714.733	-200.000	-0.017	-0.181
-713.718	-39.651	-0.035	-0.019
-712.704	-67.969	-0.166	0.065
-711.689	-57.794	-0.464	0.204
-710.675	-200.000	0.021	-0.173
-709.660	-200.000	0.015	-0.263
-708.645	144.617	-0.224	-0.301
-707.631	9.948	-0.534	-0.407
-706.616	800.000	-0.088	0.250
-705.602	800.000	0.185	0.529
-704.587	82.974	0.112	-0.122
-703.572	197.036	0.099	0.152
-702.558	150.063	-0.062	-0.084
-701.543	-200.000	-0.003	-0.106
-700.529	86.898	-0.154	-0.171
-699.514	-140.637	0.172	-0.018
-698.499	-200.000	-0.014	-0.100
-697.485	255.341	-0.051	-0.088
-696.470	-180.488	0.170	-0.004
-695.456	158.544	-0.210	-0.294
-694.441	-200.000	0.027	-0.316
-693.426	73.278	0.183	-0.192
-692.412	-119.485	0.237	0.041
-691.397	800.000	-0.037	-0.124
-690.383	92.040	-0.248	-0.280
-689.368	484.477	0.072	-0.164
-688.354	-200.000	-0.010	0.049
-687.339	-200.000	0.043	0.322
-686.324	-100.996	-0.400	-0.099
-685.310	212.519	-0.067	-0.106
-684.295	-105.637	0.276	-0.063
-683.281	126.252	0.153	-0.194
-682.266	48.891	-0.115	0.108
-681.251	23.826	-0.203	-0.168
-680.237	-53.978	-0.234	-0.107
-679.222	-68.614	0.122	0.048
-678.208	800.000	0.036	0.134
-677.193	128.713	-0.252	-0.323
-676.178	-200.000	-0.003	0.023
-675.164	-200.000	-0.005	0.462
-674.149	214.870	-0.201	-0.320
-673.135	800.000	-0.063	-0.183
-672.120	800.000	-0.097	0.381
-671.105	-178.862	-0.268	0.006
-670.091	-200.000	0.015	0.198
-669.076	-200.000	0.008	0.254
-668.062	-200.000	0.015	-0.157
-667.047	-117.544	-0.250	0.045
-666.032	800.000	0.093	-0.337
-665.018	36.521	-0.283	0.251
-664.003	-137.402	0.239	0.027
-662.989	-106.554	-0.418	-0.094
-661.974	136.521	0.308	-0.403
-660.959	-4.092	-0.306	-0.213
-659.945	800.000	-0.116	-0.491
-658.930	94.784	-0.293	-0.335
-657.916	97.391	0.103	0.119
-656.901	-86.021	-0.185	0.057
-655.886	498.665	0.074	-0.172
-654.872	249.824	0.118	-0.201
-653.857	37.450	0.077	0.069
-652.843	13.816	0.141	-0.110
-651.828	-114.510	0.315	-0.061
-650.814	-178.631	0.308	-0.007
-649.799	-200.000	0.014	0.153
-648.784	-1.483	0.356	0.252
-647.770	-89.176	0.197	0.058
-646.755	42.796	0.182	0.166
-645.741	746.305	-0.112	-0.302
-644.726	20.793	0.272	-0.221
-643.711	-24.960	0.212	-0.126
-642.697	-200.000	-0.052	-0.263
-641.682	-25.387	-0.254	-0.151
-640.668	-107.922	0.056	0.012
-639.653	-13.515	-0.127	-0.082
-638.638	-160.809	-0.068	0.004
-637.624	159.633	-0.077	-0.108
-636.609	-90.450	-0.256	-0.074
-635.595	463.911	-0.034	-0.077
-634.580	-0.956	-0.097	0.069
-633.565	-186.321	-0.052	0.001
-632.551	-200.000	-0.014	-0.454
-631.536	-13.973	-0.076	0.049
-630.522	310.893	0.104	0.195
-629.507	-95.587	0.239	-0.064
-628.492	-37.664	-0.126	-0.067
-627.478	-46.294	-0.346	-0.170
-626.463	242.668	0.130	-0.218
-625.449	-200.000	0.066	0.000
-624.434	800.000	0.071	-0.274
-623.419	-95.462	0.272	-0.073
-622.405	104.247	0.032	-0.038
-621.390	354.174	0.081	-0.161
-620.376	-137.834	0.257	0.029
-619.361	267.771	0.122	0.214
-618.346	-200.000	-0.076	-0.515
-617.332	-20.100	-0.378	0.233
-616.317	-109.429	-0.137	-0.029
-615.303	800.000	0.055	-0.179
-614.288	297.906	-0.053	-0.097
-613.273	-146.242	-0.116	-0.010
-612.259	16.852	0.043	0.034
-611.244	179.739	0.250	0.366
-610.230	-195.488	-0.204	0.002
-609.215	8.887	-0.403	-0.304
-608.201	-54.283	-0.206	0.094
-607.186	384.609	0.124	0.255
-606.171	-27.426	-0.171	-0.100
-605.157	800.000	0.091	-0.295
-604.142	-123.699	-0.165	-0.026
-603.128	84.276	0.046	0.051
-602.113	-200.000	-0.011	-0.071
-601.098	800.000	0.103	0.391
-600.084	292.644	-0.057	0.104
-599.069	-118.714	-0.048	0.008
-598.055	-200.000	-0.009	0.065
-597.040	-200.000	-0.041	0.198
-596.025	-102.479	0.129	-0.031
-595.011	76.671	0.039	-0.042
-593.996	-37.065	0.320	0.171
-592.982	800.000	0.059	-0.185
-591.967	800.000	-0.044	-0.169
-590.952	51.609	-0.182	-0.173
-589.938	-56.698	-0.236	-0.105
-588.923	144.557	0.237	0.317
-587.909	7.963	0.273	0.205
-586.894	110.496	0.152	-0.183
-585.879	-15.248	-0.160	-0.103
-584.865	-200.000	0.000	0.246
-583.850	-114.951	0.068	0.013
-582.836	-200.000	-0.033	0.293
-581.821	-137.441	0.233	0.026
-580.806	583.017	-0.065	0.160
-579.792	-200.000	0.038	0.245
-578.777	-58.902	0.077	0.033
-577.763	-149.131	-0.128	0.010
-576.748	587.604	-0.119	0.294
-575.733	-200.000	0.056	0.286
-574.719	-200.000	-0.002	-0.013
-573.704	-200.000	-0.014	-0.130
-572.690	-200.000	0.058	-0.283
-571.675	-70.156	-0.128	-0.049
-570.661	-67.666	-0.247	0.097
-569.646	-52.869	0.098	-0.045
-568.631	-77.283	0.061	0.021
-567.617	-200.000	-0.002	0.104
-566.602	-50.457	-0.189	-0.089
-565.588	25.323	0.226	-0.188
-564.573	800.000	-0.105	-0.336
-563.558	-1.378	0.268	0.189
-562.544	-0.378	0.203	0.144
-561.529	-200.000	0.021	0.147
-560.515	-74.281	0.120	0.043
-559.500	-200.000	0.006	-0.253
-558.485	800.000	-0.116	-0.421
-557.471	-200.000	-0.004	0.236
-556.456	-200.000	0.038	0.168
-555.442	800.000	0.049	-0.185
-554.427	800.000	0.062	-0.191
-553.412	283.425	0.121	0.216
-552.398	-32.460	-0.131	-0.073
-551.383	-148.044	-0.280	-0.023
-550.369	463.253	0.063	-0.141
-549.354	307.067	-0.190	-0.354
-548.339	-65.426	0.136	0.055
-547.325	135.099	-0.300	0.390
-546.310	40.946	-0.063	-0.057
-545.296	-200.000	0.002	0.010
-544.281	-153.889	-0.265	0.018
-543.266	63.454	-0.174	-0.174
-542.252	-144.429	-0.126	-0.012
-541.237	-112.079	0.089	0.018
-540.223	-89.509	-0.371	-0.109
-539.208	-200.000	0.019	0.486
-538.193	-200.000	0.034	-0.202
-537.179	6.951	0.242	-0.180
-536.164	39.983	0.132	0.118
-535.150	96.188	-0.135	0.154
-534.135	-18.314	0.198	0.124
-533.121	-200.000	-0.035	0.198
-532.106	174.271	-0.096	-0.139
-531.091	-71.905	-0.147	0.055
-530.077	-200.000	-0.010	-0.145
-529.062	-200.000	-0.005	0.040
-528.048	-2.920	-0.074	-0.051
-527.033	-169.390	0.242	-0.009
-526.018	-95.617	-0.307	-0.082
-525.004	-115.212	-0.338	0.064
-523.989	-140.085	0.311	0.033
-522.975	-153.062	-0.302	-0.021
-521.960	-57.458	-0.207	0.091
-520.945	-200.000	-0.019	0.246
-519.931	207.009	-0.168	0.262
-518.916	-57.644	0.148	-0.065
-517.902	800.000	0.035	0.152
-516.887	-200.000	0.008	-0.287
-515.872	260.721	0.108	-0.187
-514.858	-92.492	-0.134	0.038
-513.843	-57.774	0.145	-0.063
-512.829	800.000	-0.084	-0.265
-511.814	-48.938	-0.200	0.096
-510.799	222.271	0.215	-0.344
-509.785	219.894	-0.031	-0.050
-508.770	-49.025	0.044	0.021
-507.756	259.666	0.120	0.206
-506.741	-68.581	0.294	-0.114
-505.726	-200.000	-0.092	0.479
-504.712	102.346	0.168	0.195
-503.697	39.761	-0.110	-0.098
-502.683	79.370	0.091	0.097
-501.668	-62.626	0.220	0.091
-500.653	800.000	-0.037	0.145
-499.639	-138.970	0.233	0.025
-498.624	800.000	0.075	-0.277
-497.610	-115.862	-0.245	0.046
-496.595	-65.242	0.375	-0.150
-495.581	-64.222	0.222	-0.090
-494.566	14.220	0.125	0.097
-493.551	-200.000	0.010	-0.198
-492.537	723.739	0.143	0.380
-491.522	-200.000	0.011	0.086
-490.508	-200.000	0.009	-0.228
-489.493	83.312	-0.361	-0.392
-488.478	-103.520	0.244	-0.057
-487.464	-200.000	-0.436	0.001
-486.449	-92.835	0.112	-0.031
-485.435	800.000	-0.033	-0.113
-484.420	-86.515	0.105	0.032
-483.405	-200.000	0.024	-0.469
-482.391	-7.518	0.150	-0.101
-481.376	-22.073	0.262	0.159
-480.362	-126.348	0.049	-0.007
-479.347	-122.858	0.176	-0.028
-478.332	12.588	-0.168	-0.129
-477.318	16.646	-0.093	-0.074
-476.303	-95.240	-0.196	-0.053
-475.289	52.700	0.032	0.031
-474.274	34.223	0.217	-0.188
-473.259	800.000	0.126	-0.354
-472.245	85.734	0.075	0.083
-471.230	-119.437	0.008	-0.001
-470.216	-200.000	-0.017	0.159
-469.201	-142.819	-0.277	0.027
-468.186	10.683	0.238	-0.181
-467.172	-200.000	-0.008	0.158
-466.157	202.983	-0.176	-0.271
-465.143	41.975	0.333	0.301
-464.128	47.737	-0.175	0.163
-463.113	19.288	0.051	0.041
-462.099	138.404	0.127	0.166
-461.084	-76.739	0.172	0.060
-460.070	173.964	-0.150	-0.215
-459.055	624.912	0.053	0.133
-458.040	-119.757	-0.208	0.036
-457.026	-39.729	-0.453	0.236
-456.011	-137.369	0.193	0.022
-454.997	102.985	0.136	0.159
-453.982	-189.742	0.132	0.002
-452.968	-20.287	0.041	0.025
-451.953	-200.000	-0.001	-0.174
-450.938	-40.185	-0.076	0.039
-449.924	288.072	0.049	0.088
-448.909	-10.061	0.208	-0.138
-447.895	-118.095	-0.351	-0.062
-446.880	191.937	0.149	0.224
-445.865	-83.829	0.278	0.088
-444.851	60.651	-0.272	-0.268
-443.836	100.239	-0.295	-0.340
-442.822	287.040	0.146	-0.263
-441.807	-81.006	-0.309	0.102
-440.792	800.000	0.122	0.363
-439.778	584.663	-0.068	-0.166
-438.763	-46.509	-0.223	-0.109
-437.749	-127.153	0.162	-0.024
-436.734	98.700	0.212	0.244
-435.719	-118.394	0.232	-0.041
-434.705	-12.567	-0.132	0.085
-433.690	800.000	0.012	0.035
-432.676	-60.968	0.184	-0.077
-431.661	-61.025	-0.115	-0.048
-430.646	-200.000	-0.005	-0.127
-429.632	-156.421	0.170	0.011
-428.617	-200.000	-0.011	-0.469
-427.603	313.001	0.094	0.176
-426.588	-44.667	0.255	-0.126
-425.573	-43.510	-0.255	0.128
-424.559	-200.000	0.011	-0.196
-423.544	111.269	0.204	-0.245
-422.530	164.217	0.096	0.135
-421.515	-200.000	-0.061	-0.391
-420.500	52.611	-0.048	0.046
-419.486	-200.000	0.066	0.358
-418.471	800.000	-0.060	-0.260
-417.457	73.826	0.043	-0.044
-416.442	-200.000	-0.021	-0.212
-415.428	-4.759	-0.125	0.086
-414.413	-67.488	0.139	-0.054
-413.398	108.997	0.141	-0.167
-412.384	-25.006	0.153	-0.090
-411.369	30.358	0.162	0.137
-410.355	732.163	0.100	-0.265
-409.340	313.215	0.110	0.206
-408.325	355.774	-0.075	-0.148
-407.311	22.869	-0.126	0.103
-406.296	-81.795	0.050	-0.016
-405.282	-28.532	-0.232	0.133
-404.267	148.006	0.046	0.061
-403.252	800.000	0.080	0.339
-402.238	514.613	0.045	0.104
-401.223	-117.243	0.225	0.041
-400.209	-200.000	-0.046	-0.251
-399.194	-180.895	0.191	-0.004
-398.179	-200.000	0.012	-0.228
-397.165	-163.779	0.280	-0.013
-396.150	-26.888	-0.333	0.193
-395.136	611.964	0.100	0.249
-394.121	-29.715	-0.507	0.288
-393.106	51.098	-0.120	0.113
-392.092	49.661	0.178	-0.167
-391.077	-164.297	-0.147	0.007
-390.063	800.000	-0.049	-0.192
-389.048	-200.000	-0.057	0.251
-388.033	-200.000	0.033	0.156
-387.019	-118.746	0.226	-0.040
-386.004	160.349	-0.232	0.321
-384.990	39.591	0.272	-0.242
-383.975	46.354	0.094	0.086
-382.960	-14.866	-0.279	0.178
-381.946	67.674	-0.098	-0.100
-380.931	-89.548	-0.100	-0.029
-379.917	-165.218	0.288	0.013
-378.902	-200.000	-0.028	0.258
-377.888	430.513	-0.124	0.267
-376.873	22.094	-0.077	0.062
-375.858	-75.747	0.086	0.030
-374.844	-46.170	-0.220	0.107
-373.829	800.000	0.071	0.214
-372.815	154.479	-0.140	-0.190
-371.800	-139.325	0.253	0.027
-370.785	800.000	-0.050	-0.202
-369.771	-56.340	0.263	-0.116
-368.756	-118.530	-0.041	-0.007
-367.742	-58.383	0.194	-0.084
-366.727	-36.631	-0.148	-0.079
-365.712	103.155	0.227	0.263
-364.698	226.687	0.094	-0.151
-363.683	-200.000	0.006	0.163
-362.669	22.263	-0.200	-0.162
-361.654	800.000	-0.087	0.279
-360.639	-117.925	-0.109	0.019
-359.625	-33.558	-0.240	-0.131
-358.610	-198.246	-0.235	0.001
-357.596	457.967	-0.050	-0.110
-356.581	-30.473	0.183	-0.103
-355.566	-127.217	-0.504	0.073
-354.552	336.675	-0.113	-0.218
-353.537	-33.323	0.266	0.146
-352.523	21.495	-0.296	0.238
-351.508	-67.580	0.119	0.046
-350.493	6.418	-0.033	0.024
-349.479	800.000	0.095	-0.316
-348.464	87.447	0.159	-0.175
-347.450	370.352	-0.132	-0.265
-346.435	-145.022	-0.278	0.025
-345.420	431.444	0.017	0.037
-344.406	37.105	-0.084	-0.074
-343.391	177.823	-0.034	0.049
-342.377	800.000	-0.052	-0.220
-341.362	-107.162	-0.367	0.080
-340.348	-200.000	-0.001	-0.288
-339.333	-147.092	-0.161	-0.014
-338.318	-103.509	0.111	0.026
-337.304	-114.941	-0.102	0.019
-336.289	-194.098	0.125	-0.001
-335.275	48.617	0.253	-0.235
-334.260	45.819	-0.135	-0.124
-333.245	-200.000	-0.017	0.084
-332.231	401.503	0.136	0.283
-331.216	758.547	-0.137	0.366
-330.202	-200.000	-0.077	0.336
-329.187	800.000	0.088	-0.243
-328.172	-32.107	0.328	-0.182
-327.158	-0.245	0.155	0.109
-326.143	-200.000	0.006	-0.032
-325.129	-200.000	0.018	-0.227
-324.114	81.935	0.141	0.152
-323.099	-200.000	0.029	0.458
-322.085	800.000	-0.065	-0.207
-321.070	-200.000	0.072	-0.337
-320.056	111.861	-0.141	0.168
-319.041	579.244	0.105	0.254
-318.026	-70.562	-0.134	0.050
-317.012	-144.391	-0.261	0.024
-315.997	266.137	0.057	-0.098
-314.983	-170.248	-0.153	-0.005
-313.968	-37.239	-0.131	0.069
-312.953	-141.953	-0.260	-0.026
-311.939	661.018	0.022	0.055
-310.924	222.804	-0.150	-0.240
-309.910	161.299	-0.046	-0.064
-308.895	-200.000	0.090	0.516
-307.880	-20.123	0.349	-0.213
-306.866	-69.086	-0.289	-0.110
-305.851	290.196	0.212	0.380
-304.837	240.326	0.165	0.272
-303.822	134.408	-0.148	0.190
-302.807	-172.270	0.327	-0.010
-301.793	-39.561	-0.244	0.127
-300.778	-200.000	0.001	0.141
-299.764	-129.013	-0.213	-0.029
-298.749	-135.689	-0.257	0.030
-297.735	-200.000	0.047	-0.230
-296.720	-200.000	-0.017	0.096
-295.705	49.415	0.203	-0.189
-294.691	24.989	0.153	-0.126
-293.676	296.343	-0.102	-0.186
-292.662	209.920	-0.097	-0.150
-291.647	-80.927	0.075	-0.024
-290.632	43.325	-0.302	0.273
-289.618	-200.000	0.028	0.221
-288.603	-24.154	0.147	0.087
-287.589	-200.000	-0.004	0.390
-286.574	-200.000	0.007	-0.374
-285.559	270.438	0.078	-0.135
-284.545	-200.000	-0.021	-0.265
-283.530	19.812	0.197	-0.157
-282.516	169.420	0.114	0.161
-281.501	-200.000	0.004	-0.167
-280.486	366.378	0.103	-0.206
-279.472	800.000	0.063	0.217
-278.457	-129.365	0.278	-0.038
-277.443	81.948	0.156	0.167
-276.428	37.672	0.174	-0.153
-275.413	800.000	-0.006	-0.016
-274.399	-22.592	-0.315	0.188
-273.384	55.791	0.159	-0.152
-272.370	800.000	0.058	0.215
-271.355	-131.708	0.301	-0.039
-270.340	-159.270	-0.123	-0.007
-269.326	-127.844	-0.099	0.014
-268.311	-73.681	0.224	-0.081
-267.297	-78.656	0.214	0.072
-266.282	-139.052	0.118	-0.013
-265.267	-1.015	-0.247	0.172
-264.253	177.814	0.090	-0.129
-263.238	-18.329	-0.249	0.154
-262.224	239.358	-0.125	0.205
-261.209	-200.000	-0.047	0.253
-260.195	24.155	-0.232	-0.189
-259.180	45.278	0.068	-0.062
-258.165	-200.000	-0.042	-0.225
-257.151	341.254	0.113	0.218
-256.136	-24.352	-0.246	0.145
-255.122	800.000	-0.067	-0.215
-254.107	13.989	0.419	-0.322
-253.092	-57.820	-0.264	0.114
-252.078	51.751	-0.046	-0.043
-251.063	67.010	0.106	0.107
-250.049	-200.000	0.037	0.272
-249.034	396.645	-0.109	-0.226
-248.019	470.452	0.093	0.207
-247.005	-200.000	-0.046	-0.207
-245.990	352.962	0.072	-0.141
-244.976	71.221	0.063	-0.064
-243.961	-2.823	0.208	-0.144
-242.946	-149.481	0.010	0.001
-241.932	657.461	0.077	-0.194
-240.917	-112.769	0.195	0.038
-239.903	-39.392	0.162	0.084
-238.888	-146.956	-0.158	0.013
-237.873	146.775	0.115	-0.153
-236.859	-34.775	0.062	-0.033
-235.844	-140.091	0.157	-0.016
-234.830	-55.395	0.204	0.090
-233.815	10.417	0.099	-0.075
-232.800	-138.042	-0.290	0.032
-231.786	-13.444	-0.064	0.041
-230.771	-200.000	-0.081	-0.396
-229.757	-87.105	-0.417	0.125
-228.742	163.521	-0.087	-0.120
-227.727	-155.849	0.236	-0.015
-226.713	396.891	0.088	-0.181
-225.698	-112.347	-0.204	0.040
-224.684	-115.504	0.070	0.013
-223.669	-178.710	0.250	0.006
-222.655	-200.000	0.011	0.057
-221.640	-2.748	0.223	0.153
-220.625	800.000	-0.071	-0.288
-219.611	-38.226	-0.404	-0.211
-218.596	39.538	-0.241	0.213
-217.582	-200.000	-0.023	0.297
-216.567	-4.366	0.102	0.070
-215.552	32.241	-0.112	0.095
-214.538	241.615	0.339	0.558
-213.523	-111.419	-0.061	0.012
-212.509	24.115	-0.118	0.096
-211.494	-200.000	-0.063	-0.293
-210.479	300.189	0.303	0.551
-209.465	-200.000	0.056	0.297
-208.450	157.228	0.059	0.081
-207.436	209.067	0.108	0.167
-206.421	-200.000	-0.003	0.058
-205.406	53.125	-0.126	-0.119
-204.392	-200.000	0.003	0.214
-203.377	478.080	-0.110	0.246
-202.363	-51.536	-0.093	0.043
-201.348	-200.000	0.006	-0.046
-200.333	-200.000	0.003	-0.059
-199.319	247.169	0.128	-0.213
-198.304	-81.550	-0.401	-0.130
-197.290	628.969	0.122	0.304
-196.275	213.883	-0.024	-0.037
-195.260	66.631	0.162	0.162
-194.246	329.217	0.102	-0.193
-193.231	-106.621	-0.400	-0.088
-192.217	403.909	-0.152	0.316
-191.202	43.443	-0.077	-0.069
-190.187	-18.907	0.043	-0.027
-189.173	-73.520	-0.180	-0.065
-188.158	-200.000	0.007	-0.091
-187.144	-158.409	-0.171	-0.010
-186.129	133.273	-0.051	-0.065
-185.114	648.344	0.169	-0.425
-184.100	-133.368	-0.348	0.043
-183.085	-27.548	-0.061	-0.035
-182.071	-122.463	-0.152	-0.024
-181.056	161.960	0.041	0.056
-180.042	65.595	0.157	-0.156
-179.027	488.862	-0.091	0.204
-178.012	-200.000	-0.073	-0.388
-176.998	122.911	-0.061	-0.076
-175.983	-4.405	-0.279	-0.190
-174.969	225.985	0.158	0.252
-173.954	-200.000	-0.031	0.170
-172.939	-200.000	0.028	-0.260
-171.925	-94.257	-0.135	-0.036
-170.910	52.493	-0.351	0.330
-169.896	-200.000	-0.001	-0.247
-168.881	-200.000	-0.001	-0.180
-167.866	-110.409	0.247	0.050
-166.852	-200.000	-0.024	0.330
-165.837	-88.879	-0.203	0.059
-164.823	-174.057	0.216	0.006
-163.808	-56.393	-0.271	0.118
-162.793	538.473	0.073	0.171
-161.779	50.069	-0.046	0.043
-160.764	9.915	0.229	0.171
-159.750	107.354	0.189	0.222
-158.735	-82.161	0.270	0.087
-157.720	800.000	-0.068	0.284
-156.706	800.000	-0.099	0.269
-155.691	-6.140	-0.027	-0.018
-154.677	-200.000	0.014	-0.104
-153.662	-200.000	-0.001	-0.011
-152.647	236.290	0.271	-0.441
-151.633	-200.000	-0.011	-0.057
-150.618	45.254	-0.103	-0.094
-149.604	-157.075	0.106	-0.006
-148.589	604.465	0.093	0.227
-147.574	-127.845	-0.223	0.032
-146.560	-79.147	0.107	-0.036
-145.545	16.173	-0.059	-0.046
-144.531	-23.974	-0.136	-0.080
-143.516	39.112	0.177	0.155
-142.502	800.000	-0.140	0.432
-141.487	27.663	-0.327	0.270
-140.472	-78.459	-0.243	-0.082
-139.458	-133.655	0.086	-0.011
-138.443	697.685	0.059	0.152
-137.429	-116.520	-0.156	0.028
-136.414	88.403	0.073	-0.080
-135.399	800.000	0.154	-0.599
-134.385	-39.979	-0.181	-0.093
-133.370	381.084	-0.056	0.112
-132.356	800.000	0.044	0.178
-131.341	-112.756	0.127	-0.025
-130.326	-72.248	0.079	-0.029
-129.312	-50.817	-0.172	-0.079
-128.297	128.195	0.233	0.292
-127.283	-60.325	0.410	0.171
-126.268	201.832	-0.058	0.088
-125.253	-200.000	0.037	-0.362
-124.239	-158.787	0.222	0.012
-123.224	800.000	-0.079	0.266
-122.210	-200.000	0.037	0.276
-121.195	-96.980	0.391	0.101
-120.180	-200.000	0.030	0.193
-119.166	-200.000	0.032	0.336
-118.151	26.450	0.164	-0.135
-117.137	-57.557	-0.259	-0.112
-116.122	-151.290	0.149	-0.011
-115.107	31.114	-0.090	-0.076
-114.093	634.337	-0.064	-0.160
-113.078	-200.000	-0.037	0.241
-112.064	-200.000	-0.074	0.325
-111.049	37.567	-0.181	-0.157
-110.034	79.360	0.183	0.193
-109.020	800.000	-0.048	-0.135
-108.005	-200.000	0.036	0.227
-106.991	-66.891	-0.349	0.135
-105.976	161.605	0.119	0.163
-104.962	473.021	0.266	0.589
-103.947	43.731	-0.264	0.237
-102.932	161.481	0.077	0.105
-101.918	244.446	0.101	0.167
-100.903	-200.000	-0.000	-0.111
-99.889	55.419	0.040	-0.038
-98.874	713.460	0.130	-0.339
-97.859	100.205	0.038	0.043
-96.845	800.000	0.026	0.113
-95.830	17.499	-0.112	0.088
-94.816	-117.822	0.305	-0.054
-93.801	800.000	0.053	-0.223
-92.786	-27.817	0.138	0.079
-91.772	-44.772	-0.191	-0.093
-90.757	-99.654	0.287	0.071
-89.743	-118.255	-0.062	0.011
-88.728	318.219	-0.033	0.061
-87.713	-200.000	-0.014	0.150
-86.699	-124.653	0.207	-0.031
-85.684	-66.399	0.141	0.055
-84.670	96.246	0.022	-0.025
-83.655	20.992	-0.315	-0.251
-82.640	-55.661	-0.094	0.041
-81.626	66.145	0.163	-0.163
-80.611	79.497	-0.050	0.053
-79.597	214.469	0.338	0.525
-78.582	800.000	-0.096	0.306
-77.567	-76.805	0.269	-0.092
-76.553	-62.791	-0.148	0.060
-75.538	87.827	-0.275	-0.299
-74.524	800.000	-0.060	-0.167
-73.509	-133.239	0.245	-0.030
-72.494	800.000	-0.007	0.021
-71.480	235.541	-0.078	-0.126
-70.465	504.550	-0.166	0.377
-69.451	-5.546	-0.367	-0.247
-68.436	467.112	0.057	0.125
-67.422	-200.000	0.021	-0.308
-66.407	-200.000	-0.019	-0.088
-65.392	30.526	0.123	-0.103
-64.378	-125.468	0.124	0.019
-63.363	-55.840	0.126	0.055
-62.349	211.770	-0.117	0.181
-61.334	27.789	-0.884	-0.730
-60.319	15.915	0.409	0.316
-59.305	-200.000	-0.204	-1.076
-58.290	193.435	0.923	1.368
-57.276	464.597	0.689	1.510
-56.261	-200.000	106.376	613.077
-55.246	505.596	1509.435	3427.444
-54.232	174.941	2710.590	3845.880
-53.217	104.158	2300.158	2651.230
-52.203	38.456	1904.744	1663.719
-51.188	32.500	1690.421	1431.345
-50.173	29.923	1647.180	1375.551
-49.159	48.856	1700.803	1563.802
-48.144	49.142	1715.512	1579.424
-47.130	32.175	1673.108	1414.009
-46.115	29.501	1658.459	1381.594
-45.100	29.318	1653.833	1376.316
-44.086	29.184	1651.271	1373.137
-43.071	29.158	1649.395	1371.323
-42.057	29.178	1646.078	1368.663
-41.042	29.232	1644.207	1367.452
-40.027	29.231	1642.168	1365.696
-39.013	29.242	1640.670	1364.479
-37.998	29.188	1638.700	1362.388
-36.984	29.190	1638.065	1361.814
-35.969	29.299	1636.707	1361.436
-34.954	29.374	1634.096	1359.766
-33.940	29.366	1632.498	1358.322
-32.925	29.327	1630.640	1356.434
-31.911	29.369	1628.914	1355.255
-30.896	29.258	1627.594	1353.286
-29.881	29.350	1625.847	1352.461
-28.867	29.387	1623.824	1350.993
-27.852	29.359	1622.772	1349.859
-26.838	29.309	1621.498	1348.377
-25.823	29.312	1620.254	1347.316
-24.809	29.339	1619.003	1346.416
-23.794	29.313	1617.673	1345.069
-22.779	29.334	1615.933	1343.719
-21.765	29.370	1613.870	1342.213
-20.750	29.324	1612.603	1340.774
-19.736	29.372	1610.871	1339.631
-18.721	29.413	1609.399	1338.646
-17.706	29.409	1607.954	1337.361
-16.692	29.408	1606.380	1335.995
-15.677	29.395	1605.207	1334.873
-14.663	29.383	1604.329	1334.003
-13.648	29.474	1602.684	1333.242
-12.633	29.376	1601.624	1331.594
-11.619	29.444	1599.504	1330.269
-10.604	29.324	1598.301	1328.354
-9.590	29.444	1596.841	1327.955
-8.575	29.380	1595.759	1326.539
-7.560	29.376	1595.097	1325.906
-6.546	29.393	1593.376	1324.546
-5.531	29.330	1592.589	1323.390
-4.517	29.375	1591.071	1322.392
-3.502	29.280	1590.497	1321.185
-2.487	29.465	1588.332	1320.656
-1.473	29.260	1576.332	1309.172
-0.458	26.459	1558.178	1274.348
0.556	20.859	1559.715	1245.775
1.571	18.901	1583.735	1250.617
2.586	18.523	1597.897	1258.916
3.600	16.793	1544.924	1204.781
4.615	8.876	1435.163	1066.594
5.629	1.214	1371.200	970.105
6.644	-0.163	1363.045	955.494
7.659	-0.264	1362.099	954.109
8.673	-0.312	1360.593	952.660
9.688	-0.420	1358.724	950.584
10.702	-0.578	1356.223	947.753
11.717	2.914	1363.417	974.886
12.731	12.318	1380.976	1047.587
13.746	19.465	1392.929	1102.381
14.761	21.504	1394.873	1116.851
15.775	21.713	1394.780	1118.012
16.790	21.850	1393.991	1118.152
17.804	21.803	1393.936	1117.713
18.819	22.158	1393.619	1119.624
19.834	22.169	1393.026	1119.114
20.848	22.155	1392.273	1118.323
21.863	22.220	1391.087	1117.685
22.877	22.176	1390.242	1116.629
23.892	22.171	1389.831	1116.170
24.907	22.202	1388.711	1115.367
25.921	22.237	1387.521	1114.535
26.936	22.128	1386.902	1113.248
27.950	22.188	1385.680	1112.544
28.965	22.232	1384.580	1111.842
29.980	22.198	1383.275	1110.481
30.994	22.233	1382.240	1109.771
32.009	22.271	1380.935	1108.866
33.023	22.217	1379.841	1107.552
34.038	22.244	1379.023	1106.967
35.053	22.195	1378.400	1106.059
36.067	22.259	1376.948	1105.202
37.082	22.211	1376.438	1104.390
38.096	22.219	1375.201	1103.349
39.111	22.201	1374.883	1102.883
40.126	22.221	1373.730	1101.985
41.140	22.261	1372.663	1101.285
42.155	22.200	1373.154	1101.200
43.169	22.214	1372.679	1100.810
44.184	22.190	1372.728	1100.600
45.199	22.130	1372.438	1099.892
46.213	22.132	1371.655	1099.182
47.228	22.157	1370.553	1098.360
48.242	22.269	1369.182	1097.864
49.257	22.157	1368.125	1096.220
50.271	22.124	1366.931	1094.961
51.286	22.194	1365.108	1093.836
52.301	22.286	1363.595	1093.097
53.315	22.194	1363.086	1092.022
54.330	22.141	1362.507	1091.134
55.344	22.148	1361.220	1090.047
56.359	22.139	1360.362	1089.213
57.374	22.119	1359.373	1088.201
58.388	22.264	1358.734	1088.490
59.403	22.277	1358.112	1087.974
60.417	22.259	1357.609	1087.364
61.432	22.122	1357.257	1086.139
62.447	22.281	1355.398	1085.534
63.461	22.150	1354.533	1083.940
64.476	22.177	1354.081	1083.650
65.490	22.233	1352.439	1082.582
66.505	22.225	1350.585	1080.957
67.520	22.206	1349.633	1079.979
68.534	22.165	1349.098	1079.203
69.549	22.160	1348.070	1078.257
70.563	22.186	1347.141	1077.574
71.578	22.281	1345.727	1076.935
72.593	22.275	1344.927	1076.158
73.607	22.267	1344.361	1075.561
74.622	22.243	1343.618	1074.730
75.636	22.228	1342.665	1073.777
76.651	22.232	1342.130	1073.278
77.666	22.131	1341.990	1072.453
78.680	22.262	1340.944	1072.324
79.695	22.185	1340.178	1071.147
80.709	22.225	1339.242	1070.547
81.724	22.118	1338.769	1069.421
82.739	22.199	1337.654	1068.930
83.753	22.098	1336.898	1067.616
84.768	22.185	1335.827	1067.196
85.782	22.262	1334.265	1066.323
86.797	22.300	1332.981	1065.434
87.812	22.241	1332.319	1064.453
88.826	22.357	1330.707	1063.768
89.841	22.274	1330.340	1062.881
90.855	22.267	1329.062	1061.724
91.870	22.232	1328.211	1060.737
92.884	22.310	1327.224	1060.329
93.899	22.295	1326.760	1059.773
94.914	22.207	1326.017	1058.554
95.928	22.297	1325.098	1058.266
96.943	22.233	1324.390	1057.226
97.957	22.302	1323.126	1056.540
98.972	22.187	1322.946	1055.607
99.987	22.264	1321.528	1054.845
101.001	22.253	1320.174	1053.608
102.016	22.227	1319.030	1052.446
103.030	22.186	1318.511	1051.692
104.045	22.291	1317.777	1051.641
105.060	22.290	1316.405	1050.444
106.074	22.421	1315.343	1050.288
107.089	22.246	1315.095	1048.952
108.103	22.258	1313.789	1047.890
109.118	22.357	1312.374	1047.258
110.133	22.270	1311.458	1045.919
111.147	22.331	1310.464	1045.396
112.162	22.395	1308.925	1044.453
113.176	22.267	1308.148	1042.981
114.191	22.362	1307.247	1042.738
115.206	22.389	1306.183	1041.955
116.220	22.296	1305.200	1040.525
117.235	22.386	1303.756	1039.814
118.249	22.299	1303.214	1038.776
119.264	22.372	1302.346	1038.428
120.279	22.433	1301.503	1038.018
121.293	22.514	1300.389	1037.519
122.308	22.410	1299.699	1036.265
123.322	22.437	1298.713	1035.543
124.337	22.353	1298.187	1034.537
125.352	22.472	1296.818	1034.053
126.366	22.475	1296.128	1033.431
127.381	22.395	1295.342	1032.247
128.395	22.451	1294.070	1031.466
129.410	22.425	1293.057	1030.414
130.424	22.360	1292.820	1029.757
131.439	22.356	1291.614	1028.680
132.454	22.335	1290.642	1027.695
133.468	22.311	1290.602	1027.428
134.483	22.470	1289.230	1027.174
135.497	22.310	1288.721	1025.746
136.512	22.384	1287.374	1025.015
137.527	22.284	1286.651	1023.767
138.541	22.327	1285.175	1022.750
139.556	22.436	1283.559	1022.004
140.570	22.340	1282.805	1020.756
141.585	22.395	1281.860	1020.234
142.600	22.344	1280.883	1019.074
143.614	22.307	1280.146	1018.181
144.629	22.366	1278.844	1017.394
145.643	22.272	1277.730	1015.877
146.658	22.263	1276.991	1015.147
147.673	22.310	1276.028	1014.565
148.687	22.301	1275.112	1013.695
149.702	22.360	1273.663	1012.790
150.716	22.323	1272.659	1011.693
151.731	22.319	1271.517	1010.672
152.746	22.350	1270.622	1010.049
153.760	22.398	1269.925	1009.681
154.775	22.413	1268.601	1008.626
155.789	22.296	1267.756	1007.194
156.804	22.387	1266.958	1006.989
157.819	22.376	1266.080	1006.139
158.833	22.405	1265.086	1005.430
159.848	22.463	1264.369	1005.097
160.862	22.387	1263.725	1004.068
161.877	22.485	1262.641	1003.674
162.892	22.499	1262.054	1003.197
163.906	22.595	1260.973	1002.798
164.921	22.539	1260.255	1001.817
165.935	22.553	1259.317	1001.066
166.950	22.617	1258.433	1000.637
167.964	22.571	1258.268	1000.157
168.979	22.588	1257.978	999.931
169.994	22.471	1257.547	998.838
171.008	22.601	1256.271	998.471
172.023	22.469	1255.879	997.326
173.037	22.525	1254.896	996.773
174.052	22.467	1254.164	995.776
175.067	22.566	1253.226	995.499
176.081	22.526	1252.571	994.667
177.096	22.547	1251.876	994.146
178.110	22.597	1250.875	993.546
179.125	22.596	1249.693	992.510
180.140	22.588	1248.830	991.695
181.154	22.473	1248.008	990.309
182.169	22.505	1246.890	989.511
183.183	22.643	1245.374	988.993
184.198	22.593	1244.333	987.799
185.213	22.567	1244.059	987.349
186.227	22.687	1242.841	986.966
187.242	22.601	1242.258	985.934
188.256	22.579	1241.208	984.892
189.271	22.565	1240.149	983.887
190.286	22.526	1239.874	983.365
191.300	22.449	1239.538	982.582
192.315	22.631	1238.448	982.645
193.329	22.686	1238.032	982.533
194.344	22.550	1237.652	981.390
195.359	22.610	1237.238	981.306
196.373	22.485	1236.947	980.294
197.388	22.436	1236.360	979.469
198.402	22.585	1236.142	980.037
199.417	22.562	1235.142	979.032
200.432	22.629	1234.882	979.108
201.446	22.533	1234.171	977.929
202.461	22.570	1233.239	977.307
203.475	22.550	1232.501	976.527
204.490	22.584	1231.495	975.827
205.504	22.600	1230.296	974.881
206.519	22.644	1229.442	974.364
207.534	22.674	1228.316	973.549
208.548	22.570	1227.838	972.513
209.563	22.638	1227.070	972.189
210.577	22.718	1226.063	971.748
211.592	22.705	1225.302	970.985
212.607	22.723	1224.385	970.274
213.621	22.669	1223.982	969.571
214.636	22.705	1223.003	968.909
215.650	22.706	1221.889	967.944
216.665	22.571	1221.514	966.821
217.680	22.699	1220.122	966.336
218.694	22.781	1219.343	966.082
219.709	22.785	1219.214	965.917
220.723	22.680	1218.443	964.645
221.738	22.677	1217.458	963.764
222.753	22.677	1216.612	963.011
223.767	22.688	1216.396	962.811
224.782	22.815	1215.731	962.893
225.796	22.753	1215.143	962.004
226.811	22.814	1214.379	961.650
227.826	22.797	1214.052	961.212
228.840	22.822	1213.330	960.692
229.855	22.821	1212.690	960.092
230.869	22.828	1212.051	959.542
231.884	22.954	1210.818	959.162
232.899	22.852	1210.425	958.215
233.913	22.880	1209.585	957.613
234.928	22.935	1209.249	957.563
235.942	22.853	1208.850	956.721
236.957	22.901	1207.709	955.992
237.972	22.908	1207.061	955.430
238.986	22.725	1206.720	954.085
240.001	22.825	1206.078	954.037
241.015	22.837	1205.507	953.565
242.030	22.870	1204.699	953.017
243.045	23.109	1203.551	953.317
244.059	22.896	1202.876	951.548
245.074	22.943	1202.104	951.108
246.088	23.012	1201.257	950.722
247.103	23.105	1200.631	950.642
248.117	22.999	1199.928	949.431
249.132	23.109	1198.857	949.094
250.147	23.141	1197.943	948.457
251.161	23.191	1197.245	948.090
252.176	23.059	1196.972	947.079
253.190	22.998	1196.904	946.614
254.205	22.996	1195.534	945.438
255.220	23.060	1195.137	945.384
256.234	23.043	1194.448	944.662
257.249	23.034	1194.036	944.208
258.263	23.096	1193.566	944.082
259.278	23.144	1192.777	943.628
260.293	23.192	1192.027	943.207
261.307	23.155	1191.381	942.416
262.322	23.010	1191.290	941.487
263.336	23.148	1190.395	941.435
264.351	23.144	1189.891	940.930
265.366	23.219	1189.088	940.611
266.380	23.169	1188.520	939.811
267.395	23.032	1187.839	938.466
268.409	23.066	1187.404	938.216
269.424	23.056	1186.708	937.529
270.439	23.196	1186.491	938.021
271.453	23.135	1185.730	937.013
272.468	23.132	1184.990	936.325
273.482	23.127	1184.183	935.581
274.497	23.148	1183.683	935.216
275.512	23.236	1183.012	935.064
276.526	23.253	1182.021	934.288
277.541	23.164	1181.533	933.350
278.555	23.282	1181.051	933.512
279.570	23.232	1180.340	932.600
280.585	23.217	1179.179	931.526
281.599	23.241	1178.538	931.063
282.614	23.217	1177.540	930.066
283.628	23.288	1177.006	929.930
284.643	23.327	1175.964	929.232
285.657	23.297	1174.831	928.095
286.672	23.306	1174.213	927.572
287.687	23.296	1173.283	926.707
288.701	23.329	1172.930	926.517
289.716	23.225	1172.538	925.583
290.730	23.253	1172.060	925.268
291.745	23.367	1171.160	925.074
292.760	23.389	1170.471	924.561
293.774	23.419	1169.844	924.138
294.789	23.480	1169.401	924.024
295.803	23.404	1168.608	922.922
296.818	23.385	1167.994	922.257
297.833	23.421	1167.329	921.837
298.847	23.424	1166.800	921.355
299.862	23.343	1166.016	920.229
300.876	23.402	1165.530	920.074
301.891	23.457	1164.852	919.743
302.906	23.444	1164.150	919.037
303.920	23.513	1163.429	918.746
304.935	23.579	1162.444	918.229
305.949	23.455	1162.280	917.377
306.964	23.436	1161.601	916.660
307.979	23.442	1161.433	916.475
308.993	23.573	1160.484	916.322
310.008	23.647	1159.626	915.949
311.022	23.564	1158.687	914.694
312.037	23.607	1158.131	914.399
313.052	23.571	1156.992	913.235
314.066	23.577	1156.625	912.892
315.081	23.585	1155.293	911.801
316.095	23.619	1154.988	911.654
317.110	23.544	1154.786	911.031
318.125	23.602	1153.661	910.357
319.139	23.627	1152.964	909.858
320.154	23.617	1152.508	909.365
321.168	23.686	1151.600	908.923
322.183	23.722	1150.886	908.459
323.197	23.617	1150.895	907.849
324.212	23.541	1150.581	907.134
325.227	23.694	1149.625	907.084
326.241	23.722	1148.976	906.633
327.256	23.796	1148.143	906.272
328.270	23.651	1147.715	905.117
329.285	23.693	1146.915	904.618
330.300	23.663	1146.329	903.923
331.314	23.729	1145.097	903.206
332.329	23.801	1144.427	902.963
333.343	23.725	1143.885	902.072
334.358	23.779	1143.172	901.702
335.373	23.761	1142.583	901.068
336.387	23.850	1141.765	900.795
337.402	23.937	1141.056	900.597
338.416	23.989	1140.301	900.181
339.431	23.856	1139.827	899.054
340.446	23.937	1139.026	898.753
341.460	23.821	1138.748	897.871
342.475	23.906	1137.770	897.446
343.489	23.978	1136.405	896.653
344.504	23.819	1135.922	895.394
345.519	23.961	1134.916	895.236
346.533	24.005	1134.480	895.036
347.548	24.026	1133.778	894.508
348.562	23.925	1133.090	893.377
349.577	23.929	1132.237	892.644
350.592	23.968	1131.359	892.068
351.606	23.850	1130.914	891.052
352.621	23.954	1130.464	891.136
353.635	23.960	1129.834	890.590
354.650	24.057	1129.070	890.396
355.665	23.985	1128.481	889.491
356.679	24.033	1127.583	888.944
357.694	24.055	1127.343	888.787
358.708	24.059	1126.610	888.150
359.723	24.025	1125.883	887.329
360.738	24.040	1125.039	886.662
361.752	23.985	1124.952	886.241
362.767	24.126	1124.137	886.220
363.781	24.107	1123.678	885.687
364.796	24.184	1123.100	885.536
365.810	24.081	1122.823	884.725
366.825	24.284	1121.798	884.847
367.840	24.284	1121.333	884.401
368.854	24.248	1120.663	883.618
369.869	24.069	1120.131	882.235
370.883	24.311	1118.940	882.416
371.898	24.246	1118.572	881.725
372.913	24.154	1117.911	880.670
373.927	24.371	1117.377	881.246
374.942	24.367	1116.724	880.629
375.956	24.238	1116.593	879.815
376.971	24.246	1115.861	879.198
377.986	24.263	1115.159	878.652
379.000	24.349	1114.799	878.714
380.015	24.368	1114.116	878.190
381.029	24.325	1113.605	877.500
382.044	24.425	1112.601	877.121
383.059	24.403	1112.017	876.477
384.073	24.327	1111.576	875.677
385.088	24.327	1110.696	874.906
386.102	24.361	1109.824	874.311
387.117	24.391	1109.240	873.920
388.132	24.338	1108.248	872.800
389.146	24.345	1107.557	872.215
390.161	24.513	1106.777	872.344
391.175	24.500	1105.669	871.329
392.190	24.409	1105.424	870.617
393.205	24.430	1104.663	870.041
394.219	24.525	1104.149	870.022
395.234	24.540	1103.375	869.408
396.248	24.568	1102.142	868.497
397.263	24.540	1101.739	867.964
398.278	24.504	1101.080	867.194
399.292	24.567	1100.764	867.175
400.307	24.687	1099.843	866.955
401.321	24.668	1098.956	866.087
402.336	24.450	1098.819	864.845
403.350	24.454	1097.908	864.073
404.365	24.517	1097.372	863.876
405.380	24.678	1096.426	863.835
406.394	24.692	1095.454	863.059
407.409	24.743	1094.525	862.496
408.423	24.729	1094.344	862.212
409.438	24.670	1093.759	861.389
410.453	24.796	1092.716	861.100
411.467	24.762	1092.117	860.387
412.482	24.760	1091.384	859.723
413.496	24.647	1090.944	858.759
414.511	24.778	1090.272	858.781
415.526	24.761	1089.764	858.224
416.540	24.703	1089.661	857.790
417.555	24.764	1088.725	857.268
418.569	24.749	1088.415	856.875
419.584	24.753	1088.476	856.868
420.599	24.710	1087.815	856.067
421.613	148.276	1403.150	1799.528
422.628	137.103	1449.065	1799.600
