DTS Sentinel unit serial number:	SN413079Multiplexer serial number:	ORYXHardware model number:	OX4-SRSoftware version number:	ORYX F/W v4.00 Oryx Data Collector v3.7.2.0data status	okinstallation	princeton_trtdifferential loss correction	single-endedforward channel	channel 3reverse channel	N/Adate	2019/09/11time	09:26:11forward acquisition time	60.00reverse acquisition time	0.00gamma	496.2192k internal	0.2306k external	0.2306temperature offset calibration	0.9938default loss term (dB/km)	0.3790temperature slope calibration	1.0000multiplexer offset coefficient	1.0000multiplexer slope coefficient	1.0000fibre end	0.00T internal ref (°C)	34.62T ext. ref 1 (°C)	0.11T ext. ref 2 (°C)	31.47length (m)	temperature (°C)	Stokes	anti-Stokes-747.200	341.124	0.117	0.232
-746.185	800.000	0.093	0.344
-745.171	800.000	0.008	0.027
-744.156	-140.094	-0.162	-0.017
-743.142	118.110	0.167	-0.209
-742.127	688.115	-0.147	0.390
-741.112	-45.934	0.348	0.175
-740.098	-43.866	0.100	-0.051
-739.083	158.039	0.149	0.211
-738.069	-30.197	-0.185	0.107
-737.054	-88.216	0.140	0.043
-736.039	357.246	0.056	0.114
-735.025	-71.156	-0.253	0.096
-734.010	-175.015	-0.294	-0.008
-732.996	518.392	0.031	-0.073
-731.981	-200.000	0.123	-0.000
-730.966	146.036	-0.082	-0.112
-729.952	78.134	-0.195	-0.211
-728.937	74.173	-0.181	0.193
-727.923	287.010	0.070	-0.128
-726.908	-200.000	-0.032	-0.370
-725.894	800.000	0.047	-0.164
-724.879	-200.000	0.020	-0.174
-723.864	249.167	-0.105	0.181
-722.850	-140.549	-0.233	0.025
-721.835	11.236	0.179	0.139
-720.821	-39.661	-0.341	-0.181
-719.806	-8.012	-0.176	-0.120
-718.791	-48.312	-0.055	-0.027
-717.777	-104.728	0.089	0.021
-716.762	-101.386	-0.139	0.034
-715.748	-12.684	0.134	0.089
-714.733	-200.000	0.027	-0.145
-713.718	-84.807	-0.610	-0.195
-712.704	322.678	-0.024	0.046
-711.689	95.286	-0.110	-0.127
-710.675	326.475	0.007	0.013
-709.660	178.183	0.065	0.096
-708.645	-96.363	-0.178	0.048
-707.631	-95.659	0.089	-0.024
-706.616	51.229	-0.076	0.073
-705.602	318.812	-0.115	-0.221
-704.587	433.539	-0.166	0.367
-703.572	-71.981	-0.369	-0.140
-702.558	153.316	0.218	0.303
-701.543	-200.000	0.008	0.498
-700.529	370.945	-0.086	0.177
-699.514	-200.000	0.040	0.183
-698.499	519.623	0.031	0.075
-697.485	-200.000	0.047	-0.219
-696.470	15.970	-0.097	0.077
-695.456	-200.000	0.050	-0.339
-694.441	97.034	-0.217	-0.253
-693.426	-133.736	-0.106	0.013
-692.412	-200.000	0.066	0.586
-691.397	83.010	0.059	-0.065
-690.383	4.969	0.058	0.044
-689.368	122.511	0.091	-0.116
-688.354	-91.269	-0.230	0.067
-687.339	-12.605	0.181	0.120
-686.324	-200.000	0.035	0.204
-685.310	93.280	-0.091	-0.104
-684.295	-70.636	0.141	-0.054
-683.281	-137.907	-0.179	0.020
-682.266	338.281	0.051	0.101
-681.251	-126.967	0.294	0.044
-680.237	-200.000	-0.022	0.388
-679.222	-100.741	-0.175	-0.044
-678.208	-23.658	-0.473	0.288
-677.193	130.728	0.137	-0.178
-676.178	-94.297	-0.149	-0.041
-675.164	112.438	-0.043	-0.053
-674.149	800.000	-0.081	0.306
-673.135	-65.601	0.094	-0.038
-672.120	800.000	-0.004	-0.017
-671.105	-21.964	-0.235	-0.145
-670.091	-77.748	-0.201	0.071
-669.076	515.673	0.039	-0.092
-668.062	-106.713	-0.087	0.020
-667.047	73.899	0.206	-0.219
-666.032	326.669	0.110	-0.213
-665.018	174.661	-0.117	0.172
-664.003	-118.999	0.361	0.064
-662.989	-124.131	-0.386	0.061
-661.974	-200.000	0.018	0.133
-660.959	-40.039	0.113	0.060
-659.945	-36.299	0.124	0.068
-658.930	82.507	-0.187	0.205
-657.916	-200.000	0.035	0.187
-656.901	800.000	-0.076	-0.223
-655.886	-92.735	0.135	0.038
-654.872	353.375	-0.038	-0.077
-653.857	-56.644	-0.441	-0.198
-652.843	-58.729	-0.160	0.070
-651.828	-200.000	-0.054	-0.453
-650.814	-109.858	-0.249	0.053
-649.799	-125.893	-0.126	-0.019
-648.784	139.650	-0.085	0.113
-647.770	800.000	-0.117	-0.370
-646.755	-0.331	-0.108	0.078
-645.741	-144.068	-0.116	-0.011
-644.726	-46.430	0.194	0.097
-643.711	134.341	0.198	-0.261
-642.697	800.000	0.084	-0.357
-641.682	25.438	-0.121	0.102
-640.668	-200.000	-0.006	0.153
-639.653	208.539	0.255	0.404
-638.638	315.191	-0.073	0.140
-637.624	117.522	0.152	0.189
-636.609	-41.646	-0.173	-0.090
-635.595	-121.148	0.272	0.046
-634.580	-92.176	-0.221	0.063
-633.565	493.195	-0.201	0.466
-632.551	-80.453	-0.235	-0.079
-631.536	667.060	-0.013	-0.034
-630.522	-129.480	0.198	0.028
-629.507	-200.000	-0.031	0.179
-628.492	-200.000	0.037	-0.267
-627.478	-200.000	0.009	-0.297
-626.463	-200.000	0.011	-0.159
-625.449	-200.000	0.052	0.292
-624.434	-200.000	0.018	0.332
-623.419	552.239	0.070	0.171
-622.405	-11.087	-0.282	-0.188
-621.390	314.097	-0.118	-0.224
-620.376	-200.000	0.048	0.347
-619.361	83.650	-0.004	0.004
-618.346	-152.201	-0.127	0.009
-617.332	-17.472	-0.218	-0.139
-616.317	800.000	-0.054	-0.165
-615.303	-111.001	0.292	0.061
-614.288	-2.642	-0.185	-0.131
-613.273	-200.000	-0.005	0.040
-612.259	-16.141	0.133	0.086
-611.244	-63.785	0.381	0.158
-610.230	-69.054	-0.173	0.067
-609.215	17.427	-0.236	-0.190
-608.201	77.689	-0.340	-0.366
-607.186	-117.264	0.102	0.019
-606.171	452.544	-0.043	-0.096
-605.157	8.990	-0.176	0.134
-604.142	800.000	0.056	0.181
-603.128	-35.521	-0.088	-0.048
-602.113	30.623	-0.129	0.112
-601.098	350.758	-0.074	0.148
-600.084	-200.000	-0.020	-0.306
-599.069	369.352	-0.083	0.169
-598.055	71.904	-0.215	-0.226
-597.040	133.474	0.141	-0.184
-596.025	-37.170	0.133	-0.072
-595.011	800.000	0.109	-0.336
-593.996	800.000	0.039	-0.148
-592.982	-9.652	0.250	0.169
-591.967	-102.272	0.295	-0.072
-590.952	800.000	0.031	-0.111
-589.938	-115.997	-0.487	-0.092
-588.923	438.621	0.154	0.339
-587.909	-53.301	0.291	0.135
-586.894	17.228	-0.232	0.186
-585.879	800.000	0.075	-0.254
-584.865	538.025	0.142	-0.342
-583.850	106.946	0.154	-0.185
-582.836	384.200	-0.073	-0.151
-581.821	-73.045	0.116	0.043
-580.806	800.000	0.136	-0.485
-579.792	-51.309	0.262	0.124
-578.777	-104.669	0.268	0.063
-577.763	-115.131	-0.143	-0.027
-576.748	-118.792	0.327	0.058
-575.733	-109.299	0.070	-0.015
-574.719	-81.964	-0.223	-0.074
-573.704	-200.000	-0.005	0.120
-572.690	196.634	-0.176	0.272
-571.675	122.775	0.187	-0.237
-570.661	800.000	-0.066	-0.280
-569.646	-10.808	-0.215	-0.144
-568.631	-200.000	0.024	-0.323
-567.617	-103.426	0.214	0.051
-566.602	-200.000	0.010	-0.202
-565.588	-118.859	0.344	0.061
-564.573	-132.863	-0.232	-0.030
-563.558	404.429	-0.095	-0.202
-562.544	-19.462	0.043	-0.027
-561.529	-200.000	-0.002	-0.011
-560.515	70.323	-0.104	0.108
-559.500	560.498	-0.122	0.298
-558.485	78.300	0.186	0.201
-557.471	40.219	-0.186	0.169
-556.456	-145.966	-0.560	0.050
-555.442	-76.665	-0.096	-0.034
-554.427	82.499	0.158	0.173
-553.412	68.388	0.058	-0.060
-552.398	-106.982	-0.073	0.016
-551.383	-27.618	0.435	-0.255
-550.369	-200.000	-0.063	-0.364
-549.354	-79.288	-0.177	0.061
-548.339	1.451	-0.065	-0.047
-547.325	107.022	0.082	-0.099
-546.310	257.678	0.061	-0.106
-545.296	-81.206	-0.089	-0.030
-544.281	-55.974	0.084	-0.038
-543.266	-200.000	0.027	0.160
-542.252	-200.000	0.640	0.003
-541.237	336.942	-0.081	0.160
-540.223	63.403	0.244	0.247
-539.208	-3.243	-0.147	-0.104
-538.193	-156.905	-0.312	-0.019
-537.179	93.440	0.071	0.081
-536.164	220.771	-0.158	-0.255
-535.150	-200.000	0.081	-0.439
-534.135	-36.981	-0.208	-0.112
-533.121	297.546	0.209	0.387
-532.106	-200.000	0.027	0.269
-531.091	776.099	0.013	-0.037
-530.077	52.691	0.122	0.117
-529.062	-20.891	0.149	-0.092
-528.048	-6.308	0.081	-0.056
-527.033	-108.595	-0.519	0.112
-526.018	-200.000	0.020	-0.133
-525.004	-111.868	0.311	0.063
-523.989	-139.465	0.286	-0.031
-522.975	588.825	0.045	0.113
-521.960	-20.305	0.325	0.202
-520.945	-114.485	-0.103	0.020
-519.931	-93.127	0.214	0.060
-518.916	-15.917	0.134	0.086
-517.902	96.228	0.037	0.043
-516.887	1.925	-0.271	-0.197
-515.872	-164.468	0.167	0.008
-514.858	25.638	-0.135	-0.113
-513.843	209.617	-0.041	0.064
-512.829	-162.741	0.037	-0.002
-511.814	-46.427	0.346	0.172
-510.799	-55.540	0.078	0.035
-509.785	-24.995	-0.103	0.062
-508.770	800.000	-0.066	-0.218
-507.756	800.000	0.022	-0.092
-506.741	318.634	0.073	-0.140
-505.726	-110.926	-0.413	0.086
-504.712	51.389	0.102	-0.097
-503.697	393.795	0.095	0.200
-502.683	800.000	0.041	0.136
-501.668	-157.636	0.265	0.016
-500.653	-56.856	-0.293	-0.131
-499.639	-200.000	0.058	-0.278
-498.624	-69.645	-0.260	-0.100
-497.610	317.355	-0.079	0.151
-496.595	-148.978	-0.209	-0.017
-495.581	-145.379	-0.143	0.013
-494.566	198.062	0.050	-0.077
-493.551	-153.852	-0.135	0.009
-492.537	-11.304	-0.310	-0.205
-491.522	230.787	0.015	-0.024
-490.508	-70.460	-0.400	0.153
-489.493	-19.107	-0.129	-0.081
-488.478	-17.162	0.082	-0.052
-487.464	-77.903	0.225	0.078
-486.449	-66.418	0.141	-0.056
-485.435	-162.490	-0.145	0.007
-484.420	800.000	-0.127	0.432
-483.405	94.096	-0.204	0.234
-482.391	-76.434	-0.240	-0.085
-481.376	-133.020	-0.394	0.050
-480.362	-91.370	-0.090	0.026
-479.347	-200.000	-0.037	0.275
-478.332	-121.340	-0.155	0.026
-477.318	-5.342	0.270	0.187
-476.303	-99.415	0.361	0.092
-475.289	-200.000	-0.001	0.055
-474.274	-200.000	-0.006	-0.156
-473.259	-110.821	-0.434	-0.090
-472.245	133.185	0.135	0.175
-471.230	21.781	-0.097	0.079
-470.216	-200.000	0.005	0.151
-469.201	370.114	0.069	-0.140
-468.186	800.000	0.076	0.218
-467.172	800.000	-0.018	0.062
-466.157	-84.604	0.078	0.025
-465.143	-31.477	0.068	-0.039
-464.128	800.000	0.054	0.180
-463.113	-83.767	0.204	-0.066
-462.099	-200.000	-0.001	-0.058
-461.084	150.970	-0.153	0.210
-460.070	-50.050	0.151	0.072
-459.055	68.607	-0.123	0.127
-458.040	-51.098	0.211	0.099
-457.026	-79.546	0.376	0.128
-456.011	303.066	0.210	-0.392
-454.997	218.891	0.133	0.213
-453.982	386.547	0.194	0.403
-452.968	177.368	-0.238	0.348
-451.953	117.146	0.079	0.097
-450.938	-23.534	-0.137	0.083
-449.924	-200.000	0.014	-0.222
-448.909	145.757	0.106	0.143
-447.895	389.000	0.149	-0.310
-446.880	66.299	0.167	-0.170
-445.865	-121.132	-0.178	0.030
-444.851	305.030	-0.052	-0.098
-443.836	800.000	0.078	-0.281
-442.822	-134.307	0.278	-0.034
-441.807	-87.232	0.188	0.057
-440.792	174.913	-0.109	-0.159
-439.778	6.886	0.119	-0.089
-438.763	-15.296	0.297	-0.191
-437.749	-56.404	0.275	-0.123
-436.734	293.264	-0.123	-0.226
-435.719	-200.000	0.046	0.317
-434.705	57.895	0.197	0.194
-433.690	-143.610	-0.138	0.013
-432.676	42.294	0.183	-0.167
-431.661	9.748	-0.113	0.086
-430.646	-117.492	-0.338	0.061
-429.632	275.433	-0.220	0.392
-428.617	-200.000	0.013	0.063
-427.603	-100.542	0.135	0.033
-426.588	-157.230	-0.308	-0.019
-425.573	-141.581	0.504	0.051
-424.559	419.275	0.073	0.156
-423.544	-200.000	-0.019	-0.224
-422.530	650.105	0.076	0.196
-421.515	-200.000	-0.022	0.426
-420.500	-200.000	-0.023	-0.271
-419.486	-55.389	0.195	0.088
-418.471	-55.498	-0.429	0.193
-417.457	-92.325	0.112	-0.032
-416.442	-133.364	0.385	0.049
-415.428	461.689	-0.163	0.366
-414.413	28.998	0.167	-0.142
-413.398	-8.561	0.187	0.126
-412.384	491.830	0.009	-0.022
-411.369	104.490	-0.123	0.145
-410.355	-28.936	-0.244	0.141
-409.340	-57.302	0.205	-0.090
-408.325	800.000	-0.053	0.159
-407.311	-36.225	-0.191	0.104
-406.296	255.890	0.106	0.183
-405.282	-71.322	-0.344	0.129
-404.267	18.305	-0.289	0.232
-403.252	-34.909	0.316	0.173
-402.238	402.138	-0.069	-0.146
-401.223	-160.241	-0.337	-0.018
-400.209	-1.975	0.109	-0.077
-399.194	-33.167	-0.312	-0.174
-398.179	-92.920	-0.119	-0.033
-397.165	-87.684	0.169	-0.051
-396.150	17.282	0.314	-0.250
-395.136	-100.465	-0.451	-0.112
-394.121	-107.850	0.273	-0.060
-393.106	800.000	-0.033	-0.104
-392.092	-193.166	-0.122	-0.001
-391.077	-34.805	0.299	0.164
-390.063	209.128	-0.127	-0.200
-389.048	11.898	0.083	0.064
-388.033	-63.022	0.273	-0.113
-387.019	-73.927	0.156	-0.057
-386.004	79.780	0.071	-0.077
-384.990	-200.000	-0.003	-0.151
-383.975	343.169	0.080	-0.157
-382.960	800.000	0.023	-0.074
-381.946	171.131	0.056	-0.081
-380.931	-133.103	-0.256	0.033
-379.917	-200.000	-0.001	-0.139
-378.902	56.801	0.351	0.343
-377.888	42.940	-0.238	0.218
-376.873	800.000	-0.088	0.324
-375.858	800.000	-0.087	-0.315
-374.844	800.000	0.078	-0.240
-373.829	156.295	0.063	-0.088
-372.815	800.000	-0.071	-0.239
-371.800	-200.000	-0.024	0.203
-370.785	-92.931	-0.121	0.034
-369.771	-200.000	-0.029	0.292
-368.756	13.384	0.053	-0.042
-367.742	-49.233	0.140	0.067
-366.727	-152.176	-0.223	-0.016
-365.712	-200.000	-0.052	0.273
-364.698	-39.752	0.259	-0.136
-363.683	-200.000	0.026	-0.149
-362.669	-138.323	0.140	-0.015
-361.654	-97.372	-0.265	0.069
-360.639	-111.592	-0.163	-0.033
-359.625	-200.000	-0.012	-0.201
-358.610	-62.887	-0.329	0.136
-357.596	-43.587	-0.192	-0.097
-356.581	190.905	-0.050	-0.075
-355.566	-200.000	0.000	-0.172
-354.552	579.508	-0.010	-0.024
-353.537	39.830	-0.126	-0.114
-352.523	204.298	0.038	0.059
-351.508	84.095	0.111	0.121
-350.493	74.872	0.160	0.168
-349.479	-25.493	-0.030	-0.018
-348.464	109.659	0.352	0.422
-347.450	84.036	0.141	0.154
-346.435	33.150	-0.182	0.158
-345.420	-200.000	-0.007	-0.172
-344.406	210.383	0.164	-0.258
-343.391	-99.500	-0.239	0.060
-342.377	-115.439	-0.225	-0.042
-341.362	-200.000	0.015	-0.187
-340.348	154.774	0.110	-0.152
-339.333	581.387	0.039	-0.096
-338.318	800.000	-0.084	-0.274
-337.304	-18.740	0.188	0.117
-336.289	-84.611	-0.082	0.026
-335.275	20.316	-0.178	0.144
-334.260	800.000	0.050	-0.170
-333.245	-175.617	-0.431	0.012
-332.231	-45.917	-0.201	-0.099
-331.216	-200.000	0.001	-0.155
-330.202	709.576	0.159	-0.420
-329.187	-56.969	-0.113	0.050
-328.172	800.000	-0.025	-0.084
-327.158	-70.355	-0.200	-0.076
-326.143	-121.331	-0.161	0.027
-325.129	-69.203	-0.257	-0.099
-324.114	-158.665	-0.139	0.008
-323.099	15.643	-0.161	-0.127
-322.085	800.000	-0.107	0.426
-321.070	-94.616	0.039	-0.011
-320.056	-200.000	-0.011	0.145
-319.041	122.238	0.110	-0.138
-318.026	444.829	-0.059	0.129
-317.012	-64.083	0.166	0.068
-315.997	342.499	-0.213	-0.416
-314.983	-200.000	-0.034	-0.253
-313.968	209.501	0.244	0.382
-312.953	-60.094	-0.185	0.079
-311.939	-129.871	0.258	0.035
-310.924	-200.000	-0.455	-0.002
-309.910	79.523	0.132	0.142
-308.895	76.113	-0.133	0.141
-307.880	679.255	0.058	-0.152
-306.866	-36.309	0.146	-0.079
-305.851	67.507	0.079	0.080
-304.837	463.377	0.092	-0.205
-303.822	-98.374	0.270	0.069
-302.807	-57.758	0.113	0.049
-301.793	-108.544	-0.337	-0.073
-300.778	573.545	0.084	-0.205
-299.764	-101.309	-0.166	-0.041
-298.749	3.900	0.036	-0.026
-297.735	-65.721	0.092	0.037
-296.720	-87.335	-0.209	0.063
-295.705	511.023	-0.068	-0.158
-294.691	175.053	0.193	0.280
-293.676	-200.000	-0.006	0.039
-292.662	452.864	-0.082	0.181
-291.647	-200.000	-0.018	-0.197
-290.632	157.428	-0.135	-0.187
-289.618	33.399	0.120	-0.104
-288.603	34.656	0.241	0.211
-287.589	800.000	-0.047	0.197
-286.574	506.726	0.141	-0.328
-285.559	-200.000	0.024	0.114
-284.545	-84.056	0.268	-0.085
-283.530	-200.000	0.051	-0.323
-282.516	89.443	0.013	-0.015
-281.501	-200.000	-0.002	0.033
-280.486	84.167	0.064	0.070
-279.472	-127.601	0.071	-0.010
-278.457	457.575	-0.115	0.255
-277.443	75.613	0.041	0.043
-276.428	-148.871	-0.115	0.009
-275.413	7.205	0.235	0.175
-274.399	286.029	-0.035	0.064
-273.384	-200.000	0.001	-0.205
-272.370	-12.493	0.124	-0.081
-271.355	800.000	0.072	-0.198
-270.340	-200.000	0.030	0.384
-269.326	-103.723	-0.156	-0.037
-268.311	-82.834	0.389	-0.126
-267.297	-81.310	-0.211	-0.069
-266.282	-84.199	-0.455	-0.144
-265.267	-112.125	0.084	0.017
-264.253	800.000	0.066	0.248
-263.238	98.301	-0.145	-0.166
-262.224	-93.898	-0.264	0.073
-261.209	-147.647	-0.246	-0.021
-260.195	264.659	0.098	0.171
-259.180	50.835	-0.057	0.054
-258.165	-67.158	0.291	-0.114
-257.151	-138.078	-0.429	-0.048
-256.136	-21.017	-0.049	0.030
-255.122	318.442	-0.021	-0.041
-254.107	-200.000	0.014	-0.105
-253.092	-135.899	0.427	0.050
-252.078	-200.000	-0.025	0.365
-251.063	1.465	0.050	-0.036
-250.049	31.795	0.076	0.065
-249.034	426.170	0.095	-0.204
-248.019	-171.580	-0.554	-0.018
-247.005	-200.000	-0.010	0.222
-245.990	-61.880	-0.262	-0.109
-244.976	-140.270	-0.087	-0.009
-243.961	-29.652	0.109	-0.062
-242.946	-96.737	0.254	0.067
-241.932	-162.300	0.285	0.014
-240.917	-143.659	-0.207	-0.020
-239.903	800.000	-0.037	0.119
-238.888	-174.289	-0.263	-0.008
-237.873	-133.059	0.171	0.022
-236.859	128.595	-0.209	0.265
-235.844	216.928	-0.167	0.266
-234.830	46.312	0.263	0.243
-233.815	-126.136	0.170	-0.025
-232.800	430.449	0.169	0.364
-231.786	276.822	-0.128	-0.227
-230.771	-200.000	-0.005	0.054
-229.757	10.904	-0.174	0.132
-228.742	-139.207	0.028	-0.003
-227.727	259.931	-0.132	0.228
-226.713	78.117	0.130	-0.138
-225.698	249.356	0.142	0.241
-224.684	-95.301	0.013	0.004
-223.669	-70.222	-0.106	0.040
-222.655	-70.800	0.178	-0.067
-221.640	-154.084	-0.179	0.012
-220.625	324.715	0.056	-0.106
-219.611	-24.516	0.179	-0.107
-218.596	-200.000	0.002	-0.036
-217.582	180.413	0.040	-0.059
-216.567	-71.966	0.240	0.089
-215.552	60.852	-0.159	0.157
-214.538	287.319	0.112	0.202
-213.523	126.723	-0.118	0.149
-212.509	-37.575	-0.218	-0.116
-211.494	-18.097	-0.154	-0.096
-210.479	800.000	0.016	-0.058
-209.465	800.000	0.037	0.160
-208.450	-21.963	0.216	0.131
-207.436	68.728	0.140	-0.143
-206.421	-116.360	0.382	-0.070
-205.406	79.436	0.299	-0.319
-204.392	164.044	0.175	0.246
-203.377	240.969	0.041	0.068
-202.363	14.821	-0.067	-0.052
-201.348	167.814	-0.117	0.166
-200.333	800.000	0.113	-0.413
-199.319	308.785	0.046	0.086
-198.304	-30.823	0.336	0.189
-197.290	-200.000	-0.007	-0.128
-196.275	43.875	-0.221	0.202
-195.260	510.560	0.067	-0.154
-194.246	800.000	-0.044	0.152
-193.231	-102.261	-0.386	-0.092
-192.217	-127.153	-0.164	0.024
-191.202	-78.431	-0.157	0.053
-190.187	-200.000	-0.063	-0.325
-189.173	254.483	0.080	-0.137
-188.158	-89.173	-0.105	0.031
-187.144	171.241	0.279	-0.399
-186.129	240.736	0.053	0.087
-185.114	-115.960	0.103	0.019
-184.100	-136.429	0.489	-0.057
-183.085	-136.220	-0.342	-0.040
-182.071	-96.657	0.075	0.020
-181.056	33.454	0.070	-0.060
-180.042	147.753	-0.016	-0.021
-179.027	167.362	0.220	0.311
-178.012	212.041	-0.047	-0.073
-176.998	79.981	0.135	0.145
-175.983	-129.589	0.109	0.015
-174.969	-200.000	0.020	-0.132
-173.954	10.330	0.094	-0.071
-172.939	-31.908	0.257	-0.143
-171.925	67.494	-0.185	-0.187
-170.910	10.721	-0.128	-0.097
-169.896	-45.064	0.163	0.080
-168.881	-200.000	-0.029	-0.373
-167.866	546.860	-0.061	0.145
-166.852	54.308	0.101	-0.097
-165.837	-49.490	-0.406	-0.192
-164.823	-87.549	0.088	0.026
-163.808	-81.463	-0.278	0.091
-162.793	-200.000	0.008	-0.301
-161.779	-50.453	0.063	0.030
-160.764	94.848	-0.128	-0.145
-159.750	30.128	-0.017	0.015
-158.735	-200.000	-0.047	-0.212
-157.720	-151.535	-0.248	-0.018
-156.706	103.956	-0.188	-0.220
-155.691	-117.635	-0.100	-0.018
-154.677	21.404	0.331	0.268
-153.662	50.754	-0.103	0.097
-152.647	346.427	-0.056	-0.109
-151.633	-87.102	-0.057	0.017
-150.618	-200.000	-0.127	0.000
-149.604	800.000	0.052	0.150
-148.589	-200.000	-0.024	-0.331
-147.574	27.459	0.154	0.129
-146.560	197.722	-0.040	-0.060
-145.545	208.866	-0.112	0.174
-144.531	581.244	-0.017	0.041
-143.516	-49.246	-0.135	0.064
-142.502	452.212	-0.094	-0.207
-141.487	-43.561	-0.194	-0.097
-140.472	276.369	-0.196	0.347
-139.458	137.466	0.117	0.152
-138.443	205.384	0.296	-0.457
-137.429	-200.000	0.018	-0.208
-136.414	-72.242	-0.167	-0.061
-135.399	-125.478	-0.174	-0.026
-134.385	138.892	0.148	0.194
-133.370	-21.927	0.173	-0.104
-132.356	-148.437	0.247	0.020
-131.341	29.978	-0.114	0.097
-130.326	-82.089	0.342	0.111
-129.312	-200.000	-0.024	-0.230
-128.297	-200.000	0.044	0.313
-127.283	-90.218	0.178	0.051
-126.268	64.462	0.223	-0.223
-125.253	800.000	0.031	0.117
-124.239	285.864	-0.116	0.208
-123.224	419.756	-0.099	-0.210
-122.210	-163.662	-0.148	0.007
-121.195	1.968	0.223	-0.159
-120.180	-200.000	0.013	0.304
-119.166	-38.805	-0.126	0.066
-118.151	193.733	0.078	0.117
-117.137	211.066	0.127	0.199
-116.122	215.723	-0.217	0.341
-115.107	-101.335	0.135	-0.033
-114.093	-6.225	-0.040	0.027
-113.078	800.000	-0.042	-0.119
-112.064	89.791	0.212	0.235
-111.049	-89.483	0.154	0.045
-110.034	-47.135	0.174	-0.084
-109.020	-49.592	-0.073	0.035
-108.005	-4.363	-0.178	0.122
-106.991	77.958	0.115	0.122
-105.976	445.449	0.019	0.042
-104.962	201.206	0.091	0.140
-103.947	361.252	-0.070	0.140
-102.932	403.566	-0.205	0.429
-101.918	-144.276	0.080	0.007
-100.903	800.000	0.036	-0.111
-99.889	84.645	-0.125	0.136
-98.874	193.771	0.148	0.222
-97.859	128.318	0.089	0.113
-96.845	60.235	-0.271	-0.266
-95.830	-176.570	0.368	-0.009
-94.816	154.524	-0.216	-0.295
-93.801	83.981	-0.136	-0.147
-92.786	-40.259	0.321	0.166
-91.772	-80.123	-0.209	-0.069
-90.757	168.488	0.181	-0.256
-89.743	-74.939	-0.065	-0.023
-88.728	-200.000	0.003	-0.146
-87.713	-200.000	-0.005	-0.055
-86.699	-200.000	0.003	0.118
-85.684	-125.994	-0.645	0.096
-84.670	272.938	0.225	0.394
-83.655	242.037	0.054	0.090
-82.640	800.000	0.058	-0.245
-81.626	21.461	-0.071	-0.057
-80.611	618.779	0.109	-0.271
-79.597	-93.306	-0.142	-0.039
-78.582	-200.000	-0.029	0.268
-77.567	800.000	0.009	-0.040
-76.553	-200.000	-0.032	-0.270
-75.538	239.057	-0.027	0.044
-74.524	-20.904	0.142	0.086
-73.509	267.097	-0.179	0.310
-72.494	-139.908	0.186	-0.019
-71.480	41.648	0.079	0.071
-70.465	-76.666	-0.137	-0.048
-69.451	-200.000	-0.020	-0.513
-68.436	6.602	0.308	-0.227
-67.422	-175.090	-0.122	0.003
-66.407	-49.544	0.240	-0.113
-65.392	-62.834	0.153	-0.063
-64.378	-200.000	-0.018	0.440
-63.363	440.543	0.061	-0.132
-62.349	-45.641	-0.303	0.149
-61.334	101.322	-0.895	-1.032
-60.319	-103.731	0.562	0.130
-59.305	-200.000	0.045	-0.643
-58.290	800.000	0.427	1.241
-57.276	800.000	0.390	1.640
-56.261	-200.000	93.956	520.530
-55.246	562.504	1375.990	3297.728
-54.232	184.296	2617.182	3838.833
-53.217	115.921	2225.300	2697.394
-52.203	44.758	1756.435	1600.230
-51.188	37.723	1565.113	1376.383
-50.173	35.277	1537.372	1334.920
-49.159	52.297	1587.758	1499.640
-48.144	55.753	1605.982	1541.285
-47.130	38.124	1561.194	1375.541
-46.115	34.892	1546.064	1339.563
-45.100	34.642	1543.144	1335.233
-44.086	34.698	1540.789	1333.532
-43.071	34.614	1539.213	1331.525
-42.057	34.628	1537.292	1329.908
-41.042	34.525	1536.356	1328.331
-40.027	34.660	1534.546	1327.651
-39.013	34.639	1532.320	1325.530
-37.998	34.550	1531.873	1324.471
-36.984	34.625	1530.956	1324.146
-35.969	34.590	1529.311	1322.426
-34.954	34.638	1527.788	1321.390
-33.940	34.550	1526.727	1319.812
-32.925	34.644	1524.718	1318.674
-31.911	34.663	1523.748	1317.909
-30.896	34.655	1522.067	1316.349
-29.881	34.745	1520.798	1315.818
-28.867	34.675	1519.678	1314.317
-27.852	34.696	1517.949	1312.915
-26.838	34.730	1516.600	1311.933
-25.823	34.622	1515.492	1310.178
-24.809	34.654	1513.221	1308.381
-23.794	34.589	1512.023	1306.846
-22.779	34.690	1510.479	1306.157
-21.765	34.529	1510.047	1304.629
-20.750	34.674	1508.714	1304.415
-19.736	34.701	1507.130	1303.179
-18.721	34.676	1506.059	1302.031
-17.706	34.621	1505.189	1300.853
-16.692	34.666	1503.999	1300.075
-15.677	34.631	1503.211	1299.107
-14.663	34.661	1501.900	1298.127
-13.648	34.744	1500.407	1297.350
-12.633	34.615	1500.086	1296.141
-11.619	34.561	1498.952	1294.743
-10.604	34.607	1498.054	1294.227
-9.590	34.527	1497.622	1293.265
-8.575	34.592	1496.208	1292.433
-7.560	34.583	1496.030	1292.162
-6.546	34.567	1495.448	1291.500
-5.531	34.589	1494.170	1290.495
-4.517	34.616	1493.172	1289.768
-3.502	34.604	1492.209	1288.801
-2.487	34.598	1491.056	1287.714
-1.473	34.480	1490.389	1286.293
-0.458	34.712	1488.475	1286.149
0.556	32.897	1479.563	1276.092
1.571	30.338	1452.594	1235.712
2.586	27.149	1390.845	1162.711
3.600	25.730	1308.450	1085.189
4.615	24.126	1261.687	1036.982
5.629	19.975	1202.109	964.850
6.644	9.265	1111.930	836.898
7.659	1.353	1067.621	763.798
8.673	0.293	1062.216	754.561
9.688	0.198	1059.149	751.839
10.702	-0.028	1057.754	749.656
11.717	-0.012	1055.611	748.151
12.731	3.593	1060.382	769.461
13.746	13.523	1075.337	830.243
14.761	20.769	1084.292	873.578
15.775	21.870	1084.850	879.473
16.790	21.975	1084.674	879.777
17.804	21.922	1083.470	878.459
18.819	21.777	1082.417	876.804
19.834	21.694	1081.970	875.950
20.848	21.887	1081.789	876.688
21.863	21.927	1081.217	876.347
22.877	21.860	1080.860	875.644
23.892	21.815	1080.003	874.651
24.907	21.816	1078.800	873.601
25.921	21.794	1078.388	873.081
26.936	21.865	1077.698	872.801
27.950	21.897	1076.293	871.745
28.965	21.717	1075.788	870.364
29.980	21.691	1073.751	868.509
30.994	21.610	1072.013	866.627
32.009	21.840	1071.382	867.174
33.023	21.930	1071.022	867.253
34.038	21.741	1069.620	865.107
35.053	21.637	1069.145	864.136
36.067	21.873	1068.677	864.843
37.082	21.828	1067.572	863.653
38.096	21.829	1066.791	862.950
39.111	21.950	1065.881	862.730
40.126	22.192	1064.886	863.040
41.140	22.058	1063.664	861.313
42.155	21.681	1062.915	858.784
43.169	21.422	1061.391	856.210
44.184	21.433	1060.223	855.245
45.199	21.591	1058.837	854.822
46.213	21.468	1058.066	853.523
47.228	21.334	1057.292	852.169
48.242	21.554	1056.750	852.728
49.257	21.665	1055.704	852.348
50.271	21.716	1055.318	852.213
51.286	21.624	1054.824	851.290
52.301	21.884	1053.791	851.641
53.315	21.815	1053.108	850.683
54.330	21.909	1052.116	850.259
55.344	21.798	1051.195	848.902
56.359	21.759	1050.344	847.952
57.374	21.800	1049.521	847.410
58.388	21.705	1048.315	845.905
59.403	21.460	1048.057	844.436
60.417	21.628	1046.928	844.261
61.432	21.534	1045.838	842.857
62.447	21.408	1045.772	842.121
63.461	21.554	1044.735	841.915
64.476	21.648	1044.006	841.706
65.490	21.658	1042.789	840.696
66.505	21.527	1041.754	839.159
67.520	21.506	1041.223	838.559
68.534	21.669	1040.837	838.952
69.549	21.654	1039.166	837.463
70.563	21.204	1038.194	834.455
71.578	21.193	1037.266	833.580
72.593	21.183	1036.363	832.733
73.607	21.077	1035.497	831.461
74.622	20.970	1034.571	830.134
75.636	21.344	1034.007	831.385
76.651	21.545	1033.043	831.491
77.666	21.372	1032.174	829.900
78.680	21.253	1031.329	828.580
79.695	21.196	1030.490	827.562
80.709	21.322	1030.490	828.089
81.724	21.507	1029.547	828.132
82.739	21.458	1028.319	826.842
83.753	21.511	1027.273	826.176
84.768	21.749	1026.668	826.737
85.782	21.979	1026.448	827.572
86.797	22.126	1025.656	827.553
87.812	22.096	1024.925	826.750
88.826	21.916	1023.783	824.908
89.841	21.962	1022.750	824.218
90.855	21.912	1022.433	823.658
91.870	22.033	1021.236	823.187
92.884	22.023	1020.279	822.293
93.899	21.900	1019.551	821.058
94.914	21.888	1018.388	819.995
95.928	22.029	1017.916	820.199
96.943	21.934	1016.785	818.776
97.957	21.684	1015.840	816.776
98.972	21.699	1014.337	815.564
99.987	21.345	1013.626	813.274
101.001	21.456	1013.041	813.251
102.016	21.624	1013.007	813.931
103.030	21.798	1011.449	813.416
104.045	21.560	1010.657	811.602
105.060	21.626	1008.887	810.414
106.074	21.383	1007.814	808.356
107.089	21.539	1006.836	808.222
108.103	21.838	1007.128	809.766
109.118	22.011	1005.626	809.281
110.133	21.653	1004.447	806.613
111.147	21.629	1003.380	805.576
112.162	21.554	1001.951	804.014
113.176	21.226	1001.140	801.787
114.191	21.358	1000.837	802.078
115.206	21.470	999.955	801.814
116.220	21.182	998.145	798.972
117.235	21.075	997.488	797.889
118.249	21.187	996.991	797.932
119.264	21.339	995.692	797.516
120.279	21.141	995.047	796.026
121.293	21.149	994.405	795.476
122.308	21.308	993.604	795.488
123.322	21.248	992.791	794.495
124.337	21.268	991.192	793.237
125.352	21.213	990.099	792.042
126.366	20.831	988.350	788.844
127.381	20.509	986.555	785.884
128.395	20.967	986.876	788.141
129.410	21.452	986.386	789.871
130.424	21.754	985.943	790.810
131.439	21.835	984.731	790.134
132.454	21.611	983.900	788.387
133.468	21.667	983.247	788.047
134.483	21.639	981.753	786.653
135.497	21.652	981.430	786.383
136.512	21.965	980.523	786.992
137.527	21.926	979.729	786.109
138.541	21.898	978.919	785.265
139.556	21.999	978.240	785.100
140.570	21.849	977.123	783.468
141.585	21.871	976.775	783.216
142.600	22.073	975.941	783.378
143.614	21.853	975.106	781.660
144.629	22.024	973.947	781.420
145.643	22.199	973.615	781.865
146.658	22.155	972.529	780.727
147.673	22.007	971.067	778.831
148.687	21.961	970.004	777.702
149.702	21.883	968.662	776.213
150.716	21.611	968.277	774.635
151.731	21.703	967.127	774.051
152.746	21.839	966.366	773.973
153.760	21.988	965.700	774.030
154.775	22.108	964.916	773.863
155.789	22.044	964.207	772.941
156.804	22.044	963.004	771.908
157.819	22.095	961.793	771.093
158.833	22.012	961.125	770.127
159.848	22.251	960.688	770.758
160.862	22.248	959.827	769.983
161.877	22.110	958.792	768.483
162.892	22.087	957.716	767.450
163.906	22.071	957.248	766.938
164.921	22.090	956.216	766.125
165.935	21.974	954.924	764.518
166.950	22.060	953.814	763.934
167.964	22.107	952.921	763.358
168.979	22.149	951.891	762.647
169.994	22.151	950.178	761.217
171.008	21.871	949.659	759.519
172.023	22.110	948.646	759.676
173.037	22.199	948.300	759.718
174.052	21.934	947.568	757.918
175.067	21.744	946.199	755.939
176.081	21.862	945.294	755.655
177.096	21.966	944.359	755.290
178.110	21.998	943.724	754.851
179.125	21.711	942.834	752.839
180.140	21.492	941.232	750.556
181.154	21.589	940.565	750.375
182.169	21.534	940.304	749.861
183.183	21.765	940.160	750.672
184.198	22.110	939.532	751.579
185.213	21.974	939.247	750.701
186.227	21.884	937.987	749.246
187.242	21.960	937.621	749.210
188.256	22.066	936.991	749.095
189.271	22.146	936.122	748.672
190.286	22.113	935.628	748.072
191.300	22.112	933.926	746.639
192.315	21.499	932.948	743.187
193.329	20.724	931.794	738.914
194.344	20.475	930.262	736.580
195.359	21.010	930.940	739.320
196.373	21.863	930.974	742.896
197.388	22.079	930.968	743.742
198.402	21.942	930.055	742.365
199.417	21.865	929.373	741.432
200.432	21.952	929.323	741.691
201.446	21.807	928.284	740.184
202.461	21.589	927.212	738.344
203.475	21.561	927.012	738.005
204.490	21.219	925.363	735.184
205.504	20.077	923.244	728.639
206.519	20.493	923.432	730.469
207.534	21.532	923.649	734.943
208.548	21.501	923.017	734.244
209.563	21.908	922.554	735.521
210.577	21.896	921.981	734.948
211.592	21.644	921.253	733.248
212.607	21.936	921.053	734.246
213.621	22.139	920.386	734.496
214.636	22.141	919.932	734.080
215.650	22.150	919.084	733.374
216.665	22.051	918.548	732.470
217.680	21.949	918.420	731.877
218.694	22.268	917.866	732.700
219.709	21.970	916.276	730.125
220.723	21.652	915.400	728.042
221.738	21.770	915.025	728.167
222.753	21.912	914.916	728.609
223.767	21.891	913.770	727.543
224.782	22.033	912.800	727.296
225.796	22.129	912.376	727.289
226.811	22.155	911.918	726.967
227.826	21.706	910.920	724.254
228.840	20.964	909.308	719.845
229.855	21.011	908.479	719.320
230.869	21.293	908.205	720.202
231.884	20.988	906.921	717.864
232.899	21.000	906.517	717.530
233.913	21.662	907.219	720.744
234.928	21.878	906.501	720.999
235.942	21.767	905.908	720.010
236.957	21.838	905.091	719.588
237.972	21.521	904.106	717.440
238.986	21.552	903.182	716.770
240.001	21.688	902.623	716.819
241.015	21.668	902.091	716.253
242.030	21.692	901.489	715.808
243.045	21.805	901.180	715.962
244.059	21.896	900.411	715.659
245.074	22.099	899.737	715.886
246.088	21.980	899.152	714.876
247.103	21.609	898.333	712.650
248.117	21.698	897.906	712.610
249.132	22.197	897.880	714.553
250.147	22.535	897.496	715.560
251.161	22.626	896.680	715.214
252.176	22.881	895.997	715.639
253.190	22.776	895.476	714.735
254.205	22.691	895.417	714.282
255.220	22.883	894.840	714.534
256.234	22.897	894.448	714.214
257.249	22.924	893.344	713.377
258.263	22.673	892.833	711.893
259.278	22.761	891.981	711.507
260.293	22.731	891.812	711.190
261.307	22.844	891.155	711.056
262.322	22.787	890.619	710.337
263.336	22.671	889.674	709.052
264.351	22.024	888.417	705.389
265.366	21.090	886.251	699.865
266.380	20.616	885.360	697.197
267.395	21.404	885.750	700.603
268.409	22.297	885.572	703.976
269.424	22.375	884.822	703.628
270.439	22.488	884.447	703.720
271.453	22.554	883.769	703.380
272.468	22.577	883.014	702.812
273.482	22.708	883.122	703.358
274.497	22.767	882.669	703.168
275.512	22.652	881.564	701.767
276.526	22.107	879.882	698.202
277.541	22.302	879.347	698.490
278.555	22.561	879.471	699.554
279.570	22.621	878.576	699.018
280.585	22.328	877.782	697.166
281.599	22.334	877.521	696.919
282.614	22.535	877.279	697.459
283.628	22.073	875.588	694.228
284.643	21.760	874.618	692.166
285.657	22.165	874.771	693.821
286.672	22.136	874.187	693.185
287.687	21.720	872.814	690.395
288.701	21.974	872.998	691.478
289.716	22.163	872.889	692.079
290.730	22.081	871.378	690.496
291.745	21.800	871.012	689.041
292.760	21.544	870.030	687.199
293.774	21.475	869.772	686.660
294.789	22.448	869.529	690.226
295.803	23.196	869.793	693.304
296.818	23.003	869.742	692.446
297.833	23.416	868.445	692.968
298.847	23.037	867.294	690.507
299.862	22.614	866.580	688.227
300.876	22.862	866.263	688.881
301.891	23.065	865.783	689.232
302.906	23.141	865.076	688.903
303.920	22.667	864.335	686.406
304.935	22.583	863.494	685.353
305.949	23.056	863.188	686.887
306.964	23.078	862.733	686.551
307.979	22.840	862.136	685.089
308.993	22.822	861.768	684.667
310.008	23.294	861.400	686.142
311.022	23.279	861.110	685.795
312.037	23.046	860.588	684.417
313.052	22.791	859.917	682.834
314.066	22.919	858.637	682.252
315.081	22.216	857.155	678.304
316.095	21.314	856.444	674.202
317.110	21.881	856.721	676.548
318.125	22.814	856.788	680.137
319.139	22.522	855.431	677.876
320.154	21.311	854.133	672.132
321.168	20.753	852.904	668.965
322.183	21.312	853.366	671.416
323.197	22.369	853.203	675.284
324.212	22.569	853.424	676.168
325.227	22.828	852.486	676.356
326.241	23.031	852.030	676.712
327.256	22.859	851.401	675.495
328.270	22.638	850.854	674.156
329.285	22.682	850.273	673.806
330.300	22.604	849.488	672.825
331.314	22.238	848.934	670.930
332.329	22.313	847.915	670.354
333.343	22.779	847.702	671.897
334.358	22.916	847.445	672.158
335.373	23.060	846.631	671.999
336.387	23.237	845.973	672.090
337.402	23.243	845.775	671.895
338.416	23.430	845.179	672.073
339.431	23.419	844.592	671.504
340.446	23.466	844.081	671.215
341.460	23.639	843.855	671.632
342.475	23.602	842.925	670.693
343.489	23.291	842.636	669.230
344.504	23.363	841.965	668.909
345.519	23.450	841.904	669.129
346.533	23.721	841.152	669.495
347.548	23.829	840.894	669.634
348.562	23.906	840.132	669.259
349.577	23.721	839.734	668.185
350.592	23.676	839.124	667.472
351.606	23.592	839.055	667.044
352.621	23.661	838.325	666.664
353.635	23.631	838.002	666.235
354.650	23.458	837.202	664.890
355.665	23.390	836.134	663.729
356.679	22.213	834.732	658.153
357.694	22.133	834.235	657.406
358.708	22.741	833.717	659.212
359.723	22.712	833.139	658.587
360.738	22.967	832.926	659.314
361.752	23.376	832.995	660.835
362.767	23.505	832.761	661.072
363.781	23.684	832.898	661.790
364.796	24.066	832.669	662.971
365.810	24.119	832.086	662.646
366.825	24.203	831.256	662.238
367.840	24.051	831.219	661.587
368.854	23.925	830.662	660.617
369.869	23.520	829.636	658.239
370.883	23.450	828.723	657.197
371.898	23.675	827.902	657.320
372.913	23.298	827.816	655.798
373.927	23.443	827.164	655.758
374.942	23.674	826.257	655.837
375.956	23.632	825.923	655.356
376.971	23.790	825.413	655.479
377.986	23.833	825.124	655.349
379.000	24.070	824.416	655.603
380.015	24.061	824.143	655.293
381.029	23.842	823.417	653.854
382.044	23.865	822.554	653.195
383.059	24.084	822.253	653.700
384.073	24.134	821.785	653.453
385.088	24.138	821.185	652.934
386.102	23.935	821.014	651.995
387.117	23.914	820.237	651.245
388.132	23.714	819.365	649.765
389.146	23.587	818.861	648.841
390.161	23.044	817.749	645.919
391.175	23.139	817.606	646.097
392.190	23.618	817.560	647.752
393.205	23.714	816.937	647.550
394.219	22.694	815.342	642.516
395.234	21.188	812.987	635.130
396.248	20.361	812.297	631.527
397.263	21.520	812.738	636.029
398.278	23.237	813.907	643.133
399.292	23.780	814.138	645.228
400.307	23.537	813.306	643.633
401.321	23.345	813.080	642.698
402.336	23.437	812.329	642.382
403.350	23.753	811.946	643.167
404.365	24.194	812.507	645.150
405.380	24.482	812.091	645.804
406.394	24.739	811.707	646.371
407.409	24.714	811.751	646.259
408.423	24.816	810.824	645.835
409.438	24.620	810.206	644.576
410.453	24.604	809.718	644.075
411.467	24.760	809.544	644.441
412.482	24.775	808.912	643.936
413.496	24.573	808.453	642.785
414.511	24.717	807.999	642.886
415.526	24.921	807.320	643.023
416.540	24.682	807.311	642.099
417.555	24.616	807.109	641.642
418.569	24.351	806.179	639.896
419.584	24.383	805.394	639.331
420.599	24.466	804.549	638.902
421.613	153.050	1364.656	1791.957
422.628	132.837	1446.296	1792.047
