DTS Sentinel unit serial number:	SN413079Multiplexer serial number:	ORYXHardware model number:	OX4-SRSoftware version number:	ORYX F/W v4.00 Oryx Data Collector v3.7.2.0data status	okinstallation	princeton_trtdifferential loss correction	single-endedforward channel	channel 3reverse channel	N/Adate	2019/09/11time	12:14:11forward acquisition time	60.00reverse acquisition time	0.00gamma	496.2192k internal	0.2294k external	0.2294temperature offset calibration	0.9934default loss term (dB/km)	0.3790temperature slope calibration	1.0000multiplexer offset coefficient	1.0000multiplexer slope coefficient	1.0000fibre end	0.00T internal ref (°C)	39.86T ext. ref 1 (°C)	0.20T ext. ref 2 (°C)	38.21length (m)	temperature (°C)	Stokes	anti-Stokes-747.200	-66.465	0.385	-0.156
-746.185	-28.930	-0.193	0.113
-745.171	-109.941	0.027	0.006
-744.156	-10.182	-0.281	0.191
-743.142	120.472	0.087	0.110
-742.127	347.878	-0.197	0.396
-741.112	-175.184	0.261	-0.007
-740.098	-200.000	0.026	0.166
-739.083	-200.000	0.016	-0.115
-738.069	109.076	0.087	-0.107
-737.054	-178.169	-0.328	0.008
-736.039	-32.442	0.085	0.048
-735.025	800.000	0.088	0.386
-734.010	-15.574	0.241	-0.157
-732.996	91.460	-0.286	-0.329
-731.981	800.000	0.050	0.171
-730.966	-200.000	0.011	-0.148
-729.952	-31.854	-0.241	-0.138
-728.937	795.411	0.124	0.350
-727.923	-158.994	0.277	-0.016
-726.908	-135.749	-0.520	-0.063
-725.894	35.017	-0.211	0.189
-724.879	-200.000	0.058	0.332
-723.864	-200.000	0.009	0.104
-722.850	34.997	0.205	-0.184
-721.835	63.647	0.179	-0.184
-720.821	-200.000	-0.013	-0.080
-719.806	-52.878	-0.200	-0.094
-718.791	-200.000	-0.035	0.203
-717.777	800.000	0.040	0.136
-716.762	290.533	0.147	0.273
-715.748	10.519	-0.111	0.086
-714.733	32.083	0.346	0.305
-713.718	800.000	-0.062	-0.237
-712.704	-200.000	0.002	-0.124
-711.689	161.783	-0.176	0.252
-710.675	172.964	0.182	-0.267
-709.660	61.993	0.110	-0.112
-708.645	529.738	-0.064	-0.154
-707.631	800.000	0.075	-0.325
-706.616	-44.438	0.181	-0.092
-705.602	-200.000	-0.003	-0.225
-704.587	-153.643	-0.139	-0.010
-703.572	-123.016	-0.354	0.058
-702.558	-44.915	-0.273	0.139
-701.543	419.764	-0.186	-0.406
-700.529	112.827	-0.054	0.066
-699.514	-38.226	0.282	-0.153
-698.499	168.945	-0.154	-0.225
-697.485	-200.000	0.049	-0.230
-696.470	60.675	-0.149	0.151
-695.456	-168.199	-0.052	0.002
-694.441	11.532	-0.133	0.104
-693.426	158.071	-0.109	0.155
-692.412	-61.337	0.280	-0.120
-691.397	231.162	-0.187	0.312
-690.383	-105.042	-0.272	-0.064
-689.368	800.000	-0.052	0.218
-688.354	800.000	0.065	-0.221
-687.339	-165.508	-0.026	0.001
-686.324	800.000	0.066	-0.245
-685.310	381.981	0.100	-0.209
-684.295	-200.000	-0.040	0.216
-683.281	19.643	0.335	-0.275
-682.266	800.000	-0.032	0.094
-681.251	27.247	0.063	-0.054
-680.237	157.920	-0.323	-0.457
-679.222	-200.000	0.028	-0.299
-678.208	-78.451	0.278	0.097
-677.193	-200.000	-0.026	-0.214
-676.178	-135.702	-0.243	-0.029
-675.164	167.910	-0.060	0.088
-674.149	-126.542	0.169	-0.026
-673.135	5.312	-0.147	-0.111
-672.120	-183.398	0.299	-0.005
-671.105	-66.919	0.219	0.088
-670.091	54.358	-0.036	0.035
-669.076	800.000	0.068	-0.263
-668.062	-156.051	0.091	-0.006
-667.047	-177.249	0.381	0.010
-666.032	-29.371	-0.275	0.160
-665.018	130.046	0.084	-0.110
-664.003	181.864	-0.101	-0.151
-662.989	-37.761	0.069	-0.037
-661.974	-181.194	0.071	-0.001
-660.959	-76.951	0.292	0.104
-659.945	252.381	0.092	0.161
-658.930	-53.559	-0.044	-0.021
-657.916	387.161	-0.206	0.435
-656.901	126.417	0.136	-0.176
-655.886	800.000	0.018	-0.053
-654.872	800.000	0.083	0.307
-653.857	800.000	-0.058	-0.199
-652.843	-149.879	0.172	-0.014
-651.828	-200.000	-0.026	0.167
-650.814	208.293	-0.108	0.172
-649.799	-200.000	0.037	-0.326
-648.784	-16.569	0.178	-0.115
-647.770	-112.076	-0.070	0.014
-646.755	11.519	-0.171	-0.134
-645.741	-140.628	0.069	-0.007
-644.726	171.079	-0.259	-0.378
-643.711	152.438	-0.102	-0.142
-642.697	-76.924	-0.141	0.050
-641.682	-124.895	-0.273	0.043
-640.668	-119.073	0.055	-0.010
-639.653	-137.376	-0.132	-0.015
-638.638	-47.070	0.114	-0.057
-637.624	-200.000	0.028	-0.320
-636.609	0.453	0.154	-0.112
-635.595	127.962	0.074	0.096
-634.580	-138.031	-0.024	-0.003
-633.565	456.498	-0.087	-0.197
-632.551	219.005	0.248	-0.404
-631.536	-200.000	0.003	-0.227
-630.522	-200.000	0.001	-0.263
-629.507	33.820	-0.055	-0.048
-628.492	-103.913	-0.112	-0.027
-627.478	204.142	0.219	0.345
-626.463	-31.741	-0.480	-0.274
-625.449	98.940	0.141	0.166
-624.434	-37.578	-0.125	0.068
-623.419	201.120	0.189	-0.296
-622.405	17.759	-0.169	0.137
-621.390	-200.000	-0.008	0.091
-620.376	800.000	-0.070	0.305
-619.361	513.304	-0.104	-0.246
-618.346	-149.427	0.252	0.020
-617.332	157.429	0.073	0.103
-616.317	66.783	-0.090	-0.094
-615.303	7.266	-0.148	-0.112
-614.288	728.739	0.079	-0.215
-613.273	-116.854	0.128	-0.024
-612.259	-144.500	0.136	-0.013
-611.244	376.863	-0.159	-0.331
-610.230	-9.419	0.276	-0.188
-609.215	800.000	-0.083	0.255
-608.201	-17.272	-0.096	0.062
-607.186	-200.000	-0.047	-0.311
-606.171	620.291	0.028	-0.071
-605.157	-200.000	0.181	0.001
-604.142	383.118	0.117	-0.244
-603.128	42.701	-0.207	-0.192
-602.113	-94.967	0.060	-0.016
-601.098	-200.000	0.047	-0.416
-600.084	800.000	0.047	-0.198
-599.069	-108.109	-0.068	0.015
-598.055	-141.783	-0.288	0.029
-597.040	264.550	-0.066	-0.116
-596.025	800.000	-0.053	0.201
-595.011	-140.256	0.050	-0.005
-593.996	-200.000	-0.009	-0.083
-592.982	169.248	-0.092	-0.133
-591.967	-159.578	-0.171	0.010
-590.952	5.727	-0.065	-0.049
-589.938	-36.566	-0.374	-0.204
-588.923	-200.000	-0.002	0.028
-587.909	-37.304	0.045	-0.025
-586.894	-40.489	0.126	-0.066
-585.879	-200.000	-0.005	-0.179
-584.865	15.470	0.316	0.252
-583.850	157.767	0.085	-0.119
-582.836	-88.820	-0.242	-0.073
-581.821	-94.227	-0.061	0.017
-580.806	560.897	-0.099	0.243
-579.792	-200.000	0.009	-0.141
-578.777	-200.000	-0.021	-0.225
-577.763	152.654	0.163	-0.226
-576.748	-39.120	0.133	-0.071
-575.733	-102.328	0.306	-0.075
-574.719	85.113	0.238	-0.266
-573.704	175.847	0.086	-0.127
-572.690	150.702	0.012	-0.017
-571.675	-200.000	-0.036	0.243
-570.661	80.950	-0.275	0.301
-569.646	-74.136	0.150	-0.055
-568.631	287.092	0.186	-0.341
-567.617	767.754	0.036	-0.100
-566.602	-53.676	-0.157	0.073
-565.588	252.540	0.097	0.167
-564.573	-122.159	0.217	0.036
-563.558	-138.102	0.383	0.043
-562.544	-63.582	-0.088	0.037
-561.529	800.000	0.027	-0.115
-560.515	-188.013	-0.144	-0.002
-559.500	-17.090	-0.257	0.165
-558.485	-61.387	-0.103	-0.044
-557.471	8.761	-0.106	-0.081
-556.456	-200.000	0.067	0.390
-555.442	-29.477	-0.101	-0.059
-554.427	195.236	0.135	0.209
-553.412	-200.000	0.017	-0.173
-552.398	-141.562	-0.253	0.026
-551.383	378.593	0.059	-0.123
-550.369	-132.629	-0.374	-0.049
-549.354	-141.622	-0.148	-0.015
-548.339	48.849	0.121	-0.115
-547.325	-200.000	-0.001	0.055
-546.310	-118.284	-0.436	-0.079
-545.296	-200.000	0.051	0.312
-544.281	725.660	0.038	0.103
-543.266	-200.000	0.011	-0.270
-542.252	-200.000	-0.057	-0.325
-541.237	501.813	-0.073	-0.172
-540.223	400.345	-0.042	0.089
-539.208	56.513	-0.115	-0.113
-538.193	63.103	-0.083	-0.084
-537.179	-4.427	-0.092	0.064
-536.164	13.081	0.060	-0.047
-535.150	-66.087	-0.179	0.073
-534.135	-200.000	-0.031	0.292
-533.121	-113.227	-0.166	-0.033
-532.106	-50.265	-0.336	-0.161
-531.091	-183.186	-0.132	0.002
-530.077	-37.351	0.121	0.066
-529.062	-60.427	-0.111	0.048
-528.048	645.727	-0.131	-0.338
-527.033	174.276	-0.082	-0.120
-526.018	800.000	-0.076	-0.275
-525.004	86.822	-0.225	-0.252
-523.989	-200.000	-0.006	-0.135
-522.975	-7.247	0.102	0.070
-521.960	-162.473	0.235	0.012
-520.945	-142.392	-0.120	0.012
-519.931	733.638	0.086	-0.233
-518.916	-92.622	-0.400	-0.114
-517.902	372.412	0.036	0.075
-516.887	800.000	0.026	0.088
-515.872	-166.188	-0.110	-0.005
-514.858	159.357	-0.114	0.161
-513.843	186.612	0.076	0.115
-512.829	689.074	0.116	-0.307
-511.814	499.157	0.097	-0.226
-510.799	-33.038	-0.438	-0.246
-509.785	104.629	-0.206	0.246
-508.770	86.261	-0.039	0.044
-507.756	436.827	-0.047	0.104
-506.741	30.170	-0.066	-0.057
-505.726	-200.000	0.037	0.212
-504.712	54.034	0.182	-0.178
-503.697	-200.000	-0.024	0.153
-502.683	-87.079	-0.080	0.025
-501.668	87.725	-0.171	-0.192
-500.653	91.055	0.106	0.120
-499.639	-61.369	0.201	0.086
-498.624	43.245	-0.240	0.222
-497.610	313.849	0.125	0.239
-496.595	800.000	0.109	-0.379
-495.581	-140.088	-0.189	0.020
-494.566	779.151	-0.072	0.200
-493.551	-52.180	-0.253	0.119
-492.537	-76.221	0.102	0.037
-491.522	66.728	0.107	0.110
-490.508	-29.128	0.137	-0.079
-489.493	-122.532	0.147	0.024
-488.478	197.782	-0.084	-0.131
-487.464	-17.039	-0.105	-0.067
-486.449	-200.000	0.006	0.264
-485.435	187.635	0.283	0.427
-484.420	92.131	0.059	-0.067
-483.405	-48.110	0.250	-0.122
-482.391	-155.075	0.206	-0.014
-481.376	-135.295	-0.118	-0.014
-480.362	-112.564	-0.336	0.068
-479.347	800.000	-0.079	0.252
-478.332	-40.410	0.210	0.110
-477.318	800.000	-0.065	0.268
-476.303	-48.971	0.077	0.037
-475.289	19.237	0.046	-0.037
-474.274	-48.839	0.140	-0.068
-473.259	-200.000	-0.001	-0.114
-472.245	3.975	-0.114	0.084
-471.230	67.390	0.234	-0.242
-470.216	488.181	0.094	-0.217
-469.201	-200.000	-0.039	-0.189
-468.186	236.831	0.047	0.079
-467.172	-51.187	0.031	0.015
-466.157	-35.826	-0.161	-0.088
-465.143	-115.655	-0.146	-0.028
-464.128	54.533	-0.150	0.147
-463.113	27.154	0.094	0.080
-462.099	-18.392	0.248	-0.157
-461.084	654.822	-0.022	-0.057
-460.070	-81.341	-0.376	-0.126
-459.055	258.440	-0.085	0.148
-458.040	711.005	0.069	-0.184
-457.026	800.000	0.036	0.160
-456.011	251.844	-0.258	0.445
-454.997	-63.380	0.207	-0.086
-453.982	-103.090	0.306	0.073
-452.968	156.752	0.201	0.281
-451.953	586.106	0.076	0.189
-450.938	-200.000	-0.010	-0.220
-449.924	-200.000	-0.040	-0.320
-448.909	8.720	-0.176	-0.134
-447.895	33.654	-0.011	-0.010
-446.880	-200.000	0.067	-0.329
-445.865	-71.402	0.101	-0.038
-444.851	-149.486	-0.483	-0.039
-443.836	-200.000	0.054	-0.269
-442.822	357.549	0.095	0.192
-441.807	91.656	0.134	0.153
-440.792	415.250	-0.055	-0.120
-439.778	-59.062	0.288	-0.126
-438.763	800.000	-0.127	0.399
-437.749	345.344	0.122	-0.242
-436.734	11.679	0.151	-0.117
-435.719	-128.354	0.149	-0.021
-434.705	179.295	0.057	0.084
-433.690	-88.298	-0.185	0.056
-432.676	11.982	0.152	-0.118
-431.661	456.938	-0.073	0.165
-430.646	89.563	0.084	0.095
-429.632	258.868	0.205	-0.357
-428.617	800.000	-0.040	0.155
-427.603	59.691	-0.194	0.194
-426.588	-200.000	-0.020	-0.255
-425.573	17.983	-0.266	-0.214
-424.559	-95.926	-0.394	-0.106
-423.544	-166.241	-0.271	0.012
-422.530	239.410	-0.070	-0.118
-421.515	-8.896	0.315	-0.213
-420.500	-77.374	0.160	0.056
-419.486	800.000	0.070	0.210
-418.471	468.441	0.141	0.320
-417.457	-200.000	-0.062	0.426
-416.442	175.464	-0.064	-0.094
-415.428	-165.820	-0.154	-0.007
-414.413	45.434	-0.084	0.078
-413.398	-200.000	-0.041	0.222
-412.384	251.362	-0.083	0.142
-411.369	-12.582	-0.048	0.032
-410.355	91.058	-0.194	0.219
-409.340	580.148	-0.105	0.259
-408.325	800.000	0.058	-0.238
-407.311	157.638	-0.019	0.026
-406.296	-200.000	-0.059	-0.460
-405.282	22.311	-0.327	-0.270
-404.267	-127.587	-0.258	-0.038
-403.252	-200.000	0.070	-0.519
-402.238	-70.437	-0.180	0.069
-401.223	61.061	0.117	-0.118
-400.209	-25.849	0.191	0.114
-399.194	-114.428	-0.153	-0.030
-398.179	150.554	-0.249	0.342
-397.165	-104.222	0.052	0.012
-396.150	22.904	-0.252	0.208
-395.136	-134.281	0.062	-0.008
-394.121	586.134	0.111	0.276
-393.106	380.063	-0.224	0.463
-392.092	73.833	0.318	-0.336
-391.077	113.489	0.107	0.131
-390.063	214.838	0.100	0.161
-389.048	-33.142	0.273	0.153
-388.033	-137.952	-0.287	0.032
-387.019	15.223	0.069	-0.054
-386.004	80.052	-0.188	0.204
-384.990	-5.121	0.184	-0.127
-383.975	-26.380	-0.124	-0.073
-382.960	-200.000	-0.030	-0.228
-381.946	-200.000	-0.040	0.241
-380.931	-85.302	0.084	-0.026
-379.917	247.076	0.066	-0.113
-378.902	98.988	-0.114	0.132
-377.888	49.047	-0.103	-0.098
-376.873	243.359	0.085	0.144
-375.858	176.747	0.181	-0.265
-374.844	-139.546	0.011	0.001
-373.829	-200.000	-0.002	0.069
-372.815	382.582	0.104	0.215
-371.800	-4.752	-0.157	-0.109
-370.785	66.420	-0.212	0.217
-369.771	383.530	0.073	0.152
-368.756	-106.044	-0.088	0.020
-367.742	-123.231	0.282	0.045
-366.727	47.227	-0.323	-0.303
-365.712	317.593	0.111	-0.211
-364.698	-50.748	0.388	0.184
-363.683	523.375	0.102	0.241
-362.669	21.369	-0.227	-0.186
-361.654	800.000	-0.058	-0.186
-360.639	-64.238	-0.313	-0.128
-359.625	95.386	-0.103	0.118
-358.610	-51.010	-0.088	-0.042
-357.596	-200.000	-0.074	-0.383
-356.581	-70.349	-0.080	-0.031
-355.566	-200.000	-0.065	0.569
-354.552	64.656	-0.260	-0.265
-353.537	348.664	0.039	0.078
-352.523	-196.315	-0.152	-0.001
-351.508	412.219	-0.064	0.137
-350.493	106.440	0.105	0.126
-349.479	-36.578	0.179	0.097
-348.464	-200.000	-0.002	0.042
-347.450	800.000	0.020	-0.085
-346.435	800.000	0.058	0.213
-345.420	-91.434	-0.465	-0.134
-344.406	-26.180	0.097	0.057
-343.391	-33.683	-0.430	0.239
-342.377	-91.900	-0.195	-0.056
-341.362	-200.000	0.013	0.062
-340.348	800.000	-0.128	0.384
-339.333	-81.553	-0.134	-0.044
-338.318	-121.229	-0.110	-0.019
-337.304	-88.329	-0.256	0.077
-336.289	-124.914	0.339	0.053
-335.275	199.271	0.075	-0.116
-334.260	-46.806	0.487	0.240
-333.245	24.497	0.151	0.126
-332.231	-200.000	0.028	0.249
-331.216	-200.000	-0.013	-0.149
-330.202	-16.851	-0.022	-0.014
-329.187	-200.000	0.015	-0.184
-328.172	-19.396	-0.110	-0.069
-327.158	-84.516	0.328	-0.104
-326.143	-80.615	0.320	-0.107
-325.129	51.724	-0.117	-0.112
-324.114	419.157	-0.100	0.214
-323.099	603.184	-0.075	-0.188
-322.085	-75.861	0.266	-0.095
-321.070	-150.787	0.267	0.020
-320.056	-110.518	0.241	0.050
-319.041	5.858	-0.070	0.052
-318.026	-121.547	0.156	0.026
-317.012	763.745	0.022	-0.059
-315.997	0.313	-0.082	0.059
-314.983	34.194	-0.215	-0.188
-313.968	-200.000	0.010	0.263
-312.953	-19.594	0.150	-0.093
-311.939	-139.727	0.082	-0.009
-310.924	800.000	0.063	-0.269
-309.910	-156.331	0.273	0.017
-308.895	2.820	0.028	-0.020
-307.880	126.116	0.041	0.052
-306.866	-200.000	-0.050	0.498
-305.851	-45.020	0.236	0.118
-304.837	-101.111	0.327	-0.081
-303.822	-200.000	0.043	-0.264
-302.807	-105.863	0.513	-0.116
-301.793	800.000	0.035	0.100
-300.778	288.884	0.108	-0.197
-299.764	51.773	0.053	-0.051
-298.749	-143.949	0.075	-0.007
-297.735	-200.000	0.009	-0.182
-296.720	-7.911	0.140	-0.095
-295.705	263.555	-0.063	0.109
-294.691	-69.468	-0.257	0.099
-293.676	-97.848	-0.098	0.025
-292.662	218.017	-0.023	0.037
-291.647	-200.000	0.019	0.153
-290.632	800.000	-0.095	0.359
-289.618	-200.000	-0.009	0.140
-288.603	-200.000	-0.089	0.416
-287.589	-51.257	0.352	-0.166
-286.574	238.739	-0.249	-0.416
-285.559	38.394	-0.056	0.050
-284.545	203.302	0.081	-0.126
-283.530	-200.000	0.069	0.420
-282.516	-200.000	-0.035	0.312
-281.501	-105.849	0.012	-0.003
-280.486	-56.288	0.180	-0.080
-279.472	-81.555	0.117	-0.038
-278.457	800.000	0.044	0.177
-277.443	-200.000	0.030	0.252
-276.428	17.273	0.163	-0.130
-275.413	-69.270	0.109	0.042
-274.399	266.645	0.166	0.291
-273.384	-53.142	-0.301	0.139
-272.370	14.576	0.148	-0.116
-271.355	60.148	0.176	0.175
-270.340	152.210	0.123	-0.168
-269.326	19.866	0.167	-0.135
-268.311	800.000	0.045	-0.129
-267.297	100.163	0.141	0.165
-266.282	344.811	-0.043	-0.084
-265.267	-200.000	-0.017	-0.238
-264.253	492.563	0.145	-0.333
-263.238	52.746	-0.246	0.236
-262.224	-0.377	-0.092	0.066
-261.209	-93.549	0.321	-0.089
-260.195	800.000	0.079	-0.268
-259.180	148.836	0.090	-0.122
-258.165	189.499	0.060	0.091
-257.151	24.065	0.065	0.053
-256.136	83.215	-0.098	0.107
-255.122	-131.106	-0.078	-0.010
-254.107	-99.796	0.091	0.023
-253.092	-134.144	0.251	0.031
-252.078	509.395	0.075	0.174
-251.063	-151.213	0.261	0.020
-250.049	-200.000	0.009	-0.077
-249.034	124.965	-0.133	0.168
-248.019	800.000	-0.055	-0.240
-247.005	-76.856	0.222	-0.078
-245.990	169.941	-0.107	0.154
-244.976	-42.836	0.342	0.175
-243.961	-200.000	0.004	-0.053
-242.946	-87.729	-0.151	-0.046
-241.932	-96.756	0.276	0.073
-240.917	-75.710	-0.203	0.072
-239.903	800.000	0.081	-0.311
-238.888	204.772	-0.143	0.222
-237.873	800.000	0.042	0.132
-236.859	154.729	0.172	-0.236
-235.844	800.000	0.022	-0.089
-234.830	-78.242	0.181	-0.062
-233.815	-200.000	0.005	-0.086
-232.800	451.655	-0.052	0.115
-231.786	-62.802	-0.270	0.112
-230.771	-103.124	-0.165	0.039
-229.757	-200.000	-0.008	0.045
-228.742	800.000	-0.104	-0.436
-227.727	39.291	-0.083	0.074
-226.713	178.686	-0.150	-0.219
-225.698	-200.000	-0.006	0.124
-224.684	-200.000	0.011	-0.157
-223.669	-200.000	0.033	0.264
-222.655	353.605	0.046	-0.092
-221.640	-48.619	0.307	-0.148
-220.625	-159.928	-0.133	0.007
-219.611	-200.000	-0.019	0.377
-218.596	-200.000	-0.015	0.093
-217.582	-19.367	-0.133	0.083
-216.567	355.637	-0.159	-0.317
-215.552	-33.641	-0.244	0.135
-214.538	-121.491	0.193	-0.032
-213.523	-200.000	0.002	-0.128
-212.509	-94.814	-0.092	0.025
-211.494	192.016	0.060	-0.091
-210.479	199.033	0.125	-0.193
-209.465	9.544	0.112	-0.085
-208.450	215.655	-0.056	0.089
-207.436	800.000	-0.053	0.227
-206.421	-81.404	-0.308	0.102
-205.406	-200.000	-0.276	-0.000
-204.392	-69.294	-0.157	0.060
-203.377	20.784	0.208	0.168
-202.363	-143.251	-0.249	-0.024
-201.348	-53.643	-0.128	0.058
-200.333	-121.377	-0.181	-0.030
-199.319	176.730	0.126	-0.183
-198.304	203.423	-0.133	-0.207
-197.290	800.000	0.089	-0.352
-196.275	180.949	0.074	0.109
-195.260	69.313	-0.219	-0.226
-194.246	186.421	-0.042	-0.063
-193.231	-200.000	0.077	0.792
-192.217	147.368	0.296	0.399
-191.202	-200.000	0.058	-0.453
-190.187	149.162	0.055	0.074
-189.173	200.856	0.090	0.138
-188.158	113.339	0.160	0.195
-187.144	-24.018	0.442	-0.264
-186.129	-153.075	-0.207	-0.015
-185.114	-93.391	-0.077	0.021
-184.100	800.000	-0.113	0.319
-183.085	55.979	-0.225	0.218
-182.071	-182.116	0.173	0.003
-181.056	800.000	0.025	-0.107
-180.042	-143.010	0.204	-0.020
-179.027	-66.866	0.047	0.019
-178.012	1.857	-0.217	0.156
-176.998	-100.939	0.070	0.017
-175.983	-106.224	0.270	0.060
-174.969	-34.502	0.188	0.103
-173.954	528.198	0.170	0.400
-172.939	-71.648	-0.124	0.046
-171.925	56.982	0.193	0.188
-170.910	126.171	0.196	0.248
-169.896	-181.769	-0.255	0.005
-168.881	301.744	-0.020	0.036
-167.866	121.604	-0.124	0.154
-166.852	25.738	0.257	0.214
-165.837	104.608	0.250	0.294
-164.823	113.600	-0.045	-0.055
-163.808	676.470	-0.056	0.147
-162.793	-200.000	-0.017	-0.108
-161.779	327.183	-0.029	-0.056
-160.764	-200.000	0.005	-0.036
-159.750	80.511	0.097	0.105
-158.735	-91.620	0.210	0.060
-157.720	550.742	-0.051	-0.123
-156.706	76.569	0.082	0.087
-155.691	-39.874	0.184	0.096
-154.677	800.000	0.101	0.405
-153.662	-152.478	-0.224	-0.016
-152.647	96.305	0.188	0.215
-151.633	800.000	-0.051	0.209
-150.618	-136.760	-0.465	-0.054
-149.604	29.966	0.094	-0.080
-148.589	-0.775	-0.218	0.155
-147.574	208.179	0.021	0.034
-146.560	-31.494	-0.188	-0.105
-145.545	165.641	-0.105	-0.148
-144.531	-131.041	0.211	0.028
-143.516	-129.490	0.219	0.030
-142.502	800.000	0.056	0.243
-141.487	-18.058	-0.279	0.174
-140.472	-116.673	0.188	-0.035
-139.458	-64.114	-0.406	0.165
-138.443	-125.702	0.119	-0.018
-137.429	126.605	0.123	-0.156
-136.414	-200.000	-0.039	0.216
-135.399	-70.047	-0.099	0.038
-134.385	25.746	0.157	-0.131
-133.370	67.320	-0.149	-0.152
-132.356	146.225	-0.091	0.122
-131.341	-48.138	0.154	0.074
-130.326	136.670	-0.304	-0.397
-129.312	-160.110	-0.383	-0.021
-128.297	-118.456	0.314	0.056
-127.283	133.610	-0.130	-0.168
-126.268	-124.733	-0.136	0.021
-125.253	800.000	-0.056	0.226
-124.239	-200.000	-0.061	-0.287
-123.224	-200.000	-0.010	-0.063
-122.210	-46.272	-0.268	0.132
-121.195	55.514	0.413	0.399
-120.180	-7.910	0.054	-0.036
-119.166	727.755	-0.052	-0.139
-118.151	-200.000	-0.026	0.439
-117.137	120.482	-0.129	-0.160
-116.122	532.575	0.094	0.223
-115.107	-122.649	-0.104	0.017
-114.093	-38.179	-0.155	-0.082
-113.078	800.000	0.008	-0.023
-112.064	-89.327	0.343	0.101
-111.049	57.806	0.134	-0.131
-110.034	111.802	0.168	0.202
-109.020	740.849	-0.076	-0.202
-108.005	-135.139	-0.123	0.015
-106.991	15.730	0.315	0.247
-105.976	-200.000	0.000	-0.170
-104.962	350.612	-0.074	0.146
-103.947	-89.699	-0.129	0.038
-102.932	-30.464	0.201	0.113
-101.918	25.305	0.205	0.170
-100.903	348.016	0.071	-0.139
-99.889	-169.686	0.256	0.009
-98.874	-57.249	0.387	0.170
-97.859	800.000	-0.064	0.193
-96.845	-200.000	-0.004	0.023
-95.830	574.722	0.078	-0.191
-94.816	34.161	0.198	0.172
-93.801	321.462	0.110	0.208
-92.786	182.474	0.191	-0.281
-91.772	25.945	-0.124	-0.103
-90.757	247.028	-0.159	0.267
-89.743	-164.473	-0.473	-0.021
-88.728	-29.941	-0.085	0.048
-87.713	-127.007	0.075	0.011
-86.699	-57.821	0.123	0.053
-85.684	89.651	-0.073	-0.081
-84.670	-106.164	-0.382	0.085
-83.655	-200.000	0.074	0.438
-82.640	-138.669	0.129	-0.014
-81.626	800.000	0.093	0.267
-80.611	457.594	-0.112	0.248
-79.597	77.356	-0.143	0.152
-78.582	-200.000	0.008	-0.107
-77.567	-200.000	-0.035	0.250
-76.553	-104.399	0.223	0.051
-75.538	9.040	0.168	0.127
-74.524	-144.556	0.284	0.026
-73.509	-35.938	-0.072	-0.039
-72.494	-200.000	0.001	0.032
-71.480	266.578	0.105	-0.182
-70.465	-200.000	0.016	0.168
-69.451	62.881	-0.136	-0.135
-68.436	-94.728	0.323	0.087
-67.422	-124.336	-0.017	0.003
-66.407	-200.000	-0.015	0.295
-65.392	199.290	-0.145	0.221
-64.378	260.657	0.163	0.281
-63.363	800.000	-0.026	-0.099
-62.349	5.989	-0.264	-0.195
-61.334	206.857	-0.540	-0.838
-60.319	47.886	0.314	0.292
-59.305	-200.000	-0.041	-0.786
-58.290	98.768	0.558	0.641
-57.276	351.829	0.639	1.259
-56.261	-200.000	75.526	488.467
-55.246	508.128	1343.742	3105.763
-54.232	143.372	2594.848	3438.681
-53.217	113.561	2270.289	2744.469
-52.203	50.380	1794.122	1688.045
-51.188	43.163	1593.307	1447.494
-50.173	40.591	1563.028	1401.780
-49.159	56.351	1599.212	1546.883
-48.144	61.918	1619.148	1605.781
-47.130	43.701	1583.216	1441.934
-46.115	40.220	1569.002	1404.286
-45.100	40.060	1565.381	1399.856
-44.086	40.001	1563.732	1397.912
-43.071	39.989	1561.157	1395.467
-42.057	39.903	1559.293	1393.137
-41.042	39.859	1557.937	1391.559
-40.027	39.875	1556.792	1390.594
-39.013	39.847	1555.213	1388.934
-37.998	39.805	1554.586	1388.025
-36.984	39.811	1553.858	1387.359
-35.969	39.824	1551.764	1385.524
-34.954	39.831	1550.432	1384.329
-33.940	39.847	1548.666	1382.812
-32.925	39.891	1547.382	1381.917
-31.911	39.838	1546.447	1380.659
-30.896	39.947	1544.858	1379.947
-29.881	39.926	1543.311	1378.363
-28.867	39.891	1542.301	1377.163
-27.852	39.974	1540.713	1376.266
-26.838	39.982	1538.761	1374.523
-25.823	39.973	1537.453	1373.240
-24.809	39.961	1535.672	1371.508
-23.794	39.858	1534.568	1369.753
-22.779	39.971	1533.389	1369.432
-21.765	39.983	1531.985	1368.208
-20.750	39.978	1530.733	1367.001
-19.736	40.004	1529.417	1365.950
-18.721	39.882	1528.483	1364.217
-17.706	39.929	1527.228	1363.370
-16.692	39.901	1526.135	1362.148
-15.677	39.783	1525.074	1360.331
-14.663	39.926	1524.233	1360.514
-13.648	39.865	1523.188	1359.109
-12.633	39.762	1522.156	1357.420
-11.619	39.702	1521.871	1356.702
-10.604	39.715	1520.539	1355.552
-9.590	39.765	1519.565	1354.969
-8.575	39.739	1518.531	1353.817
-7.560	39.862	1517.720	1353.881
-6.546	39.765	1516.909	1352.443
-5.531	39.735	1516.209	1351.561
-4.517	39.808	1515.201	1351.109
-3.502	39.805	1513.783	1349.766
-2.487	39.797	1512.465	1348.486
-1.473	39.778	1511.598	1347.527
-0.458	39.867	1510.189	1346.827
0.556	38.135	1501.695	1338.295
1.571	36.053	1474.316	1299.752
2.586	32.908	1411.416	1223.835
3.600	31.289	1327.148	1140.791
4.615	29.360	1278.137	1087.203
5.629	24.070	1217.563	1005.790
6.644	11.397	1122.001	860.358
7.659	1.762	1073.561	774.333
8.673	0.324	1067.542	762.655
9.688	0.274	1064.054	759.841
10.702	0.096	1062.951	758.090
11.717	0.116	1060.915	756.673
12.731	4.246	1067.430	782.111
13.746	15.683	1083.425	852.027
14.761	22.690	1091.938	894.306
15.775	22.517	1091.021	892.598
16.790	22.314	1090.243	890.854
17.804	22.168	1089.216	889.200
18.819	21.973	1088.459	887.517
19.834	22.132	1087.657	887.587
20.848	22.197	1087.142	887.414
21.863	22.270	1086.642	887.297
22.877	22.247	1086.030	886.604
23.892	22.189	1085.873	886.104
24.907	21.968	1085.203	884.365
25.921	22.042	1084.339	883.958
26.936	22.176	1083.497	883.865
27.950	22.160	1081.927	882.427
28.965	21.978	1081.573	881.147
29.980	22.016	1079.535	879.596
30.994	21.929	1077.832	877.696
32.009	22.103	1077.376	878.116
33.023	22.256	1076.866	878.391
34.038	22.048	1075.555	876.203
35.053	22.082	1074.523	875.458
36.067	22.002	1074.863	875.258
37.082	22.049	1073.821	874.566
38.096	22.066	1072.677	873.638
39.111	22.333	1072.174	874.478
40.126	22.389	1071.224	873.907
41.140	22.367	1069.669	872.452
42.155	22.037	1068.661	869.916
43.169	21.747	1067.265	867.268
44.184	21.807	1065.966	866.435
45.199	21.770	1065.303	865.635
46.213	21.799	1064.545	865.087
47.228	21.731	1063.365	863.713
48.242	21.994	1062.281	864.051
49.257	22.005	1061.686	863.547
50.271	22.076	1061.198	863.424
51.286	22.023	1060.773	862.738
52.301	22.201	1059.599	862.581
53.315	22.232	1058.729	861.950
54.330	22.223	1058.193	861.394
55.344	22.027	1057.327	859.653
56.359	22.203	1056.427	859.704
57.374	22.193	1055.898	859.152
58.388	21.961	1054.836	857.075
59.403	21.806	1053.844	855.441
60.417	21.934	1053.005	855.307
61.432	21.683	1052.353	853.476
62.447	21.827	1051.697	853.572
63.461	21.906	1051.103	853.396
64.476	21.959	1050.393	853.003
65.490	21.958	1049.227	851.975
66.505	21.755	1048.100	850.000
67.520	21.894	1046.910	849.635
68.534	22.027	1046.449	849.827
69.549	21.838	1045.723	848.250
70.563	21.524	1044.601	845.748
71.578	21.316	1043.889	844.090
72.593	21.505	1042.521	843.821
73.607	21.375	1041.552	842.336
74.622	21.289	1040.531	841.023
75.636	21.647	1039.732	842.023
76.651	21.741	1039.060	841.858
77.666	21.650	1038.217	840.664
78.680	21.538	1037.688	839.623
79.695	21.588	1036.766	839.043
80.709	21.611	1036.382	838.766
81.724	21.798	1035.173	838.610
82.739	21.718	1034.291	837.438
83.753	21.730	1033.597	836.861
84.768	21.925	1033.104	837.316
85.782	22.301	1032.499	838.544
86.797	22.336	1031.907	838.156
87.812	22.426	1031.240	837.967
88.826	22.188	1030.077	835.818
89.841	22.345	1029.038	835.646
90.855	22.429	1028.427	835.475
91.870	22.266	1028.022	834.297
92.884	22.455	1026.814	834.140
93.899	22.205	1025.980	832.207
94.914	22.127	1025.016	830.982
95.928	22.244	1024.579	831.107
96.943	22.414	1023.428	830.902
97.957	21.985	1022.424	827.990
98.972	21.752	1021.245	825.865
99.987	21.702	1019.711	824.316
101.001	21.687	1019.022	823.616
102.016	22.053	1018.725	825.024
103.030	22.120	1017.491	824.263
104.045	22.032	1016.672	823.116
105.060	21.765	1015.258	820.647
106.074	21.761	1013.859	819.426
107.089	21.708	1013.385	818.723
108.103	22.112	1013.191	820.380
109.118	22.305	1011.866	820.135
110.133	21.891	1011.098	817.509
111.147	21.921	1009.691	816.441
112.162	21.676	1009.103	814.755
113.176	21.511	1008.086	813.092
114.191	21.745	1006.473	812.806
115.206	21.773	1006.306	812.728
116.220	21.503	1004.752	810.151
117.235	21.524	1003.635	809.277
118.249	21.463	1003.682	808.962
119.264	21.716	1002.281	808.929
120.279	21.553	1001.699	807.634
121.293	21.413	1000.990	806.347
122.308	21.463	1000.337	805.978
123.322	21.685	999.060	805.901
124.337	21.699	997.782	804.864
125.352	21.560	996.874	803.423
126.366	20.978	995.315	799.425
127.381	20.774	993.690	797.116
128.395	21.233	993.449	798.951
129.410	21.995	993.092	802.078
130.424	22.022	992.641	801.768
131.439	22.078	991.314	800.878
132.454	22.130	990.180	800.130
133.468	22.104	989.456	799.355
134.483	21.984	988.764	798.181
135.497	22.043	988.057	797.804
136.512	22.335	987.283	798.437
137.527	22.353	986.722	797.991
138.541	22.339	986.079	797.338
139.556	22.319	985.370	796.605
140.570	22.296	984.464	795.699
141.585	22.260	983.606	794.770
142.600	22.400	982.767	794.655
143.614	22.310	981.590	793.227
144.629	22.373	980.661	792.690
145.643	22.642	980.207	793.465
146.658	22.520	979.210	792.039
147.673	22.394	977.885	790.332
148.687	22.206	976.894	788.618
149.702	22.161	975.814	787.473
150.716	22.032	974.967	786.144
151.731	22.120	973.735	785.471
152.746	22.075	973.217	784.786
153.760	22.265	972.917	785.323
154.775	22.396	971.784	784.919
155.789	22.460	970.907	784.427
156.804	22.503	969.530	783.436
157.819	22.331	968.897	782.094
158.833	22.271	968.440	781.387
159.848	22.441	967.369	781.210
160.862	22.563	966.663	781.111
161.877	22.602	965.229	780.054
162.892	22.250	964.781	778.068
163.906	22.409	964.564	778.527
164.921	22.499	962.979	777.575
165.935	22.373	961.654	775.883
166.950	22.368	960.839	775.134
167.964	22.431	959.616	774.357
168.979	22.280	959.440	773.480
169.994	22.327	957.722	772.234
171.008	22.120	957.079	770.737
172.023	22.319	956.151	770.793
173.037	22.350	955.369	770.233
174.052	22.315	954.293	769.144
175.067	22.138	953.239	767.452
176.081	22.119	952.464	766.681
177.096	22.169	951.557	766.099
178.110	22.180	950.995	765.625
179.125	22.027	949.942	764.044
180.140	21.732	948.511	761.545
181.154	21.635	948.241	760.841
182.169	21.828	947.885	761.324
183.183	21.964	947.405	761.463
184.198	22.430	947.054	763.131
185.213	22.338	946.355	762.104
186.227	22.213	945.309	760.654
187.242	22.373	944.970	761.005
188.256	22.325	944.431	760.297
189.271	22.388	943.196	759.508
190.286	22.529	942.726	759.669
191.300	22.385	941.496	757.991
192.315	21.709	940.667	754.348
193.329	21.330	938.601	750.995
194.344	20.710	937.916	747.716
195.359	21.288	938.008	750.208
196.373	22.158	938.177	754.011
197.388	22.455	937.738	754.864
198.402	22.330	937.068	753.724
199.417	22.253	936.752	753.072
200.432	22.276	936.631	753.005
201.446	22.085	935.541	751.247
202.461	21.766	934.922	749.320
203.475	21.863	934.045	748.962
204.490	21.563	932.695	746.537
205.504	20.443	930.646	740.063
206.519	20.810	930.191	741.198
207.534	21.566	931.176	745.134
208.548	21.985	929.914	745.839
209.563	22.111	930.455	746.744
210.577	22.169	929.477	746.139
211.592	22.003	928.360	744.474
212.607	22.238	928.629	745.621
213.621	22.520	928.023	746.262
214.636	22.498	926.688	745.028
215.650	22.434	926.639	744.652
216.665	22.341	925.972	743.658
217.680	22.375	925.338	743.228
218.694	22.516	924.914	743.417
219.709	22.047	923.932	740.582
220.723	21.802	922.466	738.311
221.738	22.111	922.310	739.421
222.753	22.167	922.130	739.445
223.767	22.237	920.937	738.720
224.782	22.413	920.620	739.140
225.796	22.503	919.928	738.892
226.811	22.660	919.011	738.753
227.826	22.218	918.167	736.155
228.840	21.395	916.605	731.400
229.855	21.353	915.945	730.629
230.869	21.607	915.716	731.443
231.884	21.112	914.772	728.561
232.899	21.313	914.298	728.955
233.913	22.062	914.446	732.133
234.928	22.254	914.098	732.591
235.942	22.173	913.316	731.560
236.957	22.241	912.627	731.228
237.972	21.995	911.760	729.444
238.986	21.719	911.258	727.835
240.001	22.054	910.117	728.247
241.015	22.025	909.588	727.641
242.030	21.952	908.875	726.702
243.045	22.259	908.165	727.342
244.059	22.344	907.918	727.429
245.074	22.498	907.297	727.505
246.088	22.405	906.193	726.170
247.103	22.074	905.374	724.084
248.117	21.962	905.273	723.480
249.132	22.401	905.398	725.325
250.147	22.809	905.178	726.766
251.161	23.043	903.898	726.632
252.176	23.096	904.070	726.927
253.190	23.094	903.052	726.035
254.205	23.135	902.709	725.861
255.220	23.299	902.099	725.983
256.234	23.424	901.440	725.900
257.249	23.195	900.943	724.498
258.263	23.079	900.004	723.202
259.278	23.168	899.159	722.822
260.293	23.232	899.062	722.944
261.307	23.266	898.513	722.574
262.322	23.137	897.875	721.472
263.336	23.077	897.280	720.686
264.351	22.583	895.655	717.307
265.366	21.396	894.031	711.118
266.380	20.961	892.983	708.454
267.395	21.797	893.269	712.017
268.409	22.605	893.347	715.296
269.424	22.766	892.337	715.074
270.439	22.761	891.900	714.640
271.453	23.027	891.489	715.327
272.468	22.895	890.860	714.223
273.482	23.085	890.900	714.963
274.497	23.320	889.916	715.056
275.512	23.047	888.824	713.014
276.526	22.465	887.457	709.511
277.541	22.602	887.158	709.760
278.555	23.190	886.672	711.675
279.570	22.957	885.954	710.099
280.585	22.697	885.277	708.451
281.599	22.714	884.925	708.173
282.614	22.769	884.898	708.310
283.628	22.437	883.311	705.650
284.643	22.069	882.195	703.219
285.657	22.563	882.476	705.358
286.672	22.464	881.599	704.201
287.687	21.814	881.176	701.201
288.701	22.141	880.968	702.283
289.716	22.668	880.354	703.835
290.730	22.124	879.868	701.212
291.745	22.152	878.761	700.379
292.760	22.028	877.804	699.060
293.774	21.997	876.901	698.157
294.789	22.818	877.588	701.909
295.803	23.379	877.954	704.369
296.818	23.405	877.409	703.971
297.833	23.576	876.804	704.106
298.847	23.310	875.678	702.084
299.862	22.916	874.746	699.713
300.876	23.062	874.463	700.004
301.891	23.468	874.133	701.283
302.906	23.546	873.220	700.798
303.920	23.049	872.063	697.845
304.935	22.964	871.423	696.935
305.949	23.222	871.653	698.077
306.964	23.436	870.796	698.172
307.979	23.191	870.231	696.690
308.993	23.203	869.367	695.985
310.008	23.371	869.534	696.720
311.022	23.699	868.852	697.399
312.037	23.531	868.413	696.326
313.052	23.292	867.815	694.847
314.066	23.243	866.700	693.701
315.081	22.662	864.976	689.985
316.095	21.756	863.816	685.460
317.110	22.267	864.361	687.829
318.125	22.880	864.864	690.565
319.139	22.839	863.591	689.330
320.154	21.661	861.852	683.286
321.168	21.227	860.460	680.433
322.183	21.839	861.122	683.282
323.197	22.638	861.252	686.437
324.212	23.060	860.770	687.633
325.227	23.068	860.648	687.504
326.241	23.301	860.187	687.983
327.256	23.095	859.719	686.748
328.270	23.068	858.618	685.704
329.285	22.975	857.977	684.771
330.300	22.812	857.460	683.664
331.314	22.745	856.437	682.530
332.329	22.677	856.111	681.946
333.343	23.203	855.205	683.196
334.358	23.375	855.573	684.093
335.373	23.303	855.140	683.409
336.387	23.468	854.243	683.265
337.402	23.657	853.768	683.552
338.416	23.768	853.770	683.922
339.431	23.681	852.982	682.894
340.446	23.742	852.453	682.645
341.460	23.902	852.139	682.949
342.475	23.905	851.889	682.700
343.489	23.687	850.835	680.957
344.504	23.801	849.865	680.559
345.519	23.877	850.299	681.137
346.533	24.167	849.478	681.528
347.548	24.278	849.042	681.544
348.562	24.319	848.314	681.055
349.577	24.249	847.927	680.416
350.592	24.070	847.733	679.517
351.606	23.993	847.286	678.805
352.621	24.126	846.423	678.562
353.635	24.090	845.687	677.773
354.650	24.022	845.306	677.151
355.665	23.592	844.173	674.549
356.679	22.640	842.805	669.781
357.694	22.530	842.200	668.825
358.708	23.188	842.295	671.336
359.723	23.160	841.463	670.509
360.738	23.167	841.226	670.286
361.752	23.510	841.377	671.648
362.767	23.798	840.797	672.213
363.781	24.076	840.640	673.082
364.796	24.399	840.384	674.038
365.810	24.309	840.172	673.468
366.825	24.605	839.651	674.108
367.840	24.435	839.436	673.234
368.854	24.301	838.448	671.877
369.869	23.740	837.953	669.305
370.883	23.854	837.038	668.947
371.898	23.908	836.195	668.417
372.913	23.943	835.390	667.845
373.927	23.725	835.113	666.744
374.942	23.829	834.525	666.608
375.956	23.965	833.824	666.499
376.971	24.067	833.658	666.689
377.986	24.173	833.055	666.542
379.000	24.548	832.472	667.419
380.015	24.636	831.876	667.212
381.029	24.242	831.475	665.361
382.044	24.369	830.841	665.267
383.059	24.571	830.034	665.317
384.073	24.515	829.455	664.586
385.088	24.407	829.172	663.896
386.102	24.576	828.668	664.064
387.117	24.326	827.942	662.494
388.132	24.227	827.559	661.760
389.146	24.083	826.542	660.356
390.161	23.416	825.376	656.895
391.175	23.493	825.431	657.165
392.190	24.094	825.243	659.182
393.205	24.140	825.169	659.233
394.219	23.247	823.284	654.373
395.234	21.673	821.113	646.782
396.248	20.765	819.860	642.388
397.263	21.832	820.372	646.668
398.278	23.548	821.934	654.176
399.292	23.995	822.199	655.980
400.307	23.802	821.573	654.711
401.321	23.760	820.841	653.913
402.336	23.842	820.159	653.614
403.350	24.066	820.466	654.626
404.365	24.459	820.420	655.975
405.380	24.780	820.127	656.864
406.394	24.887	820.249	657.294
407.409	25.300	819.536	658.181
408.423	25.133	818.988	657.069
409.438	25.058	818.242	656.139
410.453	25.176	817.644	656.031
411.467	25.144	817.671	655.879
412.482	25.070	816.873	654.910
413.496	25.054	816.416	654.428
414.511	25.088	816.318	654.415
415.526	25.177	815.926	654.368
416.540	25.236	815.503	654.185
417.555	25.203	814.478	653.187
418.569	24.869	813.989	651.520
419.584	24.833	813.518	650.956
420.599	24.809	812.947	650.354
421.613	95.059	1265.233	1390.628
422.628	81.732	1331.152	1390.752
