DTS Sentinel unit serial number:	SN413079Multiplexer serial number:	ORYXHardware model number:	OX4-SRSoftware version number:	ORYX F/W v4.00 Oryx Data Collector v3.7.2.0data status	okinstallation	princeton_trtdifferential loss correction	single-endedforward channel	channel 3reverse channel	N/Adate	2019/09/12time	06:30:10forward acquisition time	60.00reverse acquisition time	0.00gamma	496.2192k internal	0.2319k external	0.2319temperature offset calibration	1.0034default loss term (dB/km)	0.3790temperature slope calibration	1.0000multiplexer offset coefficient	1.0000multiplexer slope coefficient	1.0000fibre end	0.00T internal ref (°C)	32.14T ext. ref 1 (°C)	1.56T ext. ref 2 (°C)	27.32length (m)	temperature (°C)	Stokes	anti-Stokes-747.200	707.697	0.120	0.320
-746.185	75.410	-0.355	0.379
-745.171	-200.000	0.070	0.332
-744.156	793.568	-0.158	0.440
-743.142	467.564	0.154	0.350
-742.127	76.304	0.145	0.155
-741.112	677.075	0.099	0.259
-740.098	289.429	-0.086	0.159
-739.083	155.549	0.075	-0.104
-738.069	-61.407	0.231	-0.098
-737.054	70.864	0.083	0.087
-736.039	-32.252	-0.410	0.231
-735.025	-200.000	0.030	0.332
-734.010	-126.126	0.072	0.011
-732.996	653.123	-0.149	-0.387
-731.981	85.885	-0.268	-0.298
-730.966	-6.496	0.357	-0.246
-729.952	-200.000	-0.023	-0.103
-728.937	174.809	-0.039	0.057
-727.923	-0.442	0.086	0.062
-726.908	-132.354	-0.016	-0.002
-725.894	3.422	-0.107	-0.079
-724.879	800.000	-0.038	-0.154
-723.864	-71.189	-0.164	-0.062
-722.850	712.609	-0.065	0.174
-721.835	34.942	-0.138	-0.122
-720.821	94.529	-0.240	-0.276
-719.806	247.096	0.181	-0.309
-718.791	-105.566	-0.452	-0.104
-717.777	-18.423	-0.153	-0.096
-716.762	668.894	0.111	-0.290
-715.748	530.337	-0.092	0.219
-714.733	-200.000	-0.003	0.203
-713.718	800.000	-0.099	-0.293
-712.704	-44.053	-0.125	-0.064
-711.689	0.786	-0.206	0.149
-710.675	-188.222	-0.254	-0.003
-709.660	233.181	-0.114	-0.189
-708.645	-10.256	-0.083	0.055
-707.631	460.214	0.054	-0.122
-706.616	12.491	-0.243	-0.189
-705.602	108.289	-0.109	0.131
-704.587	-25.710	0.386	-0.230
-703.572	800.000	-0.122	-0.369
-702.558	68.831	-0.030	-0.032
-701.543	-65.123	0.149	0.061
-700.529	-79.823	0.335	0.114
-699.514	36.166	-0.256	-0.227
-698.499	48.520	-0.235	0.222
-697.485	44.250	-0.217	0.201
-696.470	-200.000	-0.054	-0.381
-695.456	108.171	0.133	0.161
-694.441	-60.477	-0.281	0.121
-693.426	286.970	-0.166	-0.303
-692.412	-43.141	0.204	-0.105
-691.397	549.778	0.083	0.201
-690.383	-200.000	0.050	0.244
-689.368	395.349	-0.064	-0.135
-688.354	218.296	-0.065	-0.105
-687.339	259.084	0.074	0.129
-686.324	-32.061	-0.087	0.049
-685.310	278.486	-0.045	-0.082
-684.295	-91.503	0.342	0.098
-683.281	-85.661	-0.317	0.099
-682.266	-97.013	-0.108	0.028
-681.251	-200.000	0.032	-0.288
-680.237	-30.716	0.220	-0.126
-679.222	-200.000	0.022	-0.283
-678.208	-200.000	0.010	-0.059
-677.193	-135.422	-0.317	-0.038
-676.178	109.811	0.120	-0.146
-675.164	-124.278	-0.237	-0.037
-674.149	-58.220	0.145	0.064
-673.135	176.070	0.141	-0.207
-672.120	434.394	0.120	0.262
-671.105	-200.000	0.003	0.109
-670.091	-141.956	-0.340	0.034
-669.076	-127.456	0.223	-0.033
-668.062	-163.615	-0.034	0.002
-667.047	-200.000	0.028	0.208
-666.032	31.313	-0.130	-0.112
-665.018	-1.143	0.146	0.104
-664.003	59.266	-0.116	0.115
-662.989	150.283	0.134	-0.184
-661.974	76.615	0.200	-0.214
-660.959	-137.329	-0.221	-0.025
-659.945	253.800	0.168	-0.289
-658.930	800.000	0.059	-0.192
-657.916	-169.716	0.150	0.005
-656.901	800.000	0.070	-0.205
-655.886	517.136	-0.130	-0.306
-654.872	72.553	-0.230	-0.242
-653.857	-54.622	0.346	-0.158
-652.843	-86.167	0.174	0.054
-651.828	131.840	0.048	-0.062
-650.814	83.257	-0.310	-0.340
-649.799	-200.000	0.009	-0.080
-648.784	320.070	-0.323	0.618
-647.770	90.218	-0.157	-0.177
-646.755	74.831	0.121	0.128
-645.741	-200.000	0.002	-0.220
-644.726	800.000	-0.051	-0.159
-643.711	365.620	0.029	-0.059
-642.697	272.473	0.083	0.148
-641.682	-200.000	-0.002	-0.036
-640.668	191.567	-0.199	-0.302
-639.653	0.609	0.183	-0.132
-638.638	164.803	-0.170	0.242
-637.624	-147.829	0.321	-0.027
-636.609	-2.806	0.285	-0.201
-635.595	-75.107	0.273	-0.098
-634.580	-15.146	0.030	0.020
-633.565	61.757	0.076	-0.076
-632.551	-87.132	0.144	0.044
-631.536	171.320	0.116	-0.168
-630.522	482.345	0.127	0.291
-629.507	-163.162	0.144	0.007
-628.492	26.898	-0.263	0.222
-627.478	164.971	0.088	0.126
-626.463	-200.000	0.001	-0.126
-625.449	-46.291	-0.081	-0.040
-624.434	48.991	-0.254	-0.240
-623.419	57.415	-0.162	-0.159
-622.405	333.292	0.103	-0.200
-621.390	-77.121	-0.171	-0.060
-620.376	-6.991	0.352	-0.240
-619.361	-85.708	0.172	0.054
-618.346	436.182	0.059	0.129
-617.332	-155.517	0.164	0.011
-616.317	800.000	0.102	-0.384
-615.303	-70.441	0.389	-0.148
-614.288	-53.269	-0.240	-0.111
-613.273	196.243	-0.029	-0.045
-612.259	-41.127	0.103	0.054
-611.244	-200.000	-0.043	0.353
-610.230	-200.000	0.047	0.328
-609.215	-200.000	0.032	0.277
-608.201	174.037	0.133	-0.194
-607.186	82.311	-0.221	-0.242
-606.171	-200.000	-0.012	-0.076
-605.157	-88.165	-0.105	0.032
-604.142	800.000	-0.068	0.292
-603.128	-112.262	0.162	0.033
-602.113	42.507	-0.139	0.127
-601.098	17.043	-0.270	0.215
-600.084	-19.853	0.280	-0.174
-599.069	-33.622	0.067	-0.037
-598.055	313.858	-0.174	-0.330
-597.040	22.069	-0.401	-0.329
-596.025	198.702	-0.120	0.185
-595.011	227.939	0.025	0.040
-593.996	362.659	-0.145	0.292
-592.982	-200.000	0.002	-0.083
-591.967	-62.523	0.234	0.098
-590.952	-200.000	-0.050	-0.300
-589.938	-200.000	0.001	-0.055
-588.923	800.000	0.140	0.409
-587.909	-10.539	-0.145	-0.097
-586.894	59.500	0.158	0.157
-585.879	-114.815	0.211	-0.041
-584.865	378.610	0.117	0.240
-583.850	141.235	-0.111	0.148
-582.836	139.978	-0.171	0.227
-581.821	27.258	0.137	-0.115
-580.806	12.916	-0.221	-0.172
-579.792	223.565	-0.070	0.114
-578.777	12.189	0.106	-0.082
-577.763	800.000	0.030	0.091
-576.748	-13.455	-0.127	-0.082
-575.733	764.040	0.151	-0.411
-574.719	-14.123	-0.150	-0.097
-573.704	-64.574	0.051	-0.021
-572.690	-200.000	-0.001	0.151
-571.675	67.521	-0.106	-0.108
-570.661	170.349	-0.164	0.236
-569.646	-91.824	-0.151	-0.043
-568.631	-21.700	-0.267	-0.163
-567.617	-200.000	0.003	-0.106
-566.602	-200.000	0.002	0.270
-565.588	587.755	-0.114	0.282
-564.573	-200.000	-0.063	-0.351
-563.558	542.636	0.061	0.147
-562.544	-22.317	-0.091	0.055
-561.529	-90.052	-0.447	0.131
-560.515	-107.792	0.202	-0.044
-559.500	513.006	0.054	0.126
-558.485	-200.000	0.047	-0.354
-557.471	800.000	0.076	-0.218
-556.456	23.311	-0.194	-0.160
-555.442	-200.000	0.017	0.113
-554.427	800.000	0.100	0.336
-553.412	124.147	-0.165	-0.208
-552.398	145.064	-0.079	-0.106
-551.383	-130.923	0.169	0.023
-550.369	115.046	0.093	-0.114
-549.354	155.387	0.130	-0.179
-548.339	-123.009	0.204	-0.033
-547.325	-43.429	0.063	0.032
-546.310	-200.000	0.014	-0.099
-545.296	-120.243	0.233	-0.040
-544.281	-85.454	-0.025	0.008
-543.266	-200.000	-0.077	0.384
-542.252	-42.584	0.230	0.118
-541.237	-200.000	0.017	0.100
-540.223	-9.489	0.220	0.147
-539.208	800.000	-0.092	0.342
-538.193	42.423	0.307	0.281
-537.179	125.804	0.274	0.347
-536.164	-200.000	-0.033	-0.164
-535.150	-146.878	0.289	0.025
-534.135	-141.703	-0.150	0.015
-533.121	-200.000	-0.212	-0.001
-532.106	-200.000	0.063	0.280
-531.091	393.255	-0.019	-0.040
-530.077	-200.000	0.005	0.114
-529.062	-39.280	0.209	0.110
-528.048	378.992	0.102	0.210
-527.033	-105.837	-0.365	0.083
-526.018	616.616	-0.148	0.373
-525.004	723.885	-0.021	-0.055
-523.989	-22.680	0.067	-0.040
-522.975	-200.000	0.059	0.370
-521.960	800.000	-0.091	0.301
-520.945	548.607	-0.043	0.102
-519.931	800.000	0.068	0.242
-518.916	-200.000	0.008	-0.214
-517.902	-46.919	-0.254	-0.125
-516.887	34.707	0.172	-0.151
-515.872	-94.043	-0.280	0.077
-514.858	81.506	-0.184	-0.200
-513.843	330.303	0.089	-0.172
-512.829	188.243	0.122	-0.183
-511.814	101.290	-0.221	-0.258
-510.799	-161.676	-0.224	-0.011
-509.785	-117.314	0.232	0.042
-508.770	66.965	-0.209	-0.213
-507.756	-69.633	0.383	0.147
-506.741	274.666	0.089	0.157
-505.726	-19.644	-0.243	0.151
-504.712	700.261	-0.091	-0.239
-503.697	47.828	0.135	-0.126
-502.683	-195.382	0.249	0.002
-501.668	800.000	0.048	-0.187
-500.653	-21.761	0.078	0.047
-499.639	-6.296	0.273	-0.186
-498.624	-98.906	-0.066	0.017
-497.610	-198.276	0.077	-0.000
-496.595	-51.298	-0.383	0.180
-495.581	85.075	-0.224	0.246
-494.566	-142.690	0.287	-0.028
-493.551	-140.774	-0.359	0.037
-492.537	51.330	0.277	0.263
-491.522	203.202	0.143	-0.221
-490.508	172.259	-0.057	-0.083
-489.493	-59.388	-0.182	-0.078
-488.478	31.329	-0.068	-0.059
-487.464	593.999	-0.145	-0.358
-486.449	800.000	-0.083	-0.240
-485.435	800.000	0.046	-0.184
-484.420	30.236	-0.080	-0.069
-483.405	-144.290	-0.181	-0.017
-482.391	-200.000	-0.014	-0.240
-481.376	-200.000	0.005	0.038
-480.362	-200.000	-0.020	0.176
-479.347	-140.964	-0.147	0.015
-478.332	-200.000	0.009	-0.271
-477.318	-113.403	0.111	0.022
-476.303	-200.000	-0.023	0.287
-475.289	341.490	-0.050	-0.098
-474.274	-89.141	0.213	-0.063
-473.259	-98.787	0.225	-0.057
-472.245	-200.000	-0.035	0.234
-471.230	800.000	0.072	-0.255
-470.216	-112.091	0.171	0.034
-469.201	800.000	0.083	0.331
-468.186	61.485	0.013	0.013
-467.172	-87.573	-0.140	-0.042
-466.157	-36.356	0.174	-0.094
-465.143	67.148	-0.190	-0.194
-464.128	-19.119	-0.072	0.045
-463.113	-183.851	0.219	-0.004
-462.099	549.246	-0.099	0.236
-461.084	800.000	0.076	0.301
-460.070	-168.919	-0.291	-0.011
-459.055	749.060	-0.038	-0.102
-458.040	131.146	0.096	-0.124
-457.026	-78.074	0.441	0.152
-456.011	-151.256	0.051	-0.004
-454.997	-11.926	0.041	-0.027
-453.982	-165.379	-0.056	-0.002
-452.968	-200.000	-0.012	-0.150
-451.953	-45.317	-0.081	0.040
-450.938	800.000	0.072	-0.201
-449.924	-16.471	-0.104	-0.066
-448.909	526.662	0.044	0.104
-447.895	-200.000	0.025	-0.164
-446.880	-91.381	0.123	-0.035
-445.865	800.000	-0.039	0.161
-444.851	58.303	-0.086	0.084
-443.836	206.377	0.077	-0.119
-442.822	334.086	-0.029	0.057
-441.807	-43.218	-0.133	-0.068
-440.792	97.638	-0.108	0.124
-439.778	-200.000	-0.016	0.142
-438.763	27.532	-0.129	-0.108
-437.749	-200.000	-0.040	-0.296
-436.734	-38.209	-0.036	0.019
-435.719	800.000	-0.093	-0.399
-434.705	28.175	0.255	0.215
-433.690	-200.000	-0.020	-0.189
-432.676	155.069	0.066	-0.091
-431.661	-25.293	-0.402	-0.238
-430.646	-200.000	0.037	0.275
-429.632	211.596	-0.073	0.115
-428.617	-143.785	-0.540	0.051
-427.603	800.000	0.104	0.397
-426.588	213.372	-0.093	-0.147
-425.573	-200.000	-0.012	0.182
-424.559	366.577	-0.227	-0.457
-423.544	-57.690	0.183	-0.080
-422.530	27.024	-0.165	0.138
-421.515	259.913	0.165	-0.285
-420.500	-200.000	0.001	0.273
-419.486	125.983	-0.078	0.098
-418.471	-45.706	0.103	0.051
-417.457	-157.857	0.347	-0.021
-416.442	800.000	0.019	-0.054
-415.428	21.807	-0.189	0.154
-414.413	200.182	-0.015	0.022
-413.398	-67.871	-0.113	-0.044
-412.384	21.436	0.141	-0.115
-411.369	-4.277	-0.471	0.326
-410.355	-28.334	-0.084	-0.048
-409.340	-200.000	-0.049	-0.216
-408.325	-200.000	0.127	0.000
-407.311	-46.770	-0.272	0.133
-406.296	120.135	0.106	0.131
-405.282	-3.028	-0.177	-0.123
-404.267	87.535	0.143	0.158
-403.252	-164.791	-0.220	0.010
-402.238	-123.548	0.213	0.034
-401.223	800.000	0.089	-0.267
-400.209	-200.000	0.009	0.185
-399.194	30.144	-0.044	0.038
-398.179	-32.305	-0.102	0.057
-397.165	800.000	0.116	0.368
-396.150	-11.084	-0.320	-0.211
-395.136	-200.000	-0.043	-0.433
-394.121	-200.000	-0.048	-0.374
-393.106	68.747	0.293	-0.301
-392.092	-76.104	-0.269	0.095
-391.077	-84.385	-0.181	0.057
-390.063	147.966	0.226	-0.304
-389.048	551.786	-0.099	-0.238
-388.033	-200.000	0.016	-0.127
-387.019	-114.427	-0.193	0.037
-386.004	-200.000	0.012	0.220
-384.990	800.000	0.025	-0.071
-383.975	-200.000	-0.090	0.398
-382.960	160.944	0.066	-0.092
-381.946	338.171	-0.154	-0.299
-380.931	-17.991	0.214	-0.134
-379.917	-65.314	-0.249	-0.100
-378.902	800.000	-0.072	0.253
-377.888	800.000	0.077	-0.290
-376.873	-200.000	0.069	-0.435
-375.858	88.278	-0.230	0.254
-374.844	-200.000	-0.011	0.194
-373.829	266.465	-0.158	-0.276
-372.815	527.108	0.185	0.435
-371.800	124.935	-0.209	0.262
-370.785	-200.000	-0.020	0.219
-369.771	256.938	-0.090	0.154
-368.756	252.122	0.082	0.139
-367.742	800.000	-0.028	0.086
-366.727	12.706	-0.162	0.125
-365.712	62.095	-0.253	-0.252
-364.698	-200.000	0.017	-0.365
-363.683	800.000	-0.080	-0.272
-362.669	183.660	0.137	-0.201
-361.654	-1.654	0.282	0.198
-360.639	144.202	0.030	-0.040
-359.625	126.050	-0.177	0.223
-358.610	2.701	0.142	0.103
-357.596	-37.025	-0.221	-0.118
-356.581	194.022	0.148	0.224
-355.566	-141.803	-0.147	0.015
-354.552	-200.000	0.036	0.201
-353.537	-90.951	-0.287	0.082
-352.523	85.749	-0.018	-0.019
-351.508	-109.603	0.294	0.062
-350.493	-96.491	0.341	-0.090
-349.479	-179.774	-0.373	-0.008
-348.464	125.646	-0.128	0.161
-347.450	-200.000	-0.019	0.157
-346.435	278.250	-0.025	0.045
-345.420	764.003	0.036	-0.098
-344.406	-59.760	-0.159	-0.068
-343.391	500.660	0.061	-0.140
-342.377	93.639	-0.256	0.289
-341.362	1.048	0.120	-0.085
-340.348	-136.551	0.215	0.025
-339.333	-200.000	-0.001	0.399
-338.318	42.486	0.189	-0.171
-337.304	-200.000	0.062	-0.318
-336.289	-200.000	0.000	0.084
-335.275	-200.000	-0.054	-0.269
-334.260	800.000	-0.112	-0.375
-333.245	-200.000	-0.009	-0.090
-332.231	287.456	-0.257	-0.463
-331.216	-108.694	0.271	0.058
-330.202	-29.953	-0.169	-0.096
-329.187	338.057	0.165	0.320
-328.172	-200.000	0.063	-0.476
-327.158	-190.930	-0.270	-0.003
-326.143	-37.428	-0.145	-0.077
-325.129	61.893	0.182	-0.181
-324.114	274.322	-0.100	-0.177
-323.099	-117.551	-0.315	-0.057
-322.085	41.860	-0.071	0.064
-321.070	800.000	-0.060	0.225
-320.056	137.521	0.092	-0.120
-319.041	265.835	-0.100	-0.174
-318.026	279.922	0.151	0.269
-317.012	-200.000	-0.004	0.146
-315.997	19.315	0.188	-0.150
-314.983	-200.000	0.008	0.071
-313.968	-200.000	0.082	0.407
-312.953	-118.347	0.176	0.031
-311.939	800.000	0.069	-0.239
-310.924	-115.591	-0.111	-0.021
-309.910	-200.000	-0.008	-0.071
-308.895	-200.000	0.059	-0.568
-307.880	-43.339	0.471	0.237
-306.866	-119.383	0.246	-0.043
-305.851	125.670	0.186	-0.234
-304.837	-200.000	-0.057	0.283
-303.822	336.188	-0.174	0.335
-302.807	48.899	0.223	0.208
-301.793	231.029	0.105	-0.171
-300.778	-159.559	-0.113	-0.006
-299.764	-76.279	0.215	0.075
-298.749	800.000	0.042	0.125
-297.735	800.000	0.010	0.030
-296.720	777.572	-0.104	0.282
-295.705	-200.000	0.018	-0.195
-294.691	-47.180	-0.084	0.040
-293.676	400.146	0.128	-0.268
-292.662	137.812	-0.087	-0.114
-291.647	-200.000	-0.011	0.164
-290.632	-77.988	0.289	-0.099
-289.618	-46.998	0.195	0.095
-288.603	-70.320	-0.164	-0.062
-287.589	12.789	-0.239	0.184
-286.574	73.736	-0.042	-0.043
-285.559	-87.438	-0.063	-0.019
-284.545	800.000	-0.029	0.121
-283.530	418.152	0.150	0.318
-282.516	800.000	-0.151	-0.458
-281.501	438.125	-0.102	0.221
-280.486	211.603	0.120	-0.188
-279.472	-133.550	0.133	-0.017
-278.457	-75.907	0.460	0.162
-277.443	-61.432	-0.241	-0.101
-276.428	318.763	-0.194	0.366
-275.413	538.040	-0.094	0.221
-274.399	21.830	0.018	0.015
-273.384	32.819	0.203	0.175
-272.370	508.605	0.113	0.261
-271.355	-10.037	0.076	0.050
-270.340	-33.575	-0.207	-0.113
-269.326	368.446	-0.107	-0.215
-268.311	-200.000	-0.008	-0.127
-267.297	41.636	0.151	-0.136
-266.282	-200.000	-0.018	-0.316
-265.267	-121.796	-0.296	0.049
-264.253	14.979	-0.214	0.166
-263.238	85.911	0.196	0.214
-262.224	34.166	-0.053	-0.046
-261.209	800.000	0.063	-0.195
-260.195	-200.000	0.014	-0.255
-259.180	253.700	-0.088	-0.148
-258.165	-29.593	0.438	0.248
-257.151	393.127	-0.172	-0.356
-256.136	-200.000	0.064	-0.301
-255.122	800.000	-0.066	0.256
-254.107	35.570	-0.150	0.131
-253.092	-200.000	0.012	-0.230
-252.078	87.020	0.281	-0.308
-251.063	-58.900	0.110	0.047
-250.049	-114.269	-0.259	0.050
-249.034	800.000	0.099	-0.388
-248.019	123.882	0.149	-0.185
-247.005	91.904	0.106	-0.119
-245.990	147.406	0.123	-0.164
-244.976	6.787	-0.326	-0.241
-243.961	-200.000	0.014	-0.218
-242.946	-9.638	-0.174	0.115
-241.932	32.255	0.157	-0.134
-240.917	11.285	-0.156	0.118
-239.903	-200.000	-0.006	0.153
-238.888	-66.521	-0.443	-0.174
-237.873	-121.237	-0.270	-0.045
-236.859	74.373	0.249	0.260
-235.844	-11.996	-0.105	0.068
-234.830	-21.142	-0.208	-0.126
-233.815	-200.000	-0.027	0.130
-232.800	424.535	0.089	-0.189
-231.786	-59.582	0.172	-0.073
-230.771	-200.000	-0.001	-0.234
-229.757	-23.155	0.210	0.125
-228.742	-129.596	-0.189	0.026
-227.727	-200.000	-0.032	0.208
-226.713	243.193	-0.016	0.027
-225.698	473.156	-0.096	0.214
-224.684	109.156	0.300	0.356
-223.669	-200.000	0.013	0.409
-222.655	-19.526	-0.108	0.066
-221.640	2.703	-0.201	-0.144
-220.625	334.117	0.116	0.223
-219.611	47.103	0.071	-0.066
-218.596	31.073	-0.066	-0.056
-217.582	-200.000	0.049	0.361
-216.567	-200.000	0.011	0.084
-215.552	800.000	-0.025	0.106
-214.538	50.037	-0.175	-0.163
-213.523	-200.000	-0.003	0.023
-212.509	-33.767	-0.198	0.108
-211.494	17.025	0.147	-0.115
-210.479	-200.000	-0.002	-0.115
-209.465	-200.000	-0.025	0.154
-208.450	800.000	0.097	0.338
-207.436	-200.000	-0.083	0.387
-206.421	-99.727	-0.353	-0.088
-205.406	-55.528	-0.387	-0.172
-204.392	17.788	0.138	0.108
-203.377	-200.000	0.022	0.251
-202.363	-88.626	-0.017	0.005
-201.348	-200.000	-0.003	0.257
-200.333	-100.596	0.418	-0.102
-199.319	-123.428	-0.259	0.041
-198.304	135.690	-0.168	0.216
-197.290	-105.276	-0.282	0.064
-196.275	800.000	0.045	-0.173
-195.260	-3.470	0.182	0.125
-194.246	50.723	0.079	-0.074
-193.231	-200.000	0.010	-0.117
-192.217	221.458	-0.083	0.133
-191.202	36.858	0.088	-0.077
-190.187	-74.064	-0.198	0.071
-189.173	-96.435	0.158	-0.041
-188.158	85.883	-0.228	0.248
-187.144	-162.868	-0.148	0.007
-186.129	467.331	-0.137	-0.303
-185.114	800.000	0.081	-0.298
-184.100	-200.000	-0.049	0.284
-183.085	690.007	0.067	0.173
-182.071	302.351	-0.113	-0.208
-181.056	-168.685	0.138	0.005
-180.042	-69.216	0.335	0.128
-179.027	-106.986	0.168	-0.037
-178.012	45.270	0.348	0.317
-176.998	800.000	0.060	-0.251
-175.983	800.000	0.054	-0.154
-174.969	-69.502	0.149	-0.056
-173.954	19.271	0.237	-0.189
-172.939	346.922	-0.100	0.195
-171.925	565.927	0.083	0.200
-170.910	507.288	-0.106	-0.244
-169.896	42.296	0.128	0.115
-168.881	497.603	0.103	0.234
-167.866	115.898	-0.197	0.239
-166.852	-109.963	0.173	0.036
-165.837	-200.000	0.034	-0.266
-164.823	117.677	-0.217	-0.264
-163.808	-167.862	0.181	-0.007
-162.793	800.000	-0.032	0.098
-161.779	-200.000	-0.007	0.056
-160.764	-104.017	0.203	-0.047
-159.750	-0.140	0.131	-0.092
-158.735	-75.882	0.111	-0.039
-157.720	-169.028	0.340	0.013
-156.706	-77.562	0.339	-0.116
-155.691	800.000	0.090	0.355
-154.677	64.777	0.199	-0.198
-153.662	175.602	-0.107	-0.153
-152.647	116.993	0.249	0.303
-151.633	-132.160	0.057	-0.007
-150.618	16.740	-0.235	0.184
-149.604	46.244	0.175	-0.160
-148.589	459.930	0.126	0.278
-147.574	2.584	-0.079	0.056
-146.560	566.351	0.156	0.374
-145.545	53.164	0.114	-0.108
-144.531	-11.584	0.069	0.045
-143.516	97.774	-0.293	-0.332
-142.502	23.782	-0.220	-0.179
-141.487	-200.000	-0.015	0.193
-140.472	-151.201	0.435	0.032
-139.458	-144.905	0.152	0.014
-138.443	71.083	0.189	-0.194
-137.429	209.891	0.065	0.101
-136.414	-20.836	0.163	-0.098
-135.399	35.603	-0.033	0.029
-134.385	-49.462	-0.138	0.065
-133.370	101.904	0.256	0.295
-132.356	45.639	0.194	-0.177
-131.341	-200.000	-0.005	0.198
-130.326	541.348	0.145	-0.342
-129.312	-200.000	0.019	0.353
-128.297	-25.299	-0.173	0.101
-127.283	586.091	0.126	-0.306
-126.268	-29.462	0.104	0.059
-125.253	-108.479	0.101	-0.021
-124.239	-200.000	-0.002	0.265
-123.224	-200.000	0.012	-0.200
-122.210	-10.396	0.456	-0.298
-121.195	143.036	-0.052	0.069
-120.180	800.000	-0.056	0.209
-119.166	-200.000	-0.014	0.214
-118.151	222.014	0.089	-0.142
-117.137	-200.000	0.000	-0.569
-116.122	88.795	-0.095	0.104
-115.107	25.179	-0.186	-0.153
-114.093	-200.000	-0.027	-0.222
-113.078	517.754	-0.224	0.517
-112.064	-69.909	-0.253	0.095
-111.049	23.851	0.192	0.156
-110.034	294.547	0.055	-0.098
-109.020	-200.000	-0.007	-0.056
-108.005	328.800	0.154	-0.291
-106.991	-72.944	0.125	0.045
-105.976	-81.732	0.366	0.118
-104.962	-84.197	0.227	0.071
-103.947	289.111	-0.109	0.195
-102.932	576.047	-0.105	-0.253
-101.918	197.842	0.109	-0.165
-100.903	-143.881	0.278	-0.026
-99.889	364.519	-0.028	-0.055
-98.874	-134.939	0.263	0.031
-97.859	-64.329	0.208	-0.083
-96.845	-39.622	-0.165	0.085
-95.830	7.994	-0.148	-0.110
-94.816	-168.387	0.057	0.002
-93.801	17.956	0.160	0.126
-92.786	-127.387	-0.193	0.028
-91.772	-20.118	-0.134	0.081
-90.757	-38.184	0.205	-0.107
-89.743	800.000	0.128	0.421
-88.728	-92.601	-0.113	0.031
-87.713	-55.189	0.486	0.215
-86.699	-91.710	0.163	0.046
-85.684	74.810	0.116	0.120
-84.670	233.707	0.025	-0.040
-83.655	-163.121	-0.247	0.012
-82.640	235.849	0.053	0.086
-81.626	545.861	0.074	0.174
-80.611	-200.000	0.004	0.022
-79.597	-79.629	-0.075	-0.025
-78.582	-200.000	-0.006	0.079
-77.567	396.208	-0.086	-0.176
-76.553	-200.000	0.023	0.342
-75.538	800.000	-0.085	-0.269
-74.524	-117.940	0.166	-0.029
-73.509	632.858	0.125	0.312
-72.494	-37.724	0.178	-0.093
-71.480	800.000	0.043	0.140
-70.465	41.777	0.092	-0.082
-69.451	800.000	-0.051	0.183
-68.436	243.160	-0.140	0.232
-67.422	-124.216	0.269	0.042
-66.407	-200.000	0.036	0.203
-65.392	219.227	0.155	0.244
-64.378	-200.000	0.060	-0.574
-63.363	800.000	0.007	0.021
-62.349	-44.184	-0.164	-0.081
-61.334	173.806	-0.637	-0.906
-60.319	-59.669	0.634	0.267
-59.305	-200.000	-0.223	-1.296
-58.290	242.447	0.741	1.222
-57.276	439.947	0.820	1.764
-56.261	-200.000	95.709	595.465
-55.246	566.404	1372.110	3277.859
-54.232	160.749	2550.743	3506.463
-53.217	112.192	2163.899	2575.353
-52.203	42.752	1708.533	1532.052
-51.188	35.221	1522.208	1313.546
-50.173	32.963	1495.415	1275.148
-49.159	52.037	1544.081	1447.925
-48.144	53.842	1562.107	1477.164
-47.130	35.512	1521.442	1314.669
-46.115	32.375	1507.094	1280.905
-45.100	32.227	1503.317	1276.637
-44.086	32.229	1501.885	1275.386
-43.071	32.200	1499.596	1273.194
-42.057	32.115	1498.115	1271.308
-41.042	32.212	1496.230	1270.317
-40.027	32.131	1495.190	1268.833
-39.013	32.034	1494.103	1267.206
-37.998	32.106	1492.422	1266.216
-36.984	32.082	1491.548	1265.261
-35.969	32.145	1489.848	1264.195
-34.954	32.074	1488.707	1262.696
-33.940	32.210	1487.312	1262.380
-32.925	32.127	1486.139	1260.778
-31.911	32.257	1484.067	1259.842
-30.896	32.144	1483.304	1258.388
-29.881	32.183	1481.708	1257.239
-28.867	32.157	1480.591	1256.072
-27.852	32.264	1478.594	1255.040
-26.838	32.269	1477.132	1253.783
-25.823	32.220	1476.055	1252.497
-24.809	32.129	1474.525	1250.537
-23.794	32.259	1472.347	1249.505
-22.779	32.162	1471.330	1247.952
-21.765	32.231	1470.236	1247.432
-20.750	32.262	1468.949	1246.495
-19.736	32.236	1468.053	1245.512
-18.721	32.177	1466.744	1243.961
-17.706	32.189	1465.979	1243.346
-16.692	32.150	1464.852	1242.077
-15.677	32.045	1464.479	1241.018
-14.663	32.124	1463.413	1240.591
-13.648	32.193	1461.681	1239.527
-12.633	32.078	1461.263	1238.368
-11.619	32.011	1461.107	1237.738
-10.604	32.066	1459.243	1236.475
-9.590	32.087	1458.340	1235.800
-8.575	32.139	1457.232	1235.153
-7.560	32.033	1456.904	1234.130
-6.546	32.069	1456.131	1233.666
-5.531	32.110	1455.361	1233.229
-4.517	32.058	1454.023	1231.704
-3.502	32.045	1452.454	1230.243
-2.487	32.025	1451.677	1229.404
-1.473	32.015	1451.021	1228.736
-0.458	32.123	1449.247	1227.889
0.556	31.979	1440.203	1217.002
1.571	29.189	1414.713	1177.546
2.586	25.869	1358.511	1110.254
3.600	24.292	1278.987	1036.012
4.615	22.980	1232.640	991.029
5.629	19.169	1174.441	923.749
6.644	9.742	1087.845	808.508
7.659	2.661	1046.811	743.686
8.673	1.809	1041.260	735.565
9.688	1.505	1038.567	732.136
10.702	1.506	1036.438	730.574
11.717	1.421	1034.493	728.731
12.731	4.287	1037.806	744.778
13.746	13.746	1051.847	800.634
14.761	22.002	1062.463	848.727
15.775	24.733	1064.633	863.596
16.790	25.098	1064.562	865.225
17.804	24.732	1063.455	862.484
18.819	24.712	1063.184	862.089
19.834	24.680	1062.849	861.586
20.848	24.792	1062.400	861.688
21.863	25.006	1061.747	862.110
22.877	25.021	1060.913	861.428
23.892	24.904	1060.312	860.300
24.907	24.931	1059.754	859.902
25.921	24.820	1059.277	858.906
26.936	24.761	1058.648	858.038
27.950	24.851	1057.298	857.299
28.965	24.831	1056.176	856.218
29.980	24.780	1054.595	854.617
30.994	24.714	1053.428	853.279
32.009	24.872	1052.666	853.343
33.023	25.026	1052.082	853.524
34.038	24.849	1050.520	851.340
35.053	24.729	1050.398	850.594
36.067	24.868	1049.366	850.344
37.082	24.857	1048.958	849.886
38.096	24.953	1047.787	849.321
39.111	25.078	1047.571	849.662
40.126	25.227	1046.539	849.453
41.140	25.086	1045.510	847.879
42.155	24.876	1043.693	845.340
43.169	24.469	1042.709	842.547
44.184	24.512	1041.735	841.887
45.199	24.606	1040.788	841.490
46.213	24.575	1039.811	840.478
47.228	24.454	1039.102	839.264
48.242	24.712	1038.259	839.720
49.257	24.707	1037.693	839.163
50.271	24.802	1036.895	838.890
51.286	25.027	1035.917	839.078
52.301	25.026	1035.631	838.766
53.315	25.008	1034.671	837.830
54.330	25.046	1033.864	837.283
55.344	24.886	1033.295	835.999
56.359	24.993	1032.119	835.474
57.374	24.891	1031.840	834.698
58.388	24.586	1030.828	832.385
59.403	24.599	1029.913	831.634
60.417	24.615	1029.152	831.017
61.432	24.470	1028.368	829.640
62.447	24.551	1027.489	829.233
63.461	24.589	1027.507	829.352
64.476	24.689	1026.585	828.996
65.490	24.605	1025.550	827.696
66.505	24.501	1024.442	826.251
67.520	24.620	1023.681	826.113
68.534	24.561	1023.713	825.794
69.549	24.572	1022.209	824.554
70.563	24.213	1020.751	821.654
71.578	24.022	1020.577	820.557
72.593	24.205	1019.292	820.298
73.607	24.210	1017.991	819.199
74.622	24.074	1017.327	817.968
75.636	24.320	1016.980	818.748
76.651	24.567	1015.774	818.836
77.666	24.412	1015.333	817.698
78.680	24.290	1014.172	816.131
79.695	24.372	1013.602	815.976
80.709	24.341	1013.548	815.717
81.724	24.560	1012.166	815.534
82.739	24.587	1011.345	814.921
83.753	24.475	1010.623	813.758
84.768	24.833	1010.126	814.918
85.782	25.238	1009.181	815.924
86.797	25.358	1008.590	815.921
87.812	25.218	1008.045	814.769
88.826	25.098	1007.090	813.385
89.841	25.126	1006.545	812.998
90.855	25.193	1005.576	812.448
91.870	25.194	1004.684	811.658
92.884	25.166	1003.743	810.700
93.899	25.005	1002.870	809.195
94.914	25.035	1002.045	808.592
95.928	25.210	1000.973	808.445
96.943	25.184	1000.112	807.564
97.957	24.898	999.173	805.446
98.972	24.619	998.041	803.207
99.987	24.359	997.127	801.233
101.001	24.590	996.453	801.659
102.016	24.778	995.946	802.023
103.030	24.891	994.812	801.545
104.045	24.707	993.995	799.991
105.060	24.675	992.835	798.845
106.074	24.499	991.947	797.274
107.089	24.637	990.622	796.752
108.103	24.781	990.654	797.351
109.118	24.980	989.762	797.448
110.133	24.685	988.438	794.999
111.147	24.652	987.841	794.302
112.162	24.392	986.428	791.940
113.176	24.303	985.629	790.833
114.191	24.276	985.297	790.381
115.206	24.523	983.928	790.303
116.220	24.356	982.827	788.612
117.235	24.107	981.996	786.774
118.249	24.265	981.406	786.932
119.264	24.311	981.004	786.741
120.279	24.292	979.824	785.641
121.293	24.154	979.141	784.416
122.308	24.342	978.235	784.450
123.322	24.211	977.670	783.351
124.337	24.244	976.312	782.338
125.352	24.315	974.872	781.427
126.366	23.825	973.566	778.165
127.381	23.444	972.334	775.444
128.395	24.009	972.112	777.670
129.410	24.637	971.985	780.240
130.424	24.898	971.405	780.847
131.439	24.879	970.387	779.877
132.454	24.819	969.632	778.938
133.468	24.917	968.725	778.567
134.483	24.548	968.326	776.572
135.497	24.699	967.183	776.244
136.512	24.992	966.865	777.194
137.527	25.075	965.904	776.712
138.541	24.945	965.149	775.470
139.556	25.028	964.245	775.034
140.570	24.975	963.603	774.224
141.585	25.036	962.964	773.905
142.600	25.136	961.871	773.387
143.614	25.049	961.092	772.319
144.629	25.166	960.375	772.176
145.643	25.242	959.994	772.129
146.658	25.240	958.814	771.104
147.673	25.024	957.557	769.099
148.687	24.915	956.603	767.796
149.702	24.911	955.356	766.711
150.716	24.686	954.661	765.121
151.731	24.731	953.596	764.395
152.746	24.789	953.028	764.120
153.760	24.983	952.356	764.340
154.775	25.121	951.604	764.255
155.789	25.135	950.762	763.571
156.804	25.284	949.520	763.143
157.819	25.191	948.540	761.891
158.833	25.216	947.911	761.422
159.848	25.190	947.576	760.978
160.862	25.272	946.538	760.424
161.877	25.220	945.571	759.359
162.892	25.172	944.522	758.247
163.906	25.187	943.985	757.812
164.921	25.197	943.203	757.160
165.935	25.179	941.678	755.791
166.950	25.173	941.037	755.186
167.964	25.075	940.393	754.189
168.979	25.125	939.141	753.331
169.994	25.185	938.088	752.672
171.008	24.993	937.088	750.996
172.023	25.102	936.352	750.796
173.037	25.251	935.804	750.913
174.052	25.106	934.587	749.265
175.067	24.883	933.712	747.568
176.081	24.900	932.941	746.954
177.096	24.912	932.234	746.371
178.110	24.989	931.093	745.712
179.125	24.811	930.165	744.165
180.140	24.473	929.339	742.034
181.154	24.687	928.292	742.018
182.169	24.766	927.994	742.040
183.183	24.943	927.740	742.510
184.198	25.268	927.425	743.536
185.213	25.163	926.568	742.351
186.227	25.062	926.110	741.501
187.242	25.080	925.976	741.402
188.256	25.221	925.269	741.350
189.271	25.325	924.009	740.706
190.286	25.236	923.928	740.206
191.300	25.115	922.974	738.878
192.315	24.536	921.577	735.311
193.329	23.855	919.882	731.097
194.344	23.421	918.829	728.410
195.359	23.972	919.464	731.115
196.373	24.918	919.494	734.961
197.388	25.174	919.203	735.714
198.402	24.981	919.011	734.703
199.417	24.970	918.303	734.026
200.432	25.179	917.429	734.117
201.446	24.922	916.799	732.495
202.461	24.710	915.863	730.820
203.475	24.793	915.379	730.707
204.490	24.419	913.648	727.736
205.504	23.190	912.061	721.398
206.519	23.578	911.682	722.617
207.534	24.513	912.257	726.818
208.548	24.620	911.543	726.616
209.563	25.018	911.522	728.154
210.577	25.004	910.882	727.524
211.592	24.705	909.945	725.496
212.607	25.138	909.967	727.208
213.621	25.411	909.513	727.887
214.636	25.239	908.477	726.294
215.650	25.242	908.148	725.980
216.665	25.125	907.411	724.854
217.680	25.166	907.025	724.649
218.694	25.350	906.499	724.907
219.709	24.991	905.433	722.541
220.723	24.670	904.554	720.485
221.738	24.947	903.662	720.826
222.753	25.165	903.711	721.677
223.767	25.133	902.747	720.714
224.782	25.052	902.150	719.849
225.796	25.252	901.518	720.084
226.811	25.341	901.011	719.971
227.826	24.933	900.121	717.561
228.840	24.297	897.946	713.223
229.855	24.072	897.895	712.217
230.869	24.351	897.648	713.073
231.884	24.000	896.733	710.882
232.899	23.990	896.035	710.228
233.913	24.934	896.224	714.080
234.928	25.092	895.648	714.188
235.942	24.875	895.056	712.787
236.957	24.953	894.560	712.641
237.972	24.738	893.491	710.872
238.986	24.618	892.670	709.679
240.001	24.911	892.160	710.374
241.015	24.707	891.834	709.242
242.030	24.746	891.252	708.872
243.045	24.940	890.706	709.142
244.059	25.051	890.197	709.114
245.074	25.171	889.565	709.022
246.088	25.060	889.407	708.394
247.103	24.720	888.210	706.038
248.117	24.916	887.410	706.111
249.132	25.388	887.382	707.885
250.147	25.682	887.514	709.089
251.161	25.721	886.998	708.764
252.176	25.904	886.588	709.096
253.190	25.898	885.836	708.407
254.205	25.884	885.337	707.891
255.220	26.174	885.109	708.784
256.234	26.135	884.347	707.959
257.249	26.002	883.860	706.986
258.263	25.916	883.212	706.067
259.278	25.895	882.337	705.223
260.293	25.994	881.948	705.238
261.307	26.178	880.812	704.985
262.322	25.786	880.891	703.453
263.336	25.902	880.094	703.209
264.351	25.377	878.410	699.759
265.366	24.294	876.691	694.112
266.380	23.876	875.576	691.540
267.395	24.797	875.898	695.315
268.409	25.620	875.996	698.531
269.424	25.531	875.296	697.565
270.439	25.647	875.348	697.994
271.453	25.809	874.625	697.985
272.468	25.874	873.757	697.482
273.482	25.938	873.590	697.532
274.497	25.974	873.421	697.477
275.512	25.916	872.031	696.082
276.526	25.312	871.213	693.036
277.541	25.479	870.528	693.074
278.555	25.886	870.546	694.593
279.570	25.670	869.654	692.991
280.585	25.455	868.639	691.294
281.599	25.519	868.418	691.302
282.614	25.659	868.140	691.557
283.628	25.202	867.196	688.990
284.643	24.883	866.040	686.787
285.657	25.289	866.240	688.443
286.672	25.251	864.990	687.242
287.687	24.751	864.373	684.778
288.701	24.983	864.487	685.696
289.716	25.344	864.259	686.833
290.730	25.096	863.181	684.969
291.745	24.911	862.660	683.788
292.760	24.736	861.406	682.067
293.774	24.652	861.168	681.497
294.789	25.618	861.800	685.622
295.803	26.286	861.563	687.916
296.818	26.259	861.199	687.464
297.833	26.479	860.501	687.682
298.847	26.120	859.429	685.399
299.862	25.764	858.577	683.309
300.876	25.926	858.318	683.657
301.891	26.324	857.840	684.725
302.906	26.323	857.144	684.105
303.920	26.049	856.132	682.202
304.935	25.897	855.307	680.909
305.949	26.247	855.118	682.018
306.964	26.382	854.563	682.024
307.979	26.148	854.137	680.745
308.993	25.924	853.524	679.350
310.008	26.455	853.347	681.148
311.022	26.734	852.865	681.753
312.037	26.193	852.492	679.361
313.052	25.930	852.086	677.988
314.066	25.855	851.041	676.815
315.081	25.199	849.564	673.118
316.095	24.430	848.439	669.286
317.110	25.064	849.029	672.072
318.125	25.812	848.961	674.761
319.139	25.510	847.519	672.425
320.154	24.397	845.973	666.982
321.168	23.853	845.103	664.205
322.183	24.547	845.130	666.757
323.197	25.557	845.853	671.042
324.212	25.817	845.830	671.933
325.227	25.878	845.048	671.482
326.241	26.018	844.755	671.710
327.256	25.948	844.011	670.796
328.270	25.776	843.450	669.653
329.285	25.926	842.745	669.593
330.300	25.553	842.184	667.702
331.314	25.384	841.013	666.089
332.329	25.449	840.656	665.987
333.343	25.934	840.420	667.539
334.358	26.139	840.197	668.059
335.373	26.247	839.240	667.638
336.387	26.334	838.489	667.305
337.402	26.370	838.864	667.674
338.416	26.669	838.216	668.203
339.431	26.637	837.713	667.624
340.446	26.679	837.025	667.174
341.460	26.758	836.574	667.047
342.475	26.857	835.778	666.717
343.489	26.562	835.356	665.238
344.504	26.608	834.935	665.010
345.519	26.818	834.379	665.278
346.533	26.930	834.107	665.416
347.548	26.995	834.001	665.508
348.562	27.111	833.434	665.423
349.577	26.852	832.934	664.018
350.592	26.897	832.085	663.448
351.606	26.890	831.532	662.922
352.621	26.795	831.287	662.319
353.635	26.827	830.517	661.767
354.650	26.771	830.068	661.145
355.665	26.294	829.332	658.759
356.679	25.354	827.343	653.702
357.694	25.253	826.893	652.922
358.708	26.005	826.629	655.388
359.723	25.926	826.204	654.706
360.738	26.064	826.024	655.007
361.752	26.412	826.280	656.417
362.767	26.558	826.141	656.777
363.781	26.852	825.446	657.234
364.796	27.143	825.135	657.981
365.810	27.243	824.994	658.174
366.825	27.365	824.494	658.156
367.840	27.306	824.686	658.039
368.854	27.178	823.732	656.755
369.869	26.786	822.943	654.654
370.883	26.605	822.136	653.300
371.898	26.682	821.476	652.995
372.913	26.566	820.855	652.027
373.927	26.599	820.251	651.608
374.942	26.881	819.579	652.031
375.956	26.846	819.599	651.861
376.971	27.036	818.737	651.800
377.986	27.162	817.862	651.500
379.000	27.276	817.738	651.750
380.015	27.181	817.480	651.149
381.029	27.128	816.805	650.362
382.044	27.106	816.299	649.823
383.059	27.110	815.615	649.236
384.073	27.214	814.959	649.027
385.088	27.379	814.241	648.986
386.102	27.252	814.072	648.342
387.117	27.178	813.178	647.308
388.132	26.844	813.163	646.052
389.146	26.947	811.841	645.309
390.161	26.246	811.088	642.162
391.175	26.295	810.961	642.177
392.190	26.773	810.941	643.803
393.205	26.952	810.190	643.786
394.219	26.038	808.551	639.191
395.234	24.344	806.340	631.396
396.248	23.414	805.471	627.369
397.263	24.579	806.360	632.129
398.278	26.415	807.675	639.605
399.292	26.894	807.591	641.176
400.307	26.552	806.509	639.054
401.321	26.538	806.069	638.598
402.336	26.757	805.745	639.056
403.350	26.908	805.658	639.465
404.365	27.334	805.901	641.099
405.380	27.572	805.747	641.758
406.394	27.801	805.872	642.610
407.409	28.051	805.165	642.867
408.423	28.061	804.336	642.183
409.438	27.843	803.852	640.974
410.453	27.841	803.418	640.567
411.467	27.925	803.135	640.579
412.482	27.785	802.906	639.846
413.496	28.018	802.027	639.905
414.511	28.021	801.848	639.717
415.526	27.941	801.265	638.916
416.540	28.036	801.074	639.040
417.555	27.950	800.337	638.094
418.569	27.746	799.850	636.939
419.584	27.667	799.017	635.942
420.599	27.614	798.735	635.477
421.613	109.952	1286.007	1458.483
422.628	94.740	1356.986	1458.593
