DTS Sentinel unit serial number:	SN413079Multiplexer serial number:	ORYXHardware model number:	OX4-SRSoftware version number:	ORYX F/W v4.00 Oryx Data Collector v3.7.2.0data status	okinstallation	princeton_trtdifferential loss correction	single-endedforward channel	channel 4reverse channel	N/Adate	2019/09/15time	19:09:35forward acquisition time	60.00reverse acquisition time	0.00gamma	496.2192k internal	0.2291k external	0.2291temperature offset calibration	0.9920default loss term (dB/km)	0.3790temperature slope calibration	1.0000multiplexer offset coefficient	1.0000multiplexer slope coefficient	1.0000fibre end	0.00T internal ref (°C)	41.12T ext. ref 1 (°C)	7.11T ext. ref 2 (°C)	30.45length (m)	temperature (°C)	Stokes	anti-Stokes-747.200	304.581	0.179	0.341
-746.185	-32.625	0.176	-0.100
-745.171	800.000	-0.122	0.353
-744.156	-107.594	-0.240	0.054
-743.142	429.369	0.144	0.320
-742.127	-58.077	0.263	0.117
-741.112	800.000	-0.122	-0.416
-740.098	-116.770	0.242	0.045
-739.083	-200.000	0.006	0.148
-738.069	-5.422	-0.150	0.105
-737.054	86.849	0.128	-0.145
-736.039	-200.000	-0.005	-0.126
-735.025	-66.096	-0.157	0.064
-734.010	-48.065	-0.068	0.034
-732.996	-165.309	-0.152	0.007
-731.981	-142.190	0.009	0.001
-730.966	55.680	0.167	-0.166
-729.952	180.983	-0.229	-0.345
-728.937	211.321	0.085	-0.136
-727.923	-200.000	-0.086	-0.417
-726.908	-200.000	-0.050	-0.397
-725.894	494.421	0.097	0.227
-724.879	-3.928	0.144	-0.103
-723.864	-131.366	0.139	-0.019
-722.850	17.345	0.074	-0.060
-721.835	-108.983	-0.295	0.064
-720.821	-30.667	-0.155	-0.090
-719.806	-200.000	-0.018	0.102
-718.791	775.756	-0.084	0.234
-717.777	78.144	-0.028	0.031
-716.762	-94.514	-0.207	0.058
-715.748	-91.340	-0.162	0.047
-714.733	145.335	0.111	0.152
-713.718	95.355	-0.138	-0.160
-712.704	-46.544	-0.070	-0.035
-711.689	15.200	0.119	-0.095
-710.675	-80.006	0.353	-0.121
-709.660	-80.848	-0.181	0.061
-708.645	-177.946	0.261	-0.006
-707.631	800.000	-0.080	0.291
-706.616	800.000	0.081	0.250
-705.602	-70.104	-0.286	0.111
-704.587	-200.000	0.024	0.144
-703.572	21.282	0.400	-0.332
-702.558	-83.690	0.137	0.045
-701.543	-29.356	-0.209	0.123
-700.529	734.409	-0.026	0.071
-699.514	-110.781	-0.243	0.051
-698.499	-10.614	-0.174	0.118
-697.485	-126.582	-0.234	-0.035
-696.470	231.392	0.303	-0.507
-695.456	-200.000	-0.009	0.077
-694.441	-4.226	-0.186	0.132
-693.426	67.445	0.060	0.063
-692.412	-81.639	0.073	-0.025
-691.397	-171.308	-0.090	0.003
-690.383	-200.000	0.007	0.178
-689.368	172.023	-0.055	-0.081
-688.354	-200.000	-0.009	-0.210
-687.339	800.000	0.053	-0.194
-686.324	181.196	-0.132	0.198
-685.310	-19.316	-0.281	-0.178
-684.295	800.000	0.035	-0.116
-683.281	59.166	-0.319	-0.321
-682.266	800.000	-0.025	0.074
-681.251	-98.799	-0.132	-0.034
-680.237	-200.000	-0.003	0.111
-679.222	405.087	-0.098	-0.211
-678.208	48.112	-0.195	0.186
-677.193	-79.287	0.090	0.031
-676.178	488.552	-0.147	-0.343
-675.164	-200.000	-0.016	0.263
-674.149	-127.872	-0.134	-0.020
-673.135	-39.565	0.246	-0.132
-672.120	-149.324	0.206	-0.017
-671.105	509.575	-0.182	0.433
-670.091	43.628	-0.281	0.263
-669.076	-200.000	-0.116	0.000
-668.062	800.000	-0.078	0.299
-667.047	-115.664	0.067	0.013
-666.032	343.334	0.116	-0.232
-665.018	-16.811	-0.013	-0.008
-664.003	29.790	-0.139	-0.121
-662.989	245.210	-0.193	0.331
-661.974	-162.658	-0.172	0.009
-660.959	-200.000	-0.001	-0.084
-659.945	673.452	-0.047	-0.124
-658.930	24.244	-0.018	-0.015
-657.916	30.288	-0.088	-0.077
-656.901	800.000	-0.015	-0.048
-655.886	447.848	0.125	-0.281
-654.872	-100.642	-0.319	0.080
-653.857	-78.047	-0.285	0.100
-652.843	-39.174	0.093	0.050
-651.828	-48.306	0.198	-0.097
-650.814	-200.000	-0.010	0.144
-649.799	33.050	0.133	-0.117
-648.784	-55.504	-0.108	-0.049
-647.770	-23.196	-0.104	-0.064
-646.755	-64.353	-0.157	-0.065
-645.741	-194.819	0.280	-0.002
-644.726	-171.292	0.066	-0.002
-643.711	652.467	0.138	-0.362
-642.697	-200.000	-0.032	-0.455
-641.682	-107.140	-0.251	-0.056
-640.668	800.000	0.052	-0.215
-639.653	23.015	0.053	-0.045
-638.638	58.059	0.282	0.281
-637.624	-142.018	0.200	-0.020
-636.609	-63.792	0.264	-0.110
-635.595	-62.916	-0.244	-0.103
-634.580	-21.907	0.105	0.065
-633.565	-200.000	-0.034	0.345
-632.551	-0.873	-0.215	-0.155
-631.536	-69.360	-0.311	0.122
-630.522	250.361	0.020	-0.034
-629.507	-200.000	-0.013	-0.133
-628.492	-117.441	-0.066	0.012
-627.478	315.937	-0.131	-0.253
-626.463	800.000	-0.118	0.391
-625.449	-200.000	0.033	0.176
-624.434	-200.000	-0.052	0.280
-623.419	-88.635	-0.271	-0.082
-622.405	800.000	0.022	0.066
-621.390	-159.556	-0.351	-0.020
-620.376	36.129	-0.124	0.111
-619.361	-200.000	-0.028	-0.132
-618.346	800.000	-0.042	-0.165
-617.332	58.654	-0.197	0.197
-616.317	469.447	0.024	-0.056
-615.303	-172.770	0.117	0.004
-614.288	513.104	-0.062	0.146
-613.273	62.446	-0.099	0.101
-612.259	125.092	0.058	-0.074
-611.244	-146.015	-0.303	-0.027
-610.230	-145.823	0.265	0.024
-609.215	-42.610	0.229	-0.119
-608.201	-100.745	0.370	-0.093
-607.186	167.927	-0.076	-0.109
-606.171	219.942	0.181	-0.296
-605.157	800.000	-0.115	-0.330
-604.142	-58.047	-0.220	-0.098
-603.128	135.812	-0.039	-0.052
-602.113	165.202	0.319	-0.459
-601.098	-131.046	0.184	0.025
-600.084	-200.000	0.045	-0.250
-599.069	-106.712	0.247	0.056
-598.055	-88.730	0.206	-0.062
-597.040	-200.000	-0.014	0.238
-596.025	39.607	0.068	-0.062
-595.011	800.000	-0.008	-0.035
-593.996	-111.595	-0.399	-0.083
-592.982	-46.692	0.466	0.232
-591.967	649.220	-0.076	-0.198
-590.952	-98.979	0.200	-0.052
-589.938	-72.105	0.386	-0.146
-588.923	73.742	-0.050	-0.054
-587.909	635.683	0.122	0.316
-586.894	462.923	-0.186	0.423
-585.879	66.091	0.026	-0.027
-584.865	-200.000	0.013	-0.082
-583.850	-117.097	0.042	-0.008
-582.836	-86.448	-0.164	0.051
-581.821	6.655	0.031	-0.023
-580.806	-144.463	-0.127	-0.012
-579.792	14.321	-0.015	-0.012
-578.777	800.000	-0.035	-0.152
-577.763	83.909	0.172	-0.191
-576.748	-200.000	-0.022	0.202
-575.733	-200.000	0.008	0.111
-574.719	171.987	0.143	0.208
-573.704	569.385	0.176	-0.436
-572.690	-200.000	0.025	0.134
-571.675	146.321	0.278	0.380
-570.661	-68.714	-0.117	-0.046
-569.646	800.000	-0.054	-0.163
-568.631	-110.115	-0.084	0.018
-567.617	800.000	0.039	-0.152
-566.602	13.697	-0.129	-0.102
-565.588	-200.000	0.044	0.259
-564.573	639.806	-0.115	0.296
-563.558	94.547	0.122	0.141
-562.544	-200.000	-0.003	-0.127
-561.529	-200.000	-0.083	-0.424
-560.515	162.706	0.186	-0.265
-559.500	49.742	-0.066	0.063
-558.485	149.935	-0.174	0.240
-557.471	-107.991	0.300	-0.066
-556.456	-69.573	0.135	-0.053
-555.442	-9.332	-0.155	0.105
-554.427	-19.792	0.312	-0.196
-553.412	-79.946	0.285	-0.097
-552.398	-25.801	0.135	-0.081
-551.383	-102.515	0.343	-0.083
-550.369	-113.764	0.231	0.046
-549.354	39.816	-0.300	0.273
-548.339	-200.000	0.050	-0.230
-547.325	45.383	0.091	-0.085
-546.310	79.119	-0.055	-0.059
-545.296	194.132	0.118	0.182
-544.281	61.592	0.103	0.104
-543.266	16.525	-0.191	0.154
-542.252	-59.613	-0.167	0.073
-541.237	329.333	0.038	0.074
-540.223	-79.932	0.077	-0.026
-539.208	-87.012	0.155	0.048
-538.193	76.159	0.234	-0.252
-537.179	10.269	-0.149	-0.115
-536.164	-200.000	0.019	0.149
-535.150	-61.926	0.241	0.102
-534.135	38.030	-0.240	-0.216
-533.121	-200.000	-0.008	-0.114
-532.106	-95.215	-0.100	0.027
-531.091	331.852	0.049	-0.097
-530.077	-200.000	0.009	0.217
-529.062	-42.981	0.191	-0.098
-528.048	-44.299	0.174	0.089
-527.033	140.970	-0.136	-0.183
-526.018	-200.000	-0.020	0.108
-525.004	82.867	-0.128	-0.142
-523.989	-59.909	-0.281	0.122
-522.975	-99.904	0.368	0.093
-521.960	136.452	0.133	-0.176
-520.945	-200.000	0.005	0.053
-519.931	715.320	0.067	-0.181
-518.916	-46.863	0.310	0.154
-517.902	800.000	-0.020	0.072
-516.887	-107.022	0.214	0.048
-515.872	800.000	0.068	-0.220
-514.858	800.000	-0.029	0.096
-513.843	-65.684	-0.168	0.068
-512.829	-30.442	0.203	-0.117
-511.814	132.392	0.094	-0.123
-510.799	324.213	-0.166	0.321
-509.785	-32.915	-0.146	-0.082
-508.770	-89.370	-0.194	-0.058
-507.756	-200.000	0.010	0.104
-506.741	26.917	-0.216	-0.183
-505.726	-73.442	-0.056	0.021
-504.712	-26.752	-0.142	0.084
-503.697	-91.455	-0.198	0.057
-502.683	-51.760	0.349	0.165
-501.668	-200.000	0.013	0.247
-500.653	-178.915	-0.471	0.011
-499.639	45.607	0.173	-0.162
-498.624	-184.326	-0.153	-0.003
-497.610	-107.036	-0.269	0.060
-496.595	299.326	-0.047	-0.088
-495.581	69.533	0.139	-0.145
-494.566	291.183	-0.101	0.186
-493.551	-35.858	0.218	0.120
-492.537	-153.091	-0.308	0.022
-491.522	20.497	-0.152	-0.124
-490.508	-95.117	0.076	-0.021
-489.493	-56.895	0.152	0.068
-488.478	-33.142	0.174	0.098
-487.464	73.028	-0.039	0.042
-486.449	-170.569	0.266	-0.009
-485.435	-80.896	0.398	0.134
-484.420	-26.915	0.148	-0.087
-483.405	580.387	0.055	0.137
-482.391	-35.661	-0.230	-0.127
-481.376	39.545	0.067	0.061
-480.362	202.756	0.229	-0.359
-479.347	800.000	0.126	-0.491
-478.332	800.000	0.081	-0.282
-477.318	-27.618	-0.277	0.163
-476.303	303.274	0.139	-0.262
-475.289	214.130	-0.115	0.184
-474.274	273.066	-0.063	0.113
-473.259	800.000	-0.069	-0.199
-472.245	800.000	-0.031	-0.110
-471.230	-77.866	0.232	0.081
-470.216	249.671	0.031	-0.054
-469.201	-200.000	0.044	0.307
-468.186	800.000	0.053	0.211
-467.172	-200.000	0.035	-0.184
-466.157	-200.000	0.031	-0.170
-465.143	66.874	0.064	0.066
-464.128	300.676	0.034	0.063
-463.113	195.029	-0.089	0.137
-462.099	301.734	0.100	-0.187
-461.084	-158.531	0.353	-0.021
-460.070	62.059	-0.195	-0.197
-459.055	-90.572	-0.106	-0.031
-458.040	-124.480	-0.167	0.026
-457.026	17.309	0.173	0.139
-456.011	-67.726	0.052	0.021
-454.997	84.970	0.217	-0.241
-453.982	-67.316	-0.170	0.067
-452.968	68.393	0.069	0.072
-451.953	-125.047	-0.205	-0.032
-450.938	-111.639	0.144	-0.030
-449.924	331.704	-0.087	-0.171
-448.909	-101.928	0.089	0.022
-447.895	440.654	-0.151	0.334
-446.880	443.660	0.085	-0.188
-445.865	74.366	-0.113	0.120
-444.851	-127.298	-0.075	0.011
-443.836	-50.304	0.298	-0.142
-442.822	-83.651	-0.133	0.043
-441.807	-104.204	-0.215	-0.051
-440.792	-38.169	0.190	0.102
-439.778	-72.341	0.154	-0.058
-438.763	-141.951	0.169	-0.017
-437.749	257.497	0.124	0.215
-436.734	46.008	0.288	-0.270
-435.719	-200.000	-0.010	-0.098
-434.705	81.017	0.200	-0.218
-433.690	-200.000	-0.008	-0.121
-432.676	331.566	0.040	-0.078
-431.661	-200.000	0.028	-0.138
-430.646	-37.796	0.063	-0.034
-429.632	-200.000	0.035	0.195
-428.617	293.568	-0.059	-0.108
-427.603	374.966	0.104	-0.214
-426.588	137.350	-0.102	-0.135
-425.573	39.384	0.087	0.079
-424.559	-200.000	-0.048	-0.218
-423.544	18.430	-0.116	0.094
-422.530	226.575	-0.028	-0.045
-421.515	-200.000	0.020	0.256
-420.500	-82.820	0.035	-0.012
-419.486	-72.930	-0.194	0.072
-418.471	72.382	0.112	0.118
-417.457	-200.000	0.063	0.372
-416.442	343.821	0.066	-0.131
-415.428	174.744	0.152	0.222
-414.413	656.121	-0.085	-0.222
-413.398	-69.438	-0.187	-0.072
-412.384	303.708	-0.139	-0.261
-411.369	44.118	0.073	-0.068
-410.355	16.394	0.144	-0.115
-409.340	42.041	0.288	0.264
-408.325	-200.000	-0.095	-0.436
-407.311	-6.910	0.250	-0.172
-406.296	165.533	0.055	-0.078
-405.282	800.000	0.055	0.194
-404.267	507.460	0.145	0.339
-403.252	-200.000	-0.074	0.384
-402.238	-108.868	-0.314	-0.068
-401.223	-102.710	0.326	0.079
-400.209	152.446	-0.203	0.280
-399.194	800.000	-0.044	0.188
-398.179	575.992	0.072	0.177
-397.165	403.876	-0.004	-0.007
-396.150	-69.011	-0.144	-0.056
-395.136	-200.000	0.054	-0.513
-394.121	-200.000	-0.009	0.125
-393.106	467.560	-0.112	-0.253
-392.092	-26.153	0.151	0.090
-391.077	800.000	-0.037	-0.126
-390.063	187.332	-0.105	-0.159
-389.048	-63.874	0.320	0.132
-388.033	-125.648	0.116	0.018
-387.019	151.499	-0.232	0.318
-386.004	-24.074	0.204	-0.123
-384.990	800.000	0.081	-0.255
-383.975	298.401	0.099	0.184
-382.960	-139.214	0.122	0.013
-381.946	-200.000	-0.020	0.130
-380.931	-200.000	-0.001	0.166
-379.917	-19.119	-0.261	-0.164
-378.902	-47.619	0.206	-0.101
-377.888	34.686	-0.145	-0.128
-376.873	-200.000	-0.007	0.152
-375.858	34.224	-0.358	0.315
-374.844	-142.331	0.080	0.008
-373.829	-11.575	0.107	-0.071
-372.815	-123.529	-0.148	-0.024
-371.800	-4.258	0.239	0.167
-370.785	800.000	0.060	0.171
-369.771	-53.431	-0.198	-0.092
-368.756	625.709	0.139	0.353
-367.742	2.936	0.136	0.099
-366.727	-98.394	0.138	-0.036
-365.712	800.000	-0.107	0.319
-364.698	-200.000	-0.014	0.250
-363.683	-162.743	-0.351	-0.017
-362.669	71.410	-0.190	0.199
-361.654	483.649	0.094	0.216
-360.639	-14.589	-0.129	0.084
-359.625	752.100	0.058	-0.159
-358.610	-36.347	-0.211	-0.115
-357.596	-200.000	-0.021	0.188
-356.581	154.136	-0.073	-0.102
-355.566	404.874	0.238	-0.505
-354.552	0.742	-0.128	-0.092
-353.537	67.548	0.072	0.075
-352.523	800.000	0.036	-0.151
-351.508	800.000	-0.097	-0.295
-350.493	87.826	0.089	0.100
-349.479	800.000	0.053	0.203
-348.464	-200.000	-0.001	-0.255
-347.450	-200.000	-0.066	0.603
-346.435	280.291	-0.044	0.080
-345.420	800.000	-0.015	0.056
-344.406	-47.144	0.481	-0.236
-343.391	-200.000	0.028	-0.195
-342.377	-200.000	-0.070	-0.368
-341.362	-61.198	-0.130	-0.055
-340.348	451.067	0.068	-0.151
-339.333	-200.000	0.006	0.177
-338.318	23.068	-0.192	0.159
-337.304	586.609	-0.086	-0.213
-336.289	-200.000	0.034	-0.341
-335.275	34.845	-0.162	-0.143
-334.260	-21.637	0.111	-0.068
-333.245	51.062	-0.161	-0.154
-332.231	300.806	0.091	-0.170
-331.216	24.971	-0.250	0.209
-330.202	-69.490	-0.128	-0.050
-329.187	800.000	-0.117	0.355
-328.172	428.366	-0.165	0.359
-327.158	-18.080	0.187	0.118
-326.143	133.584	-0.023	0.030
-325.129	-48.374	0.079	-0.038
-324.114	-200.000	0.025	-0.175
-323.099	-121.788	-0.282	0.047
-322.085	-193.756	0.021	-0.000
-321.070	-50.157	0.158	0.075
-320.056	166.848	-0.043	0.061
-319.041	139.670	-0.183	0.243
-318.026	63.305	0.272	0.275
-317.012	-160.550	-0.356	0.019
-315.997	-200.000	-0.430	0.001
-314.983	-50.600	-0.458	-0.217
-313.968	-200.000	0.005	0.080
-312.953	-69.405	0.337	0.130
-311.939	-96.917	0.083	-0.022
-310.924	-161.517	-0.164	0.008
-309.910	-157.960	-0.227	0.013
-308.895	75.575	-0.169	-0.179
-307.880	359.928	-0.171	-0.344
-306.866	-3.932	-0.020	-0.014
-305.851	185.908	0.092	-0.138
-304.837	-200.000	0.021	0.103
-303.822	425.872	0.114	0.247
-302.807	143.387	0.156	0.209
-301.793	-109.001	0.101	-0.022
-300.778	62.924	-0.427	-0.430
-299.764	-104.295	0.134	0.031
-298.749	35.086	0.253	-0.223
-297.735	55.572	0.134	-0.131
-296.720	-200.000	-0.014	0.111
-295.705	-200.000	0.036	0.260
-294.691	52.928	0.404	-0.389
-293.676	11.738	-0.127	-0.098
-292.662	316.201	-0.214	-0.407
-291.647	-200.000	-0.019	0.198
-290.632	65.274	-0.084	0.085
-289.618	-85.627	-0.374	-0.117
-288.603	-200.000	-0.019	0.097
-287.589	-90.783	-0.087	0.025
-286.574	133.724	0.131	-0.171
-285.559	-187.133	-0.235	0.003
-284.545	129.748	0.109	-0.140
-283.530	-61.184	-0.090	-0.038
-282.516	518.892	0.074	-0.173
-281.501	261.082	0.076	-0.133
-280.486	652.886	0.066	-0.169
-279.472	429.999	0.082	-0.178
-278.457	-104.897	0.175	-0.040
-277.443	119.609	-0.056	-0.070
-276.428	90.945	-0.163	-0.183
-275.413	-134.374	-0.154	0.019
-274.399	-75.633	-0.340	-0.121
-273.384	-200.000	0.017	-0.203
-272.370	-200.000	-0.002	-0.092
-271.355	446.154	-0.076	0.169
-270.340	-200.000	0.029	0.186
-269.326	66.774	0.198	0.202
-268.311	-200.000	-0.021	-0.235
-267.297	800.000	0.109	-0.385
-266.282	-200.000	0.015	-0.235
-265.267	-3.419	0.301	-0.211
-264.253	13.602	-0.138	0.108
-263.238	184.165	0.100	-0.148
-262.224	-106.224	0.187	-0.042
-261.209	-1.947	-0.142	0.101
-260.195	729.791	-0.033	-0.089
-259.180	-27.493	-0.201	0.117
-258.165	800.000	-0.042	-0.171
-257.151	800.000	-0.036	-0.129
-256.136	-200.000	-0.008	-0.116
-255.122	-200.000	-0.011	0.067
-254.107	313.494	0.200	0.378
-253.092	76.747	-0.184	0.196
-252.078	753.743	-0.080	0.217
-251.063	47.632	-0.144	-0.135
-250.049	-181.937	0.451	0.009
-249.034	-79.153	-0.302	-0.103
-248.019	-80.923	-0.026	0.009
-247.005	419.275	-0.129	0.278
-245.990	109.437	0.159	0.192
-244.976	375.655	-0.103	-0.211
-243.961	-60.368	0.283	-0.121
-242.946	-200.000	-0.026	-0.177
-241.932	-151.408	-0.133	-0.010
-240.917	245.450	-0.177	0.298
-239.903	-200.000	-0.050	0.289
-238.888	681.456	-0.088	0.230
-237.873	159.601	-0.038	0.054
-236.859	-200.000	-0.027	-0.310
-235.844	66.225	0.167	0.170
-234.830	-200.000	0.030	0.164
-233.815	228.067	0.056	-0.092
-232.800	-146.185	0.217	0.019
-231.786	69.133	-0.166	-0.172
-230.771	-129.852	0.093	-0.013
-229.757	434.537	-0.106	-0.231
-228.742	22.715	-0.164	0.135
-227.727	-79.903	0.220	-0.074
-226.713	320.033	-0.120	0.229
-225.698	-2.866	0.136	-0.096
-224.684	41.469	-0.153	0.139
-223.669	800.000	-0.078	-0.263
-222.655	183.564	-0.179	0.266
-221.640	332.276	0.145	0.281
-220.625	-133.251	0.241	0.031
-219.611	168.525	0.093	-0.133
-218.596	-200.000	0.009	0.249
-217.582	198.232	-0.156	-0.239
-216.567	189.009	-0.237	-0.356
-215.552	-194.322	-0.202	0.002
-214.538	-35.143	0.093	0.051
-213.523	-200.000	-0.009	0.164
-212.509	-87.030	-0.005	-0.002
-211.494	715.515	-0.178	0.475
-210.479	375.216	-0.131	0.268
-209.465	417.952	-0.161	0.346
-208.450	-90.691	0.157	0.045
-207.436	151.237	0.100	-0.136
-206.421	41.032	-0.089	0.081
-205.406	-135.673	0.091	0.011
-204.392	-82.910	-0.127	0.041
-203.377	-200.000	0.018	-0.226
-202.363	98.967	-0.232	-0.269
-201.348	425.545	-0.087	0.188
-200.333	-135.276	-0.322	0.039
-199.319	23.284	-0.126	-0.103
-198.304	-200.000	-0.045	-0.229
-197.290	-115.172	-0.220	0.042
-196.275	37.830	0.038	-0.034
-195.260	800.000	-0.154	0.456
-194.246	8.951	-0.276	0.209
-193.231	-40.501	0.189	0.098
-192.217	-103.600	0.251	0.059
-191.202	-9.091	0.212	0.142
-190.187	800.000	-0.098	0.386
-189.173	-36.424	-0.153	-0.082
-188.158	108.929	0.154	-0.185
-187.144	-200.000	-0.052	0.287
-186.129	158.868	-0.115	-0.161
-185.114	13.775	0.117	-0.091
-184.100	-4.744	0.069	-0.048
-183.085	119.185	0.316	0.392
-182.071	-36.789	-0.255	-0.137
-181.056	-200.000	-0.023	0.173
-180.042	-50.583	-0.125	-0.059
-179.027	124.377	-0.217	-0.273
-178.012	-117.710	-0.061	0.011
-176.998	-126.913	0.185	0.027
-175.983	27.489	-0.011	0.009
-174.969	-200.000	-0.029	0.449
-173.954	37.274	-0.164	0.145
-172.939	-86.397	-0.445	0.137
-171.925	-168.353	-0.069	0.003
-170.910	-59.134	0.265	-0.114
-169.896	270.147	-0.096	0.169
-168.881	-80.177	0.322	-0.108
-167.866	-200.000	0.015	0.387
-166.852	20.599	-0.304	-0.246
-165.837	-107.304	0.150	0.033
-164.823	363.854	0.155	0.312
-163.808	36.779	-0.249	0.220
-162.793	-200.000	0.003	0.244
-161.779	50.024	-0.175	0.166
-160.764	119.838	0.119	0.147
-159.750	17.823	0.193	0.154
-158.735	-61.186	0.246	0.104
-157.720	214.172	-0.062	-0.098
-156.706	16.536	-0.260	0.205
-155.691	-200.000	-0.181	-0.000
-154.677	-156.493	-0.302	-0.019
-153.662	-198.164	0.147	0.001
-152.647	31.235	0.185	-0.159
-151.633	800.000	-0.039	0.136
-150.618	-27.828	-0.304	-0.176
-149.604	-104.916	0.285	-0.065
-148.589	127.000	-0.126	-0.160
-147.574	-97.029	-0.272	-0.071
-146.560	-78.094	-0.099	0.034
-145.545	-51.246	-0.182	0.085
-144.531	-116.156	0.149	0.028
-143.516	-200.000	-0.018	-0.083
-142.502	-200.000	0.013	0.168
-141.487	48.406	-0.069	0.065
-140.472	292.272	-0.207	-0.377
-139.458	197.484	0.169	-0.258
-138.443	19.422	0.309	-0.249
-137.429	-200.000	0.004	0.086
-136.414	-73.165	-0.367	-0.135
-135.399	45.615	0.113	-0.104
-134.385	594.877	0.044	-0.109
-133.370	800.000	-0.073	0.279
-132.356	-200.000	0.014	0.137
-131.341	381.848	0.079	-0.163
-130.326	152.038	0.039	0.054
-129.312	-200.000	-0.004	0.270
-128.297	254.873	0.219	0.374
-127.283	-130.046	-0.294	0.040
-126.268	-176.618	0.179	-0.005
-125.253	-200.000	-0.009	0.195
-124.239	-34.227	-0.271	0.149
-123.224	95.069	-0.328	0.373
-122.210	-91.550	0.041	0.012
-121.195	42.598	-0.269	-0.245
-120.180	-76.856	0.349	0.122
-119.166	-107.348	-0.236	0.052
-118.151	18.078	-0.194	0.155
-117.137	-200.000	-0.004	0.076
-116.122	519.062	0.079	0.184
-115.107	-200.000	0.041	-0.202
-114.093	758.239	0.107	0.290
-113.078	-25.990	0.132	-0.077
-112.064	69.621	0.171	0.176
-111.049	-79.549	-0.187	0.063
-110.034	161.177	-0.182	-0.254
-109.020	-200.000	-0.042	-0.266
-108.005	8.114	0.201	-0.151
-106.991	256.066	0.062	0.106
-105.976	683.424	0.044	0.115
-104.962	-179.474	0.536	-0.012
-103.947	266.293	0.085	-0.149
-102.932	-114.665	0.380	0.073
-101.918	-22.810	0.403	0.243
-100.903	403.046	-0.098	-0.206
-99.889	-2.332	-0.074	-0.052
-98.874	-200.000	0.012	-0.071
-97.859	-197.477	0.049	0.000
-96.845	55.557	0.090	-0.087
-95.830	800.000	-0.116	-0.331
-94.816	-17.681	-0.200	-0.126
-93.801	32.802	0.149	-0.129
-92.786	118.337	0.115	-0.141
-91.772	-113.961	-0.075	0.015
-90.757	0.202	-0.443	0.315
-89.743	50.765	0.120	-0.114
-88.728	-124.126	-0.346	0.054
-87.713	232.793	-0.242	0.396
-86.699	-114.710	0.326	0.062
-85.684	-48.457	-0.432	0.207
-84.670	-99.628	-0.263	-0.066
-83.655	-119.359	-0.068	0.012
-82.640	-120.219	0.144	-0.025
-81.626	154.417	0.221	-0.302
-80.611	-76.190	0.189	0.067
-79.597	676.903	0.085	0.221
-78.582	800.000	0.053	0.214
-77.567	800.000	0.042	0.170
-76.553	-112.041	0.226	-0.045
-75.538	-63.980	-0.300	0.122
-74.524	-72.401	-0.050	0.018
-73.509	800.000	-0.034	0.120
-72.494	-200.000	0.030	0.361
-71.480	-46.773	0.077	0.038
-70.465	-200.000	-0.064	0.372
-69.451	634.633	-0.048	0.122
-68.436	-200.000	-0.035	0.347
-67.422	109.706	0.037	-0.044
-66.407	-105.755	0.290	-0.065
-65.392	9.715	-0.214	0.162
-64.378	-200.000	0.022	-0.123
-63.363	125.330	-0.124	-0.155
-62.349	38.867	0.394	-0.351
-61.334	-7.810	-0.570	-0.384
-60.319	800.000	0.136	0.405
-59.305	496.023	-0.200	-0.459
-58.290	91.111	0.715	0.800
-57.276	800.000	0.527	1.647
-56.261	-200.000	78.255	513.045
-55.246	536.128	1295.803	3064.776
-54.232	152.620	2517.841	3427.752
-53.217	107.490	2355.399	2792.651
-52.203	47.745	2102.682	1955.688
-51.188	43.015	2009.954	1826.612
-50.173	41.186	1991.002	1792.874
-49.159	53.642	2031.400	1942.622
-48.144	57.716	2052.077	1999.350
-47.130	43.684	2015.376	1837.336
-46.115	41.205	2003.716	1804.204
-45.100	41.066	2000.633	1800.106
-44.086	41.005	1998.488	1797.551
-43.071	40.996	1995.704	1794.892
-42.057	40.984	1993.735	1792.943
-41.042	41.000	1991.855	1791.321
-40.027	41.043	1989.693	1789.696
-39.013	41.104	1987.666	1788.346
-37.998	41.133	1985.792	1786.849
-36.984	41.052	1984.343	1784.754
-35.969	41.176	1981.951	1783.637
-34.954	41.069	1980.447	1781.258
-33.940	41.065	1979.070	1779.912
-32.925	41.015	1977.362	1777.860
-31.911	41.087	1976.132	1777.329
-30.896	41.124	1974.447	1776.072
-29.881	41.106	1972.431	1774.024
-28.867	41.228	1970.598	1773.394
-27.852	41.266	1968.822	1772.063
-26.838	41.270	1966.563	1769.997
-25.823	41.205	1965.059	1767.993
-24.809	41.222	1963.021	1766.240
-23.794	41.219	1961.681	1764.935
-22.779	41.174	1959.979	1762.938
-21.765	41.115	1957.842	1760.425
-20.750	41.121	1956.588	1759.282
-19.736	41.158	1954.980	1758.096
-18.721	41.069	1953.544	1755.949
-17.706	41.107	1952.070	1754.886
-16.692	41.175	1949.961	1753.519
-15.677	41.053	1948.589	1751.143
-14.663	41.184	1947.293	1751.060
-13.648	41.058	1946.237	1748.932
-12.633	41.123	1944.702	1748.052
-11.619	41.144	1943.484	1747.074
-10.604	41.068	1941.824	1744.848
-9.590	41.082	1940.523	1743.732
-8.575	41.085	1939.264	1742.562
-7.560	41.157	1937.512	1741.542
-6.546	41.081	1936.576	1739.965
-5.531	41.210	1934.826	1739.451
-4.517	41.111	1933.381	1737.226
-3.502	41.061	1932.502	1735.924
-2.487	41.132	1931.246	1735.353
-1.473	41.058	1930.368	1733.845
-0.458	41.015	1925.256	1728.813
0.556	36.947	1902.718	1689.540
1.571	30.341	1876.219	1608.838
2.586	24.338	1892.153	1569.703
3.600	22.342	1926.853	1580.438
4.615	20.969	1921.767	1563.818
5.629	17.000	1826.983	1452.641
6.644	10.999	1713.736	1314.146
7.659	7.591	1675.329	1257.634
8.673	7.249	1671.458	1251.916
9.688	7.163	1670.742	1250.594
10.702	7.086	1669.043	1248.600
11.717	6.922	1666.167	1245.051
12.731	7.197	1665.397	1246.525
13.746	11.166	1674.445	1284.537
14.761	16.097	1684.327	1331.028
15.775	17.345	1685.547	1341.726
16.790	16.591	1682.076	1332.907
17.804	15.535	1678.625	1321.748
18.819	14.530	1675.396	1311.188
19.834	13.898	1672.425	1303.787
20.848	13.432	1671.110	1298.993
21.863	13.227	1669.132	1295.732
22.877	12.994	1668.029	1292.933
23.892	12.868	1666.247	1290.456
24.907	12.716	1665.551	1288.613
25.921	12.690	1664.238	1287.276
26.936	12.722	1663.363	1286.735
27.950	12.770	1662.307	1286.179
28.965	12.757	1662.257	1285.926
29.980	12.783	1661.636	1285.530
30.994	12.778	1660.449	1284.463
32.009	12.895	1658.891	1284.055
33.023	12.902	1658.632	1283.799
34.038	12.889	1657.581	1282.768
35.053	12.888	1656.043	1281.454
36.067	12.944	1654.611	1280.668
37.082	12.880	1653.912	1279.518
38.096	12.817	1653.268	1278.417
39.111	12.858	1651.842	1277.521
40.126	12.901	1651.070	1277.147
41.140	12.825	1650.677	1276.140
42.155	12.853	1649.105	1275.028
43.169	12.697	1647.332	1272.338
44.184	12.688	1646.387	1271.427
45.199	12.717	1644.795	1270.304
46.213	12.635	1644.362	1269.226
47.228	12.605	1643.008	1267.843
48.242	12.766	1641.433	1267.750
49.257	12.774	1640.801	1267.213
50.271	12.718	1639.106	1265.363
51.286	12.727	1638.285	1264.681
52.301	12.793	1636.693	1263.847
53.315	12.800	1635.303	1262.717
54.330	12.794	1633.787	1261.391
55.344	12.755	1631.531	1259.236
56.359	12.680	1631.038	1258.174
57.374	12.692	1629.531	1256.992
58.388	12.723	1628.625	1256.417
59.403	12.659	1627.325	1254.815
60.417	12.595	1626.062	1253.241
61.432	12.515	1625.373	1251.993
62.447	12.581	1624.159	1251.450
63.461	12.567	1622.642	1250.066
64.476	12.570	1621.910	1249.408
65.490	12.468	1620.672	1247.571
66.505	12.455	1619.574	1246.520
67.520	12.512	1618.538	1246.041
68.534	12.542	1617.413	1245.294
69.549	12.639	1616.084	1244.890
70.563	12.666	1614.717	1243.938
71.578	12.582	1613.606	1242.331
72.593	12.498	1612.794	1240.964
73.607	12.388	1612.150	1239.528
74.622	12.508	1610.601	1239.136
75.636	12.447	1609.679	1237.854
76.651	12.412	1609.394	1237.262
77.666	12.439	1608.298	1236.513
78.680	12.468	1607.512	1236.021
79.695	12.540	1606.694	1235.821
80.709	12.570	1605.486	1235.009
81.724	12.568	1604.846	1234.391
82.739	12.563	1603.850	1233.482
83.753	12.570	1603.164	1232.896
84.768	12.696	1602.245	1233.019
85.782	12.851	1601.149	1233.232
86.797	12.783	1601.089	1232.563
87.812	12.852	1599.461	1231.720
88.826	12.773	1598.519	1230.291
89.841	12.765	1597.532	1229.367
90.855	12.810	1596.428	1228.746
91.870	12.750	1595.398	1227.393
92.884	12.734	1594.891	1226.776
93.899	12.847	1593.297	1226.283
94.914	12.841	1591.982	1225.120
95.928	12.906	1590.688	1224.498
96.943	12.925	1589.494	1223.606
97.957	12.988	1588.117	1222.909
98.972	12.897	1586.449	1220.845
99.987	12.813	1585.251	1219.190
101.001	12.818	1583.864	1218.050
102.016	12.853	1582.282	1216.984
103.030	12.843	1580.745	1215.625
104.045	12.926	1579.091	1214.857
105.060	12.752	1578.636	1213.113
106.074	12.844	1576.906	1212.360
107.089	12.717	1575.615	1210.321
108.103	12.606	1573.946	1208.119
109.118	12.538	1572.333	1206.276
110.133	12.557	1571.044	1205.323
111.147	12.514	1569.764	1203.912
112.162	12.704	1567.597	1203.540
113.176	12.695	1566.942	1202.859
114.191	12.619	1565.616	1201.179
115.206	12.631	1564.540	1200.336
116.220	12.731	1562.953	1199.740
117.235	12.715	1561.577	1198.460
118.249	12.627	1560.553	1196.929
119.264	12.698	1559.028	1196.170
120.279	12.662	1557.562	1194.681
121.293	12.612	1556.360	1193.288
122.308	12.602	1555.071	1192.127
123.322	12.600	1553.215	1190.582
124.337	12.581	1552.002	1189.410
125.352	12.524	1551.028	1188.143
126.366	12.560	1549.552	1187.170
127.381	12.532	1548.468	1186.032
128.395	12.601	1547.859	1185.960
129.410	12.607	1545.990	1184.462
130.424	12.563	1544.693	1183.051
131.439	12.619	1543.791	1182.658
132.454	12.625	1542.418	1181.541
133.468	12.685	1540.136	1180.119
134.483	12.695	1539.483	1179.588
135.497	12.763	1538.409	1179.145
136.512	12.685	1536.753	1177.212
137.527	12.880	1534.649	1176.888
138.541	12.826	1533.872	1175.804
139.556	12.871	1532.510	1174.978
140.570	12.808	1531.345	1173.533
141.585	12.866	1529.826	1172.676
142.600	12.935	1528.661	1172.174
143.614	12.999	1527.512	1171.643
144.629	13.001	1526.652	1170.895
145.643	13.007	1525.457	1169.914
146.658	13.129	1523.701	1169.329
147.673	13.114	1521.946	1167.768
148.687	12.989	1521.138	1166.167
149.702	12.893	1520.075	1164.569
150.716	12.862	1518.066	1162.711
151.731	12.827	1516.823	1161.409
152.746	12.855	1515.804	1160.722
153.760	12.918	1513.957	1159.645
154.775	12.963	1512.687	1158.885
155.789	12.926	1511.679	1157.753
156.804	13.028	1510.510	1157.471
157.819	13.019	1509.551	1156.573
158.833	13.012	1508.322	1155.478
159.848	12.995	1507.316	1154.489
160.862	13.083	1505.643	1153.720
161.877	13.060	1504.451	1152.540
162.892	13.145	1503.468	1152.279
163.906	12.985	1502.221	1150.107
164.921	12.976	1500.881	1148.914
165.935	13.014	1499.600	1148.100
166.950	12.910	1498.859	1146.708
167.964	12.970	1497.574	1146.040
168.979	12.998	1496.387	1145.220
169.994	13.045	1495.367	1144.663
171.008	13.061	1494.398	1143.936
172.023	13.065	1493.385	1143.083
173.037	13.191	1491.965	1142.768
174.052	13.197	1490.759	1141.784
175.067	13.204	1489.872	1141.052
176.081	13.192	1488.599	1139.898
177.096	13.041	1487.439	1137.863
178.110	12.959	1486.304	1136.331
179.125	13.069	1484.473	1135.589
180.140	13.139	1483.938	1135.562
181.154	13.024	1483.069	1134.007
182.169	13.160	1481.969	1133.997
183.183	13.198	1480.310	1132.884
184.198	13.275	1479.383	1132.607
185.213	13.264	1478.478	1131.733
186.227	13.310	1477.239	1131.004
187.242	13.249	1476.566	1129.970
188.256	13.212	1475.676	1128.935
189.271	13.261	1474.678	1128.405
190.286	13.321	1473.690	1127.963
191.300	13.367	1472.062	1126.926
192.315	13.256	1470.865	1125.156
193.329	13.041	1469.923	1122.875
194.344	13.044	1468.522	1121.725
195.359	13.129	1467.352	1121.308
196.373	13.073	1466.765	1120.383
197.388	13.290	1465.439	1120.742
198.402	13.271	1464.694	1119.943
199.417	13.380	1463.430	1119.617
200.432	13.500	1462.410	1119.547
201.446	13.575	1461.367	1119.153
202.461	13.559	1460.703	1118.437
203.475	13.588	1459.488	1117.609
204.490	13.604	1458.609	1116.941
205.504	13.548	1457.463	1115.589
206.519	13.533	1456.221	1114.441
207.534	13.444	1455.718	1113.357
208.548	13.524	1454.077	1112.539
209.563	13.480	1453.026	1111.344
210.577	13.481	1451.922	1110.405
211.592	13.595	1450.818	1110.231
212.607	13.600	1450.216	1109.703
213.621	13.615	1449.999	1109.537
214.636	13.709	1448.925	1109.244
215.650	13.651	1448.199	1108.204
216.665	13.643	1446.677	1106.890
217.680	13.732	1446.078	1106.924
218.694	13.730	1445.578	1106.432
219.709	13.817	1444.839	1106.349
220.723	13.829	1443.670	1105.435
221.738	13.797	1442.455	1104.198
222.753	13.757	1441.861	1103.379
223.767	13.685	1440.986	1102.129
224.782	13.712	1440.299	1101.685
225.796	13.810	1439.300	1101.476
226.811	13.830	1438.310	1100.755
227.826	13.877	1437.509	1100.355
228.840	13.910	1436.808	1099.940
229.855	13.808	1435.867	1098.444
230.869	13.825	1434.690	1097.562
231.884	13.852	1433.768	1096.936
232.899	13.818	1432.799	1095.876
233.913	13.788	1431.330	1094.458
234.928	13.700	1430.570	1093.198
235.942	13.781	1429.038	1092.466
236.957	13.785	1427.703	1091.375
237.972	13.768	1426.434	1090.195
238.986	13.832	1425.253	1089.613
240.001	13.808	1424.870	1089.070
241.015	13.740	1423.794	1087.707
242.030	13.859	1422.223	1087.190
243.045	13.930	1421.361	1086.896
244.059	13.983	1420.786	1086.705
245.074	13.970	1419.507	1085.548
246.088	13.924	1419.027	1084.785
247.103	13.956	1418.507	1084.499
248.117	14.006	1417.446	1083.920
249.132	14.101	1416.691	1083.867
250.147	14.149	1416.258	1083.753
251.161	14.164	1415.592	1083.244
252.176	14.284	1414.755	1083.286
253.190	14.347	1414.021	1083.039
254.205	14.283	1413.498	1082.126
255.220	14.394	1412.502	1081.988
256.234	14.438	1411.508	1081.418
257.249	14.394	1411.118	1080.740
258.263	14.492	1409.692	1080.182
259.278	14.444	1409.058	1079.291
260.293	14.407	1408.069	1078.197
261.307	14.488	1407.231	1077.989
262.322	14.473	1406.640	1077.338
263.336	14.513	1405.776	1076.846
264.351	14.597	1404.593	1076.381
265.366	14.674	1404.172	1076.461
266.380	14.589	1403.136	1075.023
267.395	14.627	1402.076	1074.360
268.409	14.633	1400.929	1073.428
269.424	14.692	1400.018	1073.014
270.439	14.571	1399.456	1071.712
271.453	14.599	1397.894	1070.600
272.468	14.596	1397.503	1070.188
273.482	14.615	1396.647	1069.559
274.497	14.543	1395.774	1068.333
275.512	14.483	1395.150	1067.377
276.526	14.483	1394.519	1066.797
277.541	14.596	1392.901	1066.192
278.555	14.663	1391.792	1065.672
279.570	14.616	1391.033	1064.698
280.585	14.600	1390.407	1064.020
281.599	14.708	1389.700	1064.075
282.614	14.832	1388.723	1064.027
283.628	14.760	1387.747	1062.722
284.643	14.664	1386.505	1061.069
285.657	14.750	1385.215	1060.534
286.672	14.737	1384.358	1059.701
287.687	14.730	1383.640	1059.015
288.701	14.818	1382.352	1058.493
289.716	14.711	1381.902	1057.377
290.730	14.799	1380.924	1057.091
291.745	14.864	1380.006	1056.706
292.760	14.817	1378.982	1055.530
293.774	14.794	1378.388	1054.837
294.789	14.888	1376.754	1054.088
295.803	14.822	1376.474	1053.361
296.818	14.880	1375.899	1053.194
297.833	14.892	1374.675	1052.239
298.847	14.922	1373.378	1051.344
299.862	14.855	1372.609	1050.237
300.876	14.916	1371.939	1050.018
301.891	14.986	1370.713	1049.423
302.906	15.017	1369.882	1048.892
303.920	14.988	1368.993	1047.936
304.935	14.926	1368.906	1047.388
305.949	15.117	1367.508	1047.423
306.964	15.161	1367.082	1047.275
307.979	15.230	1366.056	1046.826
308.993	15.292	1364.523	1045.946
310.008	15.132	1364.132	1044.555
311.022	15.164	1363.225	1043.968
312.037	15.257	1362.302	1043.751
313.052	15.259	1361.692	1043.205
314.066	15.204	1360.703	1042.009
315.081	15.176	1359.330	1040.693
316.095	15.180	1358.036	1039.639
317.110	15.103	1357.222	1038.440
318.125	15.114	1356.368	1037.768
319.139	15.045	1355.690	1036.725
320.154	15.076	1354.548	1035.957
321.168	15.130	1353.552	1035.436
322.183	15.107	1352.627	1034.491
323.197	15.099	1351.483	1033.478
324.212	15.270	1350.385	1033.598
325.227	15.197	1349.977	1032.750
326.241	15.194	1349.398	1032.197
327.256	15.233	1348.356	1031.544
328.270	15.231	1347.654	1030.909
329.285	15.275	1346.469	1030.181
330.300	15.230	1345.584	1029.135
331.314	15.385	1344.719	1029.331
332.329	15.224	1344.166	1027.830
333.343	15.247	1342.839	1026.867
334.358	15.299	1342.242	1026.636
335.373	15.386	1341.561	1026.555
336.387	15.380	1340.490	1025.611
337.402	15.395	1339.849	1025.123
338.416	15.373	1339.400	1024.553
339.431	15.439	1338.520	1024.189
340.446	15.484	1337.797	1023.821
341.460	15.529	1336.960	1023.365
342.475	15.629	1335.881	1023.056
343.489	15.558	1335.305	1022.094
344.504	15.663	1334.037	1021.671
345.519	15.673	1332.964	1020.819
346.533	15.717	1332.148	1020.369
347.548	15.683	1331.698	1019.728
348.562	15.769	1330.373	1019.146
349.577	15.755	1329.773	1018.510
350.592	15.648	1329.238	1017.362
351.606	15.661	1328.142	1016.511
352.621	15.655	1327.092	1015.585
353.635	15.648	1325.659	1014.356
354.650	15.675	1324.753	1013.732
355.665	15.671	1323.678	1012.796
356.679	15.724	1322.635	1012.231
357.694	15.755	1321.627	1011.553
358.708	15.771	1321.099	1011.158
359.723	15.687	1320.080	1009.786
360.738	15.728	1319.240	1009.298
361.752	15.738	1318.259	1008.519
362.767	15.734	1317.139	1007.551
363.781	15.801	1315.961	1006.960
364.796	15.785	1315.292	1006.262
365.810	15.850	1314.409	1005.886
366.825	15.902	1314.120	1005.885
367.840	15.908	1313.254	1005.168
368.854	15.907	1312.913	1004.813
369.869	16.020	1312.235	1004.882
370.883	16.064	1311.275	1004.316
371.898	15.944	1310.652	1003.041
372.913	16.008	1309.410	1002.379
373.927	15.928	1308.842	1001.382
374.942	16.044	1308.083	1001.401
375.956	16.039	1307.585	1000.899
376.971	16.115	1306.717	1000.601
377.986	16.166	1305.992	1000.255
379.000	16.088	1305.367	999.230
380.015	16.273	1303.837	999.063
381.029	16.240	1303.201	998.291
382.044	16.207	1303.025	997.875
383.059	16.252	1301.957	997.232
384.073	16.183	1301.193	996.151
385.088	16.193	1300.709	995.755
386.102	16.272	1300.022	995.603
387.117	16.401	1299.253	995.687
388.132	16.329	1298.363	994.491
389.146	16.219	1297.931	993.427
390.161	16.247	1296.682	992.547
391.175	16.255	1296.154	992.104
392.190	16.297	1295.232	991.558
393.205	16.313	1294.107	990.703
394.219	16.450	1293.020	990.584
395.234	16.483	1291.984	989.896
396.248	16.455	1290.434	988.457
397.263	16.328	1289.331	986.786
398.278	16.363	1288.183	986.024
399.292	16.346	1287.135	985.035
400.307	16.316	1285.998	983.899
401.321	16.232	1285.120	982.655
402.336	16.219	1284.676	982.151
403.350	16.355	1283.077	981.632
404.365	16.315	1282.154	980.609
405.380	16.326	1281.047	979.737
406.394	16.349	1280.505	979.373
407.409	16.388	1279.637	978.844
408.423	16.389	1279.178	978.415
409.438	16.493	1278.347	978.293
410.453	16.513	1278.004	978.059
411.467	16.575	1277.156	977.684
412.482	16.607	1276.415	977.212
413.496	16.665	1275.586	976.826
414.511	16.702	1274.644	976.232
415.526	16.640	1274.209	975.457
416.540	16.769	1273.508	975.577
417.555	16.770	1273.018	975.120
418.569	16.758	1272.455	974.536
419.584	16.781	1271.817	974.093
420.599	16.824	1270.886	973.537
421.613	79.815	1327.255	1379.729
422.628	78.318	1335.462	1379.853
