DTS Sentinel unit serial number:	SN413079Multiplexer serial number:	ORYXHardware model number:	OX4-SRSoftware version number:	ORYX F/W v4.00 Oryx Data Collector v3.7.2.0data status	okinstallation	princeton_trtdifferential loss correction	single-endedforward channel	channel 4reverse channel	N/Adate	2019/09/11time	14:35:11forward acquisition time	60.00reverse acquisition time	0.00gamma	496.2192k internal	0.2280k external	0.2280temperature offset calibration	1.0006default loss term (dB/km)	0.3790temperature slope calibration	1.0000multiplexer offset coefficient	1.0000multiplexer slope coefficient	1.0000fibre end	0.00T internal ref (°C)	42.30T ext. ref 1 (°C)	0.91T ext. ref 2 (°C)	37.54length (m)	temperature (°C)	Stokes	anti-Stokes-747.200	156.311	0.101	0.144
-746.185	-168.393	0.163	-0.006
-745.171	203.327	0.153	-0.243
-744.156	-95.991	-0.255	0.070
-743.142	-49.370	0.241	0.118
-742.127	800.000	0.122	0.390
-741.112	-126.669	-0.148	-0.023
-740.098	-129.129	0.347	0.050
-739.083	-200.000	0.033	0.267
-738.069	-200.000	0.002	0.011
-737.054	374.727	0.054	-0.114
-736.039	217.292	-0.142	-0.233
-735.025	23.832	0.143	-0.121
-734.010	800.000	-0.030	-0.108
-732.996	-12.026	-0.537	-0.362
-731.981	-200.000	0.000	-0.145
-730.966	800.000	-0.061	-0.203
-729.952	-200.000	0.060	-0.474
-728.937	-76.360	-0.155	-0.056
-727.923	543.719	-0.127	-0.311
-726.908	102.076	0.131	0.157
-725.894	-76.057	0.126	0.046
-724.879	-31.942	-0.230	-0.132
-723.864	-135.972	-0.172	0.021
-722.850	-66.579	0.133	0.054
-721.835	-109.774	-0.320	0.069
-720.821	-95.794	0.257	0.071
-719.806	27.793	0.249	-0.215
-718.791	-96.297	0.074	-0.020
-717.777	-200.000	-0.037	-0.246
-716.762	-158.778	0.288	0.017
-715.748	800.000	0.018	0.072
-714.733	-80.240	0.233	0.080
-713.718	60.332	-0.118	-0.120
-712.704	-86.828	-0.263	-0.083
-711.689	208.540	-0.157	-0.252
-710.675	-3.245	0.057	-0.041
-709.660	800.000	0.050	-0.208
-708.645	-120.057	0.317	-0.056
-707.631	-200.000	-0.018	-0.083
-706.616	-88.415	0.081	0.025
-705.602	800.000	-0.040	0.157
-704.587	27.813	-0.141	0.122
-703.572	-106.247	0.106	-0.024
-702.558	-52.023	-0.358	-0.171
-701.543	-90.258	-0.266	-0.079
-700.529	40.919	0.109	-0.101
-699.514	-59.815	0.164	-0.072
-698.499	-133.447	-0.332	0.043
-697.485	-0.103	-0.020	-0.015
-696.470	311.045	0.136	0.262
-695.456	-27.320	0.042	0.025
-694.441	-159.843	-0.305	0.017
-693.426	69.776	-0.163	0.172
-692.412	-14.669	-0.342	-0.225
-691.397	18.844	-0.041	0.033
-690.383	4.251	-0.076	-0.057
-689.368	234.818	-0.056	0.095
-688.354	-30.448	-0.240	-0.140
-687.339	-200.000	0.014	-0.072
-686.324	146.670	-0.064	0.088
-685.310	25.424	-0.204	-0.174
-684.295	-103.980	-0.224	0.054
-683.281	228.528	-0.082	-0.137
-682.266	231.904	0.117	-0.197
-681.251	-154.961	-0.091	-0.006
-680.237	-200.000	0.029	-0.145
-679.222	64.821	0.136	-0.141
-678.208	-81.270	-0.208	0.070
-677.193	43.473	-0.143	0.134
-676.178	37.222	0.088	0.080
-675.164	-88.013	-0.202	0.062
-674.149	800.000	-0.040	-0.170
-673.135	-52.507	-0.064	0.030
-672.120	73.799	0.197	-0.212
-671.105	2.172	-0.167	-0.124
-670.091	800.000	0.161	-0.537
-669.076	800.000	0.033	-0.127
-668.062	-96.836	-0.166	-0.045
-667.047	-200.000	0.023	-0.354
-666.032	-200.000	-0.021	0.105
-665.018	-102.909	-0.165	0.040
-664.003	298.438	-0.148	0.279
-662.989	-200.000	-0.022	-0.176
-661.974	386.589	-0.118	0.250
-660.959	800.000	-0.033	0.117
-659.945	-200.000	-0.040	0.276
-658.930	116.203	0.254	-0.319
-657.916	800.000	-0.124	-0.385
-656.901	-104.503	0.340	0.081
-655.886	-160.814	-0.453	-0.025
-654.872	-200.000	0.045	-0.236
-653.857	90.878	0.124	0.142
-652.843	-36.858	-0.179	-0.098
-651.828	451.681	-0.041	0.094
-650.814	55.084	-0.104	0.103
-649.799	123.585	-0.136	-0.175
-648.784	12.696	0.181	0.143
-647.770	800.000	0.053	0.193
-646.755	220.936	0.115	-0.189
-645.741	-26.996	-0.470	-0.281
-644.726	47.231	0.043	0.041
-643.711	96.321	0.199	-0.233
-642.697	-56.902	-0.197	-0.089
-641.682	-6.006	-0.145	-0.102
-640.668	-133.133	0.232	-0.030
-639.653	295.472	-0.075	0.141
-638.638	133.567	0.172	0.228
-637.624	-200.000	-0.040	-0.344
-636.609	-54.638	0.020	-0.009
-635.595	-149.125	-0.126	-0.010
-634.580	-150.862	0.171	0.013
-633.565	106.226	0.024	0.029
-632.551	800.000	-0.073	-0.235
-631.536	-141.936	-0.226	0.023
-630.522	-200.000	0.052	-0.312
-629.507	608.414	0.042	0.107
-628.492	128.389	-0.073	0.095
-627.478	746.147	-0.077	-0.213
-626.463	283.059	-0.239	-0.439
-625.449	412.374	-0.054	-0.116
-624.434	595.137	0.015	0.038
-623.419	-200.000	0.006	0.098
-622.405	-104.666	-0.054	0.013
-621.390	-12.705	-0.297	-0.199
-620.376	-101.866	-0.158	0.039
-619.361	-17.369	-0.056	-0.036
-618.346	-20.596	-0.279	0.176
-617.332	-12.845	0.148	0.098
-616.317	-154.111	-0.125	0.009
-615.303	14.574	0.113	-0.091
-614.288	-200.000	0.043	-0.205
-613.273	503.632	0.089	0.211
-612.259	-200.000	0.039	0.470
-611.244	-162.861	0.123	0.006
-610.230	244.972	0.239	0.412
-609.215	-200.000	-0.038	0.313
-608.201	800.000	-0.082	0.250
-607.186	-200.000	0.011	-0.078
-606.171	123.842	0.032	-0.041
-605.157	-146.698	0.143	-0.013
-604.142	41.069	0.044	-0.040
-603.128	81.989	0.074	0.081
-602.113	5.560	-0.337	-0.254
-601.098	22.309	0.136	-0.114
-600.084	-38.142	0.249	-0.135
-599.069	270.042	-0.140	0.251
-598.055	800.000	0.112	-0.375
-597.040	-182.470	0.120	0.002
-596.025	416.904	0.128	-0.280
-595.011	-126.508	-0.260	0.040
-593.996	800.000	-0.094	-0.414
-592.982	302.304	0.071	-0.135
-591.967	645.349	-0.152	0.396
-590.952	-48.450	0.192	0.095
-589.938	800.000	-0.025	-0.090
-588.923	575.442	-0.100	0.250
-587.909	800.000	-0.045	0.188
-586.894	-35.025	0.166	-0.092
-585.879	-101.023	-0.320	0.080
-584.865	57.250	0.138	0.137
-583.850	-70.947	0.287	0.111
-582.836	-63.700	-0.216	0.091
-581.821	-52.168	-0.178	-0.085
-580.806	-38.429	-0.096	-0.052
-579.792	225.749	-0.193	-0.319
-578.777	800.000	0.057	-0.216
-577.763	692.594	0.035	0.093
-576.748	-81.575	-0.106	-0.035
-575.733	79.583	0.188	-0.206
-574.719	-99.583	0.346	0.089
-573.704	610.524	-0.059	0.151
-572.690	-10.560	0.109	0.074
-571.675	800.000	0.028	0.109
-570.661	-200.000	-0.012	-0.307
-569.646	-98.811	-0.081	0.021
-568.631	800.000	0.043	0.158
-567.617	-200.000	0.017	-0.185
-566.602	-83.800	0.249	0.081
-565.588	188.389	0.076	0.116
-564.573	-122.963	-0.215	-0.035
-563.558	77.371	0.196	0.213
-562.544	13.871	-0.377	-0.299
-561.529	-200.000	-0.024	-0.303
-560.515	-142.407	0.292	0.029
-559.500	-200.000	-0.015	0.081
-558.485	-200.000	0.031	0.150
-557.471	-123.331	0.244	-0.040
-556.456	-20.228	0.335	0.211
-555.442	-93.009	-0.156	0.044
-554.427	262.847	-0.023	0.040
-553.412	800.000	-0.045	0.160
-552.398	191.234	0.075	-0.115
-551.383	-50.784	-0.193	0.093
-550.369	-56.715	-0.132	0.060
-549.354	-200.000	0.038	0.184
-548.339	-37.257	-0.140	-0.077
-547.325	-200.000	0.011	0.078
-546.310	197.399	-0.167	-0.261
-545.296	-200.000	0.050	-0.366
-544.281	47.768	0.247	-0.236
-543.266	-154.456	-0.144	-0.010
-542.252	-200.000	-0.020	0.153
-541.237	-200.000	-0.031	0.155
-540.223	-200.000	-0.041	0.226
-539.208	-200.000	-0.010	-0.220
-538.193	211.400	0.116	0.187
-537.179	168.981	-0.107	-0.156
-536.164	132.314	-0.098	-0.129
-535.150	182.808	0.094	0.142
-534.135	107.301	0.165	0.200
-533.121	-140.347	0.141	-0.015
-532.106	776.679	0.018	-0.051
-531.091	-200.000	-0.014	0.258
-530.077	-22.295	-0.336	-0.208
-529.062	25.265	0.207	-0.176
-528.048	347.737	0.125	0.251
-527.033	508.921	0.098	0.232
-526.018	128.838	0.124	0.161
-525.004	17.165	-0.175	-0.141
-523.989	68.019	-0.057	0.059
-522.975	-42.662	0.343	-0.178
-521.960	-107.963	0.310	-0.069
-520.945	-200.000	-0.010	-0.270
-519.931	-200.000	0.021	0.096
-518.916	101.124	-0.049	0.058
-517.902	-105.018	-0.305	0.071
-516.887	193.218	-0.091	-0.141
-515.872	-2.225	-0.229	-0.164
-514.858	-33.817	-0.175	-0.098
-513.843	231.978	-0.123	-0.206
-512.829	246.660	0.133	0.229
-511.814	-86.411	-0.048	-0.015
-510.799	46.869	0.069	-0.065
-509.785	419.985	0.056	0.123
-508.770	83.778	0.071	0.079
-507.756	-126.362	0.311	-0.047
-506.741	-42.176	-0.245	0.128
-505.726	800.000	-0.038	0.140
-504.712	-80.668	0.177	0.060
-503.697	-146.955	-0.367	-0.032
-502.683	-79.442	0.300	0.103
-501.668	800.000	0.033	0.123
-500.653	-106.450	-0.203	-0.046
-499.639	26.817	0.197	-0.168
-498.624	800.000	-0.103	0.314
-497.610	800.000	-0.032	0.120
-496.595	396.858	0.087	0.186
-495.581	55.562	-0.187	-0.184
-494.566	384.288	0.096	0.201
-493.551	800.000	0.038	-0.165
-492.537	289.402	-0.045	-0.084
-491.522	-61.423	-0.216	-0.093
-490.508	-100.754	-0.217	0.055
-489.493	-71.526	-0.229	-0.087
-488.478	396.672	-0.080	-0.171
-487.464	-126.983	0.357	0.053
-486.449	-142.308	-0.288	0.029
-485.435	-25.943	-0.081	0.049
-484.420	-48.849	-0.211	-0.103
-483.405	9.149	-0.348	0.268
-482.391	487.762	-0.080	-0.187
-481.376	91.326	-0.270	-0.309
-480.362	77.755	0.258	0.280
-479.347	-116.626	0.126	-0.024
-478.332	698.884	0.120	0.322
-477.318	-162.334	-0.238	0.012
-476.303	-7.011	-0.122	0.084
-475.289	-120.362	-0.130	0.023
-474.274	632.469	0.129	0.334
-473.259	0.877	-0.084	-0.061
-472.245	800.000	0.106	0.314
-471.230	624.984	0.101	0.260
-470.216	-59.134	-0.014	0.006
-469.201	319.596	0.133	-0.257
-468.186	-13.639	-0.280	-0.184
-467.172	-200.000	-0.014	0.101
-466.157	152.837	-0.032	-0.044
-465.143	54.795	-0.048	-0.047
-464.128	800.000	0.075	-0.252
-463.113	800.000	0.030	0.085
-462.099	800.000	0.028	0.121
-461.084	-105.597	-0.072	-0.017
-460.070	-200.000	-0.030	-0.229
-459.055	-64.813	-0.379	0.156
-458.040	-133.225	-0.380	-0.049
-457.026	-143.612	-0.241	0.023
-456.011	55.205	0.164	-0.161
-454.997	155.539	-0.056	0.079
-453.982	13.437	-0.405	0.319
-452.968	394.994	0.162	0.345
-451.953	493.917	-0.044	-0.103
-450.938	-200.000	0.006	0.223
-449.924	-126.082	-0.069	0.011
-448.909	243.221	-0.140	-0.238
-447.895	800.000	0.025	-0.108
-446.880	150.847	-0.062	0.085
-445.865	125.345	0.184	-0.236
-444.851	-143.223	0.255	-0.025
-443.836	-104.052	-0.080	0.019
-442.822	-51.576	0.119	-0.057
-441.807	-84.294	-0.162	-0.052
-440.792	800.000	-0.068	0.192
-439.778	-69.345	0.254	0.099
-438.763	800.000	-0.012	-0.045
-437.749	1.185	-0.300	-0.219
-436.734	-106.024	0.260	-0.059
-435.719	231.347	0.080	0.133
-434.705	-36.219	0.483	0.265
-433.690	-200.000	0.012	0.363
-432.676	-200.000	-0.020	-0.092
-431.661	100.266	0.087	0.103
-430.646	-200.000	-0.023	0.305
-429.632	43.554	0.097	-0.090
-428.617	800.000	0.036	-0.122
-427.603	438.959	0.096	-0.214
-426.588	58.357	0.031	-0.030
-425.573	-200.000	-0.049	-0.300
-424.559	68.296	0.276	-0.288
-423.544	264.814	0.059	-0.104
-422.530	173.152	-0.027	0.040
-421.515	259.262	0.095	0.166
-420.500	27.183	-0.199	0.169
-419.486	-108.225	0.275	-0.060
-418.471	-5.638	-0.127	0.089
-417.457	-26.863	0.310	0.184
-416.442	-117.348	0.108	-0.020
-415.428	-109.739	0.213	-0.046
-414.413	800.000	0.025	-0.110
-413.398	152.687	-0.247	0.343
-412.384	0.660	0.171	0.124
-411.369	800.000	-0.032	0.091
-410.355	-200.000	-0.010	0.136
-409.340	-27.429	-0.134	-0.079
-408.325	-101.687	0.284	-0.070
-407.311	738.096	0.047	0.127
-406.296	-200.000	0.028	0.138
-405.282	93.921	0.039	-0.045
-404.267	800.000	0.068	-0.267
-403.252	724.905	-0.074	-0.200
-402.238	-153.073	-0.057	0.004
-401.223	-200.000	0.019	-0.125
-400.209	800.000	0.033	0.134
-399.194	-130.742	-0.092	0.013
-398.179	787.319	0.091	-0.255
-397.165	40.341	-0.181	0.165
-396.150	-23.434	-0.055	-0.033
-395.136	800.000	-0.069	0.206
-394.121	-70.380	-0.393	0.151
-393.106	-150.597	-0.127	-0.010
-392.092	104.886	0.137	-0.163
-391.077	57.046	0.225	-0.222
-390.063	236.478	0.047	0.079
-389.048	4.635	0.157	-0.117
-388.033	88.749	0.226	0.255
-387.019	-200.000	0.021	0.346
-386.004	-65.557	-0.266	-0.108
-384.990	-127.134	-0.113	-0.017
-383.975	48.645	-0.022	0.021
-382.960	-62.079	-0.142	0.060
-381.946	72.561	0.358	0.378
-380.931	-200.000	-0.056	-0.368
-379.917	-90.956	-0.155	0.045
-378.902	-59.304	0.138	0.060
-377.888	26.954	0.232	0.197
-376.873	-200.000	-0.037	0.391
-375.858	27.474	-0.168	0.144
-374.844	800.000	-0.006	0.019
-373.829	-200.000	-0.038	-0.172
-372.815	58.497	0.159	-0.158
-371.800	0.267	0.215	0.156
-370.785	-200.000	-0.046	-0.257
-369.771	472.465	-0.151	-0.345
-368.756	-45.944	0.139	-0.069
-367.742	-15.929	0.166	-0.107
-366.727	-3.353	-0.105	-0.074
-365.712	41.273	-0.184	-0.169
-364.698	-200.000	-0.011	0.062
-363.683	-95.246	0.327	-0.089
-362.669	800.000	-0.053	-0.166
-361.654	157.249	-0.135	0.190
-360.639	-8.525	0.169	0.115
-359.625	-148.087	-0.368	-0.031
-358.610	-52.358	-0.080	0.038
-357.596	-61.361	0.239	0.102
-356.581	72.764	0.099	0.105
-355.566	-110.012	-0.396	-0.084
-354.552	250.568	-0.084	0.145
-353.537	800.000	-0.059	-0.208
-352.523	-107.087	0.198	-0.044
-351.508	-156.420	0.188	0.012
-350.493	-200.000	-0.013	-0.159
-349.479	12.375	-0.143	0.111
-348.464	407.341	-0.097	-0.208
-347.450	251.171	-0.118	0.203
-346.435	43.412	-0.093	-0.086
-345.420	94.251	0.060	0.069
-344.406	-173.400	0.234	0.007
-343.391	82.477	-0.122	0.134
-342.377	504.471	-0.199	0.466
-341.362	-164.041	0.203	0.010
-340.348	-166.141	0.260	0.011
-339.333	114.955	0.348	0.430
-338.318	156.068	0.097	-0.136
-337.304	328.931	-0.116	-0.226
-336.289	51.858	0.050	-0.048
-335.275	23.111	0.094	-0.078
-334.260	69.175	0.208	-0.217
-333.245	219.602	-0.102	-0.166
-332.231	-200.000	0.001	-0.047
-331.216	191.614	0.232	0.354
-330.202	-36.783	0.048	0.026
-329.187	564.230	-0.115	0.283
-328.172	-81.231	0.217	-0.072
-327.158	149.202	0.243	0.333
-326.143	205.446	0.063	0.099
-325.129	373.859	-0.086	-0.177
-324.114	-126.807	-0.120	0.018
-323.099	800.000	-0.060	0.219
-322.085	283.381	0.174	-0.316
-321.070	-52.465	0.078	0.037
-320.056	800.000	0.132	0.488
-319.041	-105.184	-0.243	0.056
-318.026	-27.206	-0.170	0.100
-317.012	-200.000	-0.029	0.292
-315.997	44.702	0.150	0.139
-314.983	-64.395	-0.308	-0.127
-313.968	-40.397	-0.207	-0.109
-312.953	-108.292	0.240	-0.053
-311.939	135.920	0.040	-0.053
-310.924	11.864	-0.122	-0.094
-309.910	210.866	0.136	-0.217
-308.895	767.630	-0.150	0.413
-307.880	-40.550	0.194	-0.102
-306.866	-1.784	-0.253	-0.180
-305.851	141.435	-0.243	-0.326
-304.837	-58.242	0.148	-0.065
-303.822	-141.942	-0.165	0.017
-302.807	282.936	-0.080	0.145
-301.793	52.782	-0.176	0.170
-300.778	128.700	-0.032	-0.042
-299.764	800.000	0.049	0.165
-298.749	-162.384	0.194	-0.010
-297.735	-200.000	0.004	0.201
-296.720	-146.929	0.416	0.036
-295.705	-200.000	-0.025	0.321
-294.691	-61.628	-0.180	0.076
-293.676	-120.725	-0.314	0.054
-292.662	-172.053	-0.107	-0.004
-291.647	-180.955	0.032	0.001
-290.632	91.194	-0.049	0.056
-289.618	-169.039	-0.226	0.009
-288.603	336.071	-0.047	-0.093
-287.589	-82.327	0.250	-0.082
-286.574	-88.909	0.148	-0.044
-285.559	-110.508	0.364	0.076
-284.545	-200.000	-0.001	0.236
-283.530	-200.000	0.045	-0.274
-282.516	167.210	0.208	-0.299
-281.501	-103.252	-0.079	0.019
-280.486	301.984	-0.057	-0.106
-279.472	-114.305	-0.181	-0.035
-278.457	-200.000	0.072	-0.324
-277.443	-200.000	0.052	-0.275
-276.428	-94.439	-0.343	-0.094
-275.413	226.005	-0.054	0.088
-274.399	-14.650	-0.088	0.057
-273.384	611.172	0.091	-0.231
-272.370	-166.379	-0.095	0.004
-271.355	-142.526	-0.346	-0.034
-270.340	161.709	0.389	-0.550
-269.326	383.301	0.154	0.319
-268.311	-14.506	0.174	0.113
-267.297	-92.751	-0.334	0.094
-266.282	283.794	-0.067	-0.121
-265.267	109.895	0.171	-0.207
-264.253	-138.175	0.203	-0.023
-263.238	-28.882	-0.100	0.058
-262.224	-200.000	-0.008	-0.109
-261.209	341.491	0.089	0.176
-260.195	-31.218	0.169	-0.096
-259.180	-200.000	0.026	0.282
-258.165	800.000	0.066	-0.235
-257.151	-200.000	-0.024	0.254
-256.136	800.000	0.021	0.064
-255.122	-80.224	0.128	0.043
-254.107	5.622	0.204	-0.152
-253.092	232.325	0.120	0.198
-252.078	-200.000	-0.034	0.238
-251.063	-103.622	0.271	-0.064
-250.049	-200.000	0.003	-0.433
-249.034	129.582	-0.105	-0.135
-248.019	41.925	-0.053	0.048
-247.005	-200.000	-0.004	0.129
-245.990	-200.000	-0.002	0.024
-244.976	-156.076	0.064	-0.004
-243.961	-100.547	-0.087	0.022
-242.946	-54.182	0.055	0.025
-241.932	38.444	0.214	-0.192
-240.917	-106.141	-0.264	-0.060
-239.903	-200.000	0.011	0.147
-238.888	-200.000	-0.062	-0.331
-237.873	-97.420	0.047	0.012
-236.859	-84.812	0.209	-0.066
-235.844	-122.815	-0.314	-0.051
-234.830	-200.000	0.042	0.258
-233.815	72.201	0.142	-0.150
-232.800	389.893	0.147	-0.307
-231.786	311.762	-0.044	-0.084
-230.771	-200.000	0.040	-0.285
-229.757	-8.810	-0.156	0.106
-228.742	-200.000	-0.014	-0.221
-227.727	-8.300	0.093	0.063
-226.713	52.234	0.254	-0.244
-225.698	70.688	0.126	0.132
-224.684	1.506	0.275	0.200
-223.669	-88.924	-0.034	-0.010
-222.655	304.947	0.026	-0.048
-221.640	-200.000	-0.024	-0.186
-220.625	243.604	-0.253	0.427
-219.611	-200.000	0.227	-0.001
-218.596	-200.000	-0.006	0.209
-217.582	3.215	0.188	0.138
-216.567	-137.613	0.201	0.023
-215.552	-200.000	0.006	0.095
-214.538	-149.342	-0.027	0.002
-213.523	-126.355	0.236	0.035
-212.509	39.484	-0.310	-0.280
-211.494	-136.775	-0.363	0.042
-210.479	120.658	-0.168	0.210
-209.465	223.741	0.185	-0.302
-208.450	-19.939	-0.255	-0.159
-207.436	-41.030	-0.415	0.216
-206.421	275.930	0.113	0.202
-205.406	-89.911	0.424	-0.125
-204.392	130.954	-0.095	0.123
-203.377	51.247	-0.060	-0.058
-202.363	-120.971	0.055	0.009
-201.348	800.000	-0.059	-0.215
-200.333	102.346	-0.123	-0.145
-199.319	106.506	-0.164	-0.196
-198.304	81.393	0.155	-0.169
-197.290	-200.000	0.037	-0.361
-196.275	50.963	0.174	0.166
-195.260	-200.000	0.039	-0.183
-194.246	-68.678	0.178	0.070
-193.231	800.000	-0.053	0.222
-192.217	-84.782	0.240	-0.076
-191.202	-57.184	-0.248	-0.110
-190.187	141.368	0.114	0.152
-189.173	61.506	0.098	0.099
-188.158	598.606	0.087	0.217
-187.144	441.048	-0.120	0.265
-186.129	-183.075	-0.494	-0.009
-185.114	-38.576	0.168	0.089
-184.100	800.000	-0.043	-0.151
-183.085	-125.552	-0.273	-0.042
-182.071	-1.495	0.051	0.036
-181.056	136.947	0.243	0.320
-180.042	-24.788	-0.202	-0.121
-179.027	93.316	-0.152	-0.173
-178.012	-82.669	-0.432	0.141
-176.998	376.251	-0.118	-0.242
-175.983	152.955	-0.236	-0.324
-174.969	-200.000	0.004	-0.036
-173.954	-67.311	-0.127	-0.050
-172.939	-64.336	-0.411	-0.168
-171.925	-200.000	-0.058	-0.273
-170.910	-124.784	-0.185	0.029
-169.896	435.190	0.167	0.366
-168.881	586.311	-0.007	-0.018
-167.866	-91.725	-0.307	0.088
-166.852	135.940	-0.078	0.102
-165.837	-91.669	0.314	-0.090
-164.823	-84.609	0.174	-0.055
-163.808	-123.822	0.323	-0.051
-162.793	401.554	0.067	-0.142
-161.779	-20.167	-0.093	0.057
-160.764	-18.374	-0.119	0.075
-159.750	-200.000	-0.006	-0.383
-158.735	6.535	0.157	-0.117
-157.720	116.523	-0.154	-0.190
-156.706	-108.740	0.366	0.079
-155.691	7.311	-0.152	-0.114
-154.677	150.652	0.177	0.242
-153.662	102.187	0.210	0.247
-152.647	800.000	0.035	-0.119
-151.633	-200.000	-0.002	0.013
-150.618	800.000	0.080	0.302
-149.604	124.676	0.026	0.033
-148.589	-78.084	-0.196	0.068
-147.574	-69.553	0.525	-0.202
-146.560	-200.000	-0.024	0.110
-145.545	-69.562	0.105	-0.041
-144.531	4.658	0.235	-0.174
-143.516	-112.498	0.468	0.094
-142.502	-4.888	-0.103	0.071
-141.487	-163.882	0.096	-0.005
-140.472	135.136	0.330	0.430
-139.458	-96.753	-0.445	-0.117
-138.443	-99.677	0.231	-0.058
-137.429	5.061	-0.098	-0.073
-136.414	187.355	-0.121	-0.181
-135.399	115.435	-0.056	0.069
-134.385	478.767	-0.141	-0.320
-133.370	-200.000	-0.019	-0.376
-132.356	164.799	0.072	-0.103
-131.341	-92.005	0.186	-0.053
-130.326	19.282	0.278	-0.224
-129.312	45.079	0.272	-0.252
-128.297	66.361	-0.252	0.258
-127.283	-84.023	0.241	-0.077
-126.268	237.669	-0.142	-0.237
-125.253	-68.265	-0.153	0.060
-124.239	-47.341	0.342	-0.167
-123.224	60.289	0.163	-0.161
-122.210	-154.408	0.336	-0.023
-121.195	524.470	0.029	0.068
-120.180	-47.049	-0.187	-0.092
-119.166	-200.000	-0.060	0.321
-118.151	-200.000	-0.145	-0.000
-117.137	-18.753	-0.263	-0.165
-116.122	800.000	-0.071	-0.217
-115.107	53.088	0.183	-0.176
-114.093	-57.563	-0.215	0.095
-113.078	-23.743	0.225	0.135
-112.064	42.041	0.052	0.047
-111.049	-200.000	-0.005	-0.128
-110.034	478.762	0.092	-0.209
-109.020	-44.429	-0.250	0.125
-108.005	-14.406	0.064	0.042
-106.991	-19.041	-0.114	0.071
-105.976	-200.000	-0.072	0.366
-104.962	166.007	0.113	0.160
-103.947	-76.892	-0.556	0.195
-102.932	800.000	-0.073	-0.204
-101.918	-200.000	-0.010	-0.110
-100.903	149.256	-0.176	0.239
-99.889	318.981	-0.155	-0.295
-98.874	56.214	0.054	0.053
-97.859	-160.426	0.491	-0.026
-96.845	320.073	-0.105	-0.199
-95.830	10.895	-0.307	-0.235
-94.816	-145.964	-0.214	0.019
-93.801	751.823	-0.015	-0.040
-92.786	115.463	-0.068	-0.083
-91.772	-200.000	-0.071	-0.339
-90.757	51.903	0.305	-0.291
-89.743	800.000	0.085	0.360
-88.728	-200.000	0.032	0.164
-87.713	-166.227	0.275	-0.012
-86.699	28.578	0.147	-0.124
-85.684	0.116	0.276	0.197
-84.670	-92.095	0.149	-0.042
-83.655	-124.168	0.206	0.032
-82.640	-75.492	0.119	0.042
-81.626	-200.000	-0.002	0.067
-80.611	-145.114	0.219	-0.020
-79.597	-200.000	-0.028	0.340
-78.582	-144.816	0.242	0.022
-77.567	35.146	0.135	-0.118
-76.553	52.873	-0.199	-0.190
-75.538	22.809	-0.169	0.139
-74.524	-200.000	0.112	0.509
-73.509	-200.000	-0.048	-0.328
-72.494	-149.742	0.125	0.010
-71.480	-200.000	-0.035	0.242
-70.465	-18.186	-0.235	0.148
-69.451	-114.786	0.200	-0.038
-68.436	-200.000	0.016	0.188
-67.422	22.061	-0.087	-0.071
-66.407	556.630	0.067	-0.162
-65.392	466.919	-0.224	-0.504
-64.378	188.388	-0.087	-0.131
-63.363	214.126	-0.122	0.194
-62.349	-200.000	0.002	0.132
-61.334	-38.771	-0.823	-0.435
-60.319	102.272	0.251	-0.294
-59.305	-200.000	0.070	-0.823
-58.290	208.187	0.503	0.787
-57.276	248.375	0.716	1.213
-56.261	-200.000	75.860	537.369
-55.246	553.334	1303.755	3138.427
-54.232	143.942	2541.743	3393.869
-53.217	110.627	2373.728	2858.406
-52.203	49.592	2112.229	1991.694
-51.188	44.375	2020.319	1857.432
-50.173	42.507	2001.468	1823.088
-49.159	54.726	2039.229	1969.482
-48.144	59.840	2059.767	2036.012
-47.130	45.119	2024.447	1867.742
-46.115	42.376	2013.334	1832.408
-45.100	42.206	2010.674	1828.370
-44.086	42.222	2007.991	1826.001
-43.071	42.167	2005.593	1823.249
-42.057	42.184	2003.472	1821.404
-41.042	42.162	2002.103	1819.888
-40.027	42.168	1999.800	1817.775
-39.013	42.184	1997.941	1816.153
-37.998	42.185	1995.916	1814.256
-36.984	42.117	1994.558	1812.327
-35.969	42.181	1992.751	1811.191
-34.954	42.326	1989.981	1809.915
-33.940	42.361	1988.907	1809.177
-32.925	42.268	1987.752	1807.220
-31.911	42.370	1985.375	1805.905
-30.896	42.316	1983.409	1803.561
-29.881	42.296	1982.628	1802.597
-28.867	42.335	1980.616	1801.045
-27.852	42.357	1978.985	1799.695
-26.838	42.350	1976.634	1797.417
-25.823	42.332	1974.558	1795.299
-24.809	42.284	1973.476	1793.816
-23.794	42.410	1971.545	1793.117
-22.779	42.418	1969.395	1791.158
-21.765	42.318	1968.317	1789.212
-20.750	42.308	1966.576	1787.473
-19.736	42.289	1965.430	1786.188
-18.721	42.327	1963.597	1784.791
-17.706	42.259	1961.982	1782.652
-16.692	42.366	1959.957	1781.687
-15.677	42.290	1958.767	1779.861
-14.663	42.298	1957.385	1778.603
-13.648	42.274	1956.436	1777.461
-12.633	42.283	1955.000	1776.167
-11.619	42.368	1953.509	1775.493
-10.604	42.272	1952.056	1773.253
-9.590	42.297	1950.842	1772.303
-8.575	42.286	1949.825	1771.212
-7.560	42.349	1947.916	1769.963
-6.546	42.321	1946.552	1768.399
-5.531	42.355	1945.293	1767.487
-4.517	42.219	1944.473	1765.480
-3.502	42.303	1942.912	1764.727
-2.487	42.322	1941.594	1763.626
-1.473	42.324	1940.886	1762.930
-0.458	42.503	1936.186	1760.160
0.556	41.495	1918.348	1736.796
1.571	37.780	1898.768	1686.835
2.586	33.597	1920.819	1669.539
3.600	32.277	1957.989	1689.840
4.615	31.107	1955.010	1676.613
5.629	23.388	1847.369	1518.316
6.644	9.255	1713.073	1294.718
7.659	1.666	1667.129	1200.207
8.673	1.011	1662.991	1191.974
9.688	0.980	1661.772	1190.750
10.702	0.885	1660.053	1188.667
11.717	0.773	1657.423	1185.800
12.731	1.082	1657.421	1188.113
13.746	9.335	1677.181	1267.434
14.761	20.727	1702.668	1377.244
15.775	24.641	1708.507	1412.853
16.790	24.507	1707.572	1410.897
17.804	24.633	1706.747	1411.089
18.819	24.645	1705.879	1410.339
19.834	24.781	1704.921	1410.493
20.848	25.002	1704.394	1411.672
21.863	24.921	1703.929	1410.523
22.877	24.886	1702.623	1409.047
23.892	24.942	1701.945	1408.799
24.907	24.924	1700.971	1407.724
25.921	24.970	1699.638	1406.864
26.936	24.896	1698.829	1405.488
27.950	24.935	1698.135	1405.092
28.965	24.946	1697.181	1404.263
29.980	24.994	1696.033	1403.571
30.994	24.966	1695.010	1402.377
32.009	24.960	1693.783	1401.193
33.023	24.971	1692.832	1400.365
34.038	24.932	1692.118	1399.349
35.053	24.928	1690.951	1398.226
36.067	24.883	1690.145	1397.084
37.082	24.883	1688.875	1395.915
38.096	24.897	1687.854	1395.051
39.111	25.033	1686.657	1394.999
40.126	25.074	1686.255	1394.864
41.140	24.992	1685.345	1393.353
42.155	24.978	1684.194	1392.166
43.169	24.956	1683.446	1391.251
44.184	24.974	1681.974	1390.051
45.199	25.059	1681.360	1390.080
46.213	24.924	1680.348	1388.075
47.228	24.801	1679.716	1386.481
48.242	24.956	1677.873	1386.030
49.257	25.026	1676.746	1385.518
50.271	24.959	1675.439	1383.804
51.286	24.910	1674.742	1382.726
52.301	24.979	1672.884	1381.600
53.315	24.923	1671.496	1379.899
54.330	24.910	1670.507	1378.862
55.344	24.958	1668.822	1377.719
56.359	25.023	1667.240	1376.790
57.374	24.893	1666.859	1375.352
58.388	25.015	1665.313	1374.895
59.403	25.011	1663.945	1373.616
60.417	25.060	1662.908	1373.011
61.432	24.930	1662.281	1371.376
62.447	25.030	1661.157	1371.093
63.461	25.002	1660.364	1370.102
64.476	25.036	1658.867	1369.007
65.490	25.044	1658.348	1368.516
66.505	24.995	1656.959	1366.876
67.520	25.001	1656.057	1366.054
68.534	25.018	1655.180	1365.340
69.549	25.039	1653.940	1364.356
70.563	25.120	1652.656	1363.794
71.578	25.036	1651.835	1362.354
72.593	25.097	1650.726	1361.783
73.607	25.054	1650.249	1360.947
74.622	25.055	1648.543	1359.426
75.636	25.021	1648.199	1358.766
76.651	25.033	1647.380	1358.058
77.666	24.998	1646.353	1356.826
78.680	25.001	1646.065	1356.494
79.695	24.979	1645.119	1355.426
80.709	25.056	1643.439	1354.506
81.724	25.004	1643.169	1353.768
82.739	25.039	1642.064	1353.003
83.753	25.020	1641.284	1352.094
84.768	25.064	1639.748	1351.046
85.782	24.959	1639.419	1349.864
86.797	25.019	1637.712	1348.785
87.812	25.077	1637.156	1348.647
88.826	25.050	1636.357	1347.667
89.841	25.116	1635.043	1346.964
90.855	25.026	1634.665	1345.853
91.870	25.024	1633.177	1344.496
92.884	25.036	1632.375	1343.805
93.899	25.074	1631.550	1343.297
94.914	25.041	1630.380	1341.967
95.928	25.016	1629.211	1340.695
96.943	25.080	1627.543	1339.681
97.957	25.038	1626.500	1338.393
98.972	25.066	1624.956	1337.213
99.987	25.052	1623.423	1335.727
101.001	25.118	1622.136	1335.040
102.016	24.990	1620.445	1332.585
103.030	25.016	1619.637	1331.995
104.045	24.969	1618.387	1330.496
105.060	24.998	1616.999	1329.456
106.074	25.002	1615.661	1328.268
107.089	25.117	1614.567	1328.098
108.103	25.094	1613.608	1327.024
109.118	25.063	1612.573	1325.823
110.133	25.059	1611.357	1324.676
111.147	25.136	1610.067	1324.070
112.162	25.127	1608.939	1322.958
113.176	25.098	1608.149	1321.975
114.191	25.112	1607.054	1321.064
115.206	25.090	1605.873	1319.818
116.220	25.104	1604.881	1318.988
117.235	25.094	1603.800	1317.904
118.249	25.112	1602.421	1316.792
119.264	25.079	1601.585	1315.747
120.279	25.133	1599.998	1314.723
121.293	25.205	1599.070	1314.371
122.308	25.048	1597.999	1312.223
123.322	25.169	1596.191	1311.504
124.337	25.208	1595.115	1310.794
125.352	25.188	1594.267	1309.830
126.366	25.172	1593.512	1308.980
127.381	25.273	1592.601	1308.852
128.395	25.206	1591.800	1307.590
129.410	25.232	1590.622	1306.695
130.424	25.180	1589.352	1305.158
131.439	25.288	1588.073	1304.780
132.454	25.212	1587.496	1303.638
133.468	25.206	1585.690	1301.995
134.483	25.284	1584.121	1301.154
135.497	25.308	1583.090	1300.365
136.512	25.211	1582.617	1299.159
137.527	25.223	1581.129	1297.909
138.541	25.263	1580.101	1297.242
139.556	25.283	1578.983	1296.357
140.570	25.256	1577.518	1294.845
141.585	25.220	1576.349	1293.510
142.600	25.224	1575.003	1292.315
143.614	25.210	1574.280	1291.513
144.629	25.246	1573.327	1290.869
145.643	25.186	1572.359	1289.536
146.658	25.160	1570.722	1287.891
147.673	25.157	1569.185	1286.494
148.687	25.198	1568.075	1285.763
149.702	25.255	1567.121	1285.279
150.716	25.179	1565.842	1283.573
151.731	25.225	1564.643	1282.804
152.746	25.218	1563.368	1281.590
153.760	25.246	1562.083	1280.624
154.775	25.165	1561.564	1279.509
155.789	25.294	1560.047	1279.075
156.804	25.247	1559.161	1277.900
157.819	25.163	1558.340	1276.514
158.833	25.296	1556.716	1276.016
159.848	25.243	1556.501	1275.352
160.862	25.315	1555.390	1274.843
161.877	25.281	1554.280	1273.576
162.892	25.226	1553.747	1272.637
163.906	25.356	1552.406	1272.347
164.921	25.246	1551.320	1270.564
165.935	25.360	1550.530	1270.610
166.950	25.292	1549.867	1269.476
167.964	25.315	1548.552	1268.448
168.979	25.305	1547.727	1267.589
169.994	25.277	1547.136	1266.794
171.008	25.386	1545.788	1266.347
172.023	25.402	1544.682	1265.440
173.037	25.322	1543.498	1263.795
174.052	25.292	1543.182	1263.215
175.067	25.331	1541.841	1262.284
176.081	25.356	1541.072	1261.715
177.096	25.374	1539.978	1260.833
178.110	25.349	1539.021	1259.764
179.125	25.335	1537.806	1258.559
180.140	25.351	1536.846	1257.774
181.154	25.454	1536.096	1257.773
182.169	25.375	1535.207	1256.380
183.183	25.444	1534.015	1255.775
184.198	25.314	1533.302	1254.169
185.213	25.413	1532.520	1254.115
186.227	25.385	1531.517	1252.984
187.242	25.471	1530.423	1252.580
188.256	25.437	1529.837	1251.754
189.271	25.428	1528.908	1250.815
190.286	25.481	1528.409	1250.668
191.300	25.462	1527.370	1249.573
192.315	25.489	1526.557	1248.987
193.329	25.396	1525.614	1247.459
194.344	25.344	1524.926	1246.428
195.359	25.372	1524.045	1245.788
196.373	25.476	1522.798	1245.381
197.388	25.426	1522.334	1244.544
198.402	25.424	1520.956	1243.295
199.417	25.327	1520.135	1241.838
200.432	25.432	1519.059	1241.580
201.446	25.341	1518.965	1240.763
202.461	25.340	1518.280	1240.087
203.475	25.414	1517.023	1239.462
204.490	25.448	1515.734	1238.532
205.504	25.452	1515.288	1238.089
206.519	25.481	1514.071	1237.179
207.534	25.460	1513.580	1236.523
208.548	25.583	1512.660	1236.510
209.563	25.460	1512.107	1235.102
210.577	25.433	1510.613	1233.589
211.592	25.470	1510.003	1233.233
212.607	25.459	1509.517	1232.657
213.621	25.539	1508.724	1232.447
214.636	25.585	1507.956	1232.022
215.650	25.585	1506.873	1231.028
216.665	25.529	1506.001	1229.827
217.680	25.604	1504.932	1229.356
218.694	25.543	1504.597	1228.559
219.709	25.484	1503.828	1227.418
220.723	25.651	1502.965	1227.744
221.738	25.544	1502.541	1226.561
222.753	25.573	1501.081	1225.459
223.767	25.430	1500.458	1223.867
224.782	25.476	1499.495	1223.286
225.796	25.588	1498.572	1223.184
226.811	25.619	1497.808	1222.665
227.826	25.585	1497.783	1222.308
228.840	25.594	1496.919	1221.554
229.855	25.565	1495.945	1220.455
230.869	25.693	1495.028	1220.467
231.884	25.604	1494.161	1219.049
232.899	25.657	1493.122	1218.450
233.913	25.666	1491.697	1217.239
234.928	25.472	1491.076	1215.311
235.942	25.727	1489.818	1215.907
236.957	25.747	1488.659	1214.985
237.972	25.643	1487.765	1213.449
238.986	25.721	1486.802	1213.079
240.001	25.596	1486.080	1211.539
241.015	25.629	1485.484	1211.174
242.030	25.745	1484.023	1210.651
243.045	25.791	1482.875	1209.916
244.059	25.907	1481.887	1209.782
245.074	25.817	1481.329	1208.613
246.088	25.888	1480.788	1208.542
247.103	25.826	1479.994	1207.372
248.117	25.848	1479.281	1206.836
249.132	25.861	1478.509	1206.183
250.147	25.792	1477.756	1205.001
251.161	25.850	1477.046	1204.704
252.176	25.854	1476.215	1203.944
253.190	25.926	1475.454	1203.700
254.205	25.935	1474.785	1203.106
255.220	25.908	1473.853	1202.063
256.234	25.962	1472.995	1201.612
257.249	25.880	1472.536	1200.586
258.263	25.921	1471.870	1200.209
259.278	25.976	1470.728	1199.536
260.293	25.955	1469.733	1198.483
261.307	25.994	1469.016	1198.049
262.322	25.862	1468.513	1196.657
263.336	25.964	1467.858	1196.696
264.351	25.851	1466.876	1195.038
265.366	26.012	1465.817	1195.137
266.380	26.028	1464.817	1194.319
267.395	25.944	1464.277	1193.218
268.409	25.963	1463.347	1192.481
269.424	25.943	1462.557	1191.600
270.439	26.005	1461.378	1190.942
271.453	26.066	1460.203	1190.284
272.468	26.059	1459.814	1189.817
273.482	26.064	1459.141	1189.196
274.497	25.963	1458.783	1188.128
275.512	25.980	1457.595	1187.172
276.526	26.030	1457.140	1187.025
277.541	26.003	1456.299	1186.054
278.555	26.063	1455.092	1185.359
279.570	26.059	1454.572	1184.806
280.585	26.249	1452.997	1184.668
281.599	26.147	1453.032	1183.921
282.614	26.087	1452.176	1182.726
283.628	26.071	1450.945	1181.516
284.643	26.071	1450.028	1180.663
285.657	26.149	1449.173	1180.370
286.672	26.142	1448.298	1179.509
287.687	26.090	1447.597	1178.491
288.701	26.127	1446.672	1177.877
289.716	26.042	1446.303	1176.917
290.730	26.207	1445.435	1177.185
291.745	26.145	1444.270	1175.726
292.760	26.129	1443.551	1174.933
293.774	26.191	1442.546	1174.415
294.789	26.225	1441.816	1173.936
295.803	26.189	1441.145	1173.055
296.818	26.319	1440.438	1173.217
297.833	26.218	1439.346	1171.569
298.847	26.265	1438.501	1171.082
299.862	26.266	1437.689	1170.325
300.876	26.293	1436.905	1169.757
301.891	26.241	1435.908	1168.507
302.906	26.224	1435.745	1168.159
303.920	26.356	1434.669	1168.031
304.935	26.470	1433.804	1167.963
305.949	26.443	1432.887	1166.940
306.964	26.327	1432.541	1165.808
307.979	26.400	1431.299	1165.162
308.993	26.510	1430.099	1164.788
310.008	26.444	1429.587	1163.842
311.022	26.391	1428.802	1162.759
312.037	26.419	1427.838	1162.054
313.052	26.426	1427.071	1161.375
314.066	26.381	1426.302	1160.356
315.081	26.377	1425.712	1159.749
316.095	26.466	1424.537	1159.258
317.110	26.366	1423.354	1157.550
318.125	26.486	1422.374	1157.423
319.139	26.443	1421.725	1156.513
320.154	26.495	1420.636	1155.862
321.168	26.460	1420.179	1155.160
322.183	26.355	1419.462	1153.807
323.197	26.493	1418.314	1153.655
324.212	26.469	1417.528	1152.757
325.227	26.446	1416.645	1151.788
326.241	26.503	1415.797	1151.361
327.256	26.596	1415.041	1151.239
328.270	26.636	1414.392	1150.860
329.285	26.574	1413.728	1149.826
330.300	26.545	1412.861	1148.833
331.314	26.593	1411.761	1148.144
332.329	26.624	1411.001	1147.621
333.343	26.513	1410.633	1146.512
334.358	26.635	1409.870	1146.566
335.373	26.727	1409.209	1146.507
336.387	26.630	1408.294	1145.049
337.402	26.655	1407.847	1144.741
338.416	26.613	1406.990	1143.682
339.431	26.713	1406.854	1144.101
340.446	26.687	1406.292	1143.374
341.460	26.585	1405.051	1141.625
342.475	26.682	1404.122	1141.380
343.489	26.757	1403.182	1140.987
344.504	26.762	1402.252	1140.162
345.519	26.676	1401.484	1138.896
346.533	26.689	1400.616	1138.167
347.548	26.787	1399.859	1138.072
348.562	26.822	1398.692	1137.238
349.577	26.758	1398.065	1136.230
350.592	26.821	1397.607	1136.149
351.606	26.902	1396.244	1135.445
352.621	26.738	1395.564	1133.770
353.635	26.729	1394.697	1132.909
354.650	26.869	1393.653	1132.833
355.665	26.851	1393.099	1132.172
356.679	26.784	1391.886	1130.668
357.694	26.952	1390.577	1130.551
358.708	26.944	1389.803	1129.771
359.723	26.861	1388.794	1128.332
360.738	26.838	1387.545	1127.076
361.752	26.759	1386.758	1125.848
362.767	26.944	1385.531	1125.899
363.781	26.902	1384.742	1124.901
364.796	26.874	1384.374	1124.324
365.810	26.979	1383.067	1123.818
366.825	26.990	1382.620	1123.419
367.840	26.930	1382.137	1122.557
368.854	27.070	1380.896	1122.318
369.869	27.075	1380.847	1122.207
370.883	27.063	1380.423	1121.692
371.898	27.159	1379.425	1121.370
372.913	27.044	1378.791	1120.048
373.927	27.019	1377.995	1119.150
374.942	27.100	1376.838	1118.607
375.956	27.051	1376.589	1118.006
376.971	27.149	1375.630	1117.729
377.986	27.079	1374.549	1116.322
379.000	27.167	1374.186	1116.468
380.015	27.113	1373.671	1115.622
381.029	27.156	1372.864	1115.132
382.044	27.087	1372.161	1114.035
383.059	27.129	1371.209	1113.425
384.073	27.205	1370.680	1113.359
385.088	27.202	1370.220	1112.873
386.102	27.204	1369.750	1112.403
387.117	27.258	1368.506	1111.622
388.132	27.211	1367.988	1110.821
389.146	27.210	1367.344	1110.192
390.161	27.171	1366.989	1109.566
391.175	27.276	1365.891	1109.215
392.190	27.356	1365.472	1109.264
393.205	27.262	1364.655	1107.931
394.219	27.158	1363.671	1106.400
395.234	27.239	1362.614	1105.941
396.248	27.292	1362.028	1105.686
397.263	27.274	1360.633	1104.350
398.278	27.301	1359.680	1103.641
399.292	27.389	1358.909	1103.448
400.307	27.392	1357.991	1102.624
401.321	27.435	1356.887	1101.894
402.336	27.428	1355.624	1100.728
403.350	27.480	1354.481	1100.016
404.365	27.373	1353.892	1098.794
405.380	27.394	1353.163	1098.234
406.394	27.532	1352.599	1098.508
407.409	27.316	1352.154	1096.750
408.423	27.501	1350.938	1096.780
409.438	27.569	1350.349	1096.615
410.453	27.618	1349.417	1096.051
411.467	27.611	1348.559	1095.216
412.482	27.497	1348.672	1094.528
413.496	27.621	1347.578	1094.284
414.511	27.498	1347.212	1093.153
415.526	27.535	1346.415	1092.632
416.540	27.513	1345.816	1091.918
417.555	27.547	1345.271	1091.582
418.569	27.534	1344.617	1090.876
419.584	27.581	1344.426	1090.908
420.599	27.602	1343.627	1090.290
421.613	75.603	1321.677	1345.776
422.628	76.242	1318.480	1345.901
