DTS Sentinel unit serial number:	SN413079Multiplexer serial number:	ORYXHardware model number:	OX4-SRSoftware version number:	ORYX F/W v4.00 Oryx Data Collector v3.7.2.0data status	okinstallation	princeton_trtdifferential loss correction	single-endedforward channel	channel 4reverse channel	N/Adate	2019/09/13time	22:05:35forward acquisition time	60.00reverse acquisition time	0.00gamma	496.2192k internal	0.2320k external	0.2320temperature offset calibration	1.0139default loss term (dB/km)	0.3790temperature slope calibration	1.0000multiplexer offset coefficient	1.0000multiplexer slope coefficient	1.0000fibre end	0.00T internal ref (°C)	27.94T ext. ref 1 (°C)	3.25T ext. ref 2 (°C)	22.69length (m)	temperature (°C)	Stokes	anti-Stokes-747.200	-7.593	-0.161	0.110
-746.185	-41.324	0.264	0.137
-745.171	135.653	-0.138	0.182
-744.156	-124.121	0.090	0.014
-743.142	-87.787	0.071	-0.022
-742.127	-22.775	0.066	0.041
-741.112	6.295	0.011	0.008
-740.098	-90.945	-0.317	-0.092
-739.083	-141.194	0.284	0.029
-738.069	232.239	-0.120	0.200
-737.054	639.250	-0.158	0.406
-736.039	-89.605	-0.180	-0.053
-735.025	34.647	-0.213	-0.188
-734.010	-7.249	-0.195	-0.134
-732.996	99.905	-0.316	-0.370
-731.981	-71.584	-0.111	0.042
-730.966	-47.952	-0.211	0.103
-729.952	-87.603	-0.252	0.077
-728.937	-111.546	-0.313	-0.064
-727.923	-200.000	0.036	-0.338
-726.908	-27.836	0.352	-0.206
-725.894	327.963	0.118	-0.228
-724.879	-200.000	-0.109	-0.515
-723.864	198.038	0.176	-0.272
-722.850	-98.006	0.390	-0.102
-721.835	-40.383	-0.071	-0.037
-720.821	-145.962	-0.373	-0.033
-719.806	17.258	-0.134	0.107
-718.791	-200.000	-0.020	0.269
-717.777	-200.000	0.025	-0.441
-716.762	104.247	0.286	-0.340
-715.748	-200.000	-0.008	-0.130
-714.733	253.176	-0.124	-0.213
-713.718	688.260	-0.120	-0.317
-712.704	-32.459	0.045	-0.025
-711.689	-79.832	-0.433	0.147
-710.675	6.225	0.105	-0.079
-709.660	339.954	0.045	-0.088
-708.645	76.743	0.224	-0.239
-707.631	-37.168	0.352	0.190
-706.616	267.788	-0.050	0.088
-705.602	704.152	0.080	0.213
-704.587	-117.849	-0.308	0.056
-703.572	-13.491	0.379	-0.248
-702.558	-97.756	-0.084	0.022
-701.543	739.575	-0.054	-0.147
-700.529	-118.206	0.242	0.044
-699.514	7.376	-0.165	-0.124
-698.499	34.496	-0.221	0.195
-697.485	168.678	0.118	-0.169
-696.470	494.912	-0.081	0.189
-695.456	161.611	0.194	0.274
-694.441	2.904	0.359	-0.263
-693.426	-59.311	-0.255	-0.111
-692.412	-185.869	0.214	-0.003
-691.397	335.346	0.204	0.400
-690.383	-200.000	0.021	-0.183
-689.368	-200.000	0.004	0.234
-688.354	-75.071	-0.382	-0.138
-687.339	-200.000	0.043	-0.216
-686.324	-41.800	-0.267	-0.138
-685.310	-58.532	0.252	-0.110
-684.295	-0.635	-0.050	-0.036
-683.281	391.886	0.165	-0.346
-682.266	-28.741	-0.197	-0.114
-681.251	401.064	-0.080	0.169
-680.237	-34.087	-0.273	-0.151
-679.222	-105.323	0.193	0.044
-678.208	-161.809	-0.198	0.010
-677.193	-30.190	-0.259	-0.149
-676.178	800.000	-0.103	0.400
-675.164	146.568	-0.249	0.337
-674.149	-99.509	-0.178	0.045
-673.135	84.459	0.128	-0.141
-672.120	382.877	-0.081	0.169
-671.105	-20.866	0.028	-0.018
-670.091	127.626	0.136	-0.174
-669.076	120.210	-0.072	-0.090
-668.062	106.291	0.278	-0.332
-667.047	134.322	0.243	0.318
-666.032	-0.875	0.045	-0.032
-665.018	-152.663	0.173	-0.012
-664.003	115.007	-0.048	-0.059
-662.989	87.073	-0.161	0.179
-661.974	-13.027	-0.133	0.087
-660.959	-200.000	0.007	0.133
-659.945	131.281	-0.214	-0.277
-658.930	-142.625	0.109	-0.011
-657.916	-77.886	-0.069	-0.024
-656.901	-200.000	-0.043	-0.400
-655.886	-127.429	0.072	-0.010
-654.872	800.000	-0.064	0.186
-653.857	186.980	0.061	0.091
-652.843	-65.123	0.150	0.061
-651.828	-57.701	0.309	0.136
-650.814	800.000	0.104	0.412
-649.799	-200.000	-0.014	0.120
-648.784	213.202	-0.080	-0.128
-647.770	-95.627	-0.288	-0.078
-646.755	227.523	-0.072	-0.117
-645.741	-86.553	-0.172	-0.053
-644.726	65.096	0.188	0.192
-643.711	6.955	0.151	-0.114
-642.697	-26.438	0.193	0.114
-641.682	-30.181	0.118	0.068
-640.668	514.931	-0.060	-0.141
-639.653	357.863	0.171	-0.345
-638.638	-4.993	0.058	0.040
-637.624	99.402	0.096	0.112
-636.609	-98.066	0.127	0.033
-635.595	-98.026	0.244	0.063
-634.580	12.656	-0.222	0.172
-633.565	25.811	-0.098	-0.082
-632.551	122.087	0.056	0.070
-631.536	138.411	-0.197	-0.261
-630.522	-145.705	-0.386	-0.035
-629.507	466.478	-0.061	-0.138
-628.492	-25.201	0.228	0.136
-627.478	800.000	0.073	0.295
-626.463	121.520	0.172	0.216
-625.449	-200.000	0.025	-0.147
-624.434	-200.000	-0.009	-0.189
-623.419	-13.551	0.146	0.095
-622.405	800.000	0.009	0.027
-621.390	-59.970	-0.388	0.167
-620.376	-83.207	0.033	0.011
-619.361	-200.000	0.024	0.133
-618.346	800.000	-0.149	0.414
-617.332	124.096	0.153	0.194
-616.317	19.281	-0.096	0.077
-615.303	42.284	-0.231	0.212
-614.288	747.859	0.061	-0.165
-613.273	192.628	-0.099	-0.151
-612.259	45.130	-0.052	0.049
-611.244	-200.000	-0.020	0.269
-610.230	197.965	-0.088	0.136
-609.215	238.269	-0.086	0.144
-608.201	103.427	0.230	0.272
-607.186	289.292	0.044	-0.081
-606.171	-115.183	-0.116	0.022
-605.157	-166.773	-0.124	-0.005
-604.142	119.132	-0.042	0.052
-603.128	-82.096	0.327	0.107
-602.113	-200.000	0.024	0.223
-601.098	-200.000	-0.012	-0.197
-600.084	12.625	-0.238	-0.185
-599.069	800.000	-0.014	0.058
-598.055	181.236	0.110	-0.163
-597.040	154.433	-0.040	0.056
-596.025	-200.000	-0.039	-0.267
-595.011	-78.465	-0.238	-0.082
-593.996	-200.000	0.019	0.140
-592.982	-3.776	0.071	0.049
-591.967	121.980	-0.036	-0.046
-590.952	-14.262	-0.280	0.182
-589.938	71.571	0.093	0.097
-588.923	-72.968	-0.397	-0.147
-587.909	91.659	0.062	-0.071
-586.894	32.083	0.070	0.060
-585.879	-12.690	-0.046	-0.030
-584.865	800.000	0.042	-0.130
-583.850	-163.900	-0.464	-0.022
-582.836	-200.000	-0.020	0.145
-581.821	69.477	0.192	-0.199
-580.806	-54.344	-0.064	0.029
-579.792	-200.000	0.009	0.289
-578.777	-88.160	0.233	-0.070
-577.763	800.000	0.049	-0.202
-576.748	283.353	0.119	-0.215
-575.733	-81.317	0.184	0.061
-574.719	-16.499	-0.292	-0.186
-573.704	-120.053	0.344	-0.059
-572.690	185.278	0.065	-0.097
-571.675	800.000	0.004	0.012
-570.661	800.000	0.084	-0.299
-569.646	29.832	0.133	-0.114
-568.631	-27.399	-0.217	0.126
-567.617	-200.000	-0.033	0.366
-566.602	-58.920	0.149	-0.065
-565.588	-85.394	-0.228	-0.071
-564.573	-56.173	-0.096	-0.043
-563.558	-200.000	-0.004	-0.397
-562.544	280.990	-0.154	0.276
-561.529	800.000	0.048	0.144
-560.515	-200.000	0.007	0.186
-559.500	47.079	0.160	-0.150
-558.485	800.000	-0.072	0.308
-557.471	-105.870	-0.340	-0.077
-556.456	-89.431	0.182	-0.054
-555.442	800.000	-0.013	-0.039
-554.427	176.122	-0.089	0.130
-553.412	-87.505	0.331	0.101
-552.398	18.034	0.154	0.123
-551.383	185.582	0.108	-0.161
-550.369	40.537	0.151	-0.136
-549.354	47.069	0.086	0.080
-548.339	-60.297	0.031	0.013
-547.325	269.782	-0.100	0.176
-546.310	-200.000	-0.040	0.225
-545.296	-44.929	-0.129	0.064
-544.281	-167.647	0.150	0.006
-543.266	43.434	0.292	0.268
-542.252	-200.000	0.002	-0.080
-541.237	270.882	-0.161	-0.285
-540.223	-15.695	0.321	-0.205
-539.208	113.186	0.051	-0.062
-538.193	-56.332	-0.162	-0.072
-537.179	-48.100	0.058	0.028
-536.164	800.000	-0.078	-0.341
-535.150	449.163	0.089	0.197
-534.135	-187.124	0.321	-0.004
-533.121	-104.607	0.077	-0.018
-532.106	-200.000	0.011	0.468
-531.091	-200.000	-0.002	-0.246
-530.077	98.513	0.182	-0.211
-529.062	128.433	-0.237	-0.303
-528.048	-31.075	0.143	-0.081
-527.033	-137.225	0.227	-0.026
-526.018	-5.327	-0.119	0.082
-525.004	130.920	-0.091	-0.117
-523.989	241.135	-0.273	-0.457
-522.975	37.517	0.173	0.154
-521.960	146.610	0.050	0.068
-520.945	14.950	-0.175	-0.138
-519.931	-200.000	0.009	0.059
-518.916	-200.000	-0.012	-0.208
-517.902	-133.702	0.121	0.015
-516.887	-200.000	-0.008	0.139
-515.872	-98.190	-0.233	0.060
-514.858	-5.668	-0.235	-0.162
-513.843	531.276	0.092	0.218
-512.829	-200.000	-0.020	-0.198
-511.814	-36.109	-0.086	0.047
-510.799	64.768	0.104	-0.105
-509.785	800.000	-0.005	0.018
-508.770	329.868	0.217	0.418
-507.756	455.715	0.150	0.334
-506.741	47.805	0.166	-0.155
-505.726	-91.797	0.187	-0.053
-504.712	94.814	-0.125	0.142
-503.697	-200.000	0.021	0.185
-502.683	-18.341	0.212	-0.133
-501.668	-134.503	-0.363	-0.044
-500.653	-35.448	0.342	-0.186
-499.639	-31.208	0.295	-0.167
-498.624	351.500	0.044	-0.088
-497.610	103.652	0.240	-0.282
-496.595	-156.967	-0.108	-0.007
-495.581	-7.628	0.128	0.086
-494.566	28.658	0.158	-0.134
-493.551	-102.535	0.432	-0.103
-492.537	-200.000	-0.008	-0.245
-491.522	-76.617	0.041	0.014
-490.508	-40.099	-0.106	-0.055
-489.493	-200.000	0.001	-0.324
-488.478	-10.085	-0.265	0.176
-487.464	-200.000	0.031	0.151
-486.449	113.390	-0.121	0.147
-485.435	-200.000	0.016	-0.113
-484.420	800.000	0.087	-0.273
-483.405	-100.695	0.173	0.043
-482.391	-99.979	-0.154	-0.038
-481.376	-157.129	0.250	-0.015
-480.362	-200.000	0.020	0.111
-479.347	-64.905	-0.079	-0.032
-478.332	-43.223	-0.097	0.049
-477.318	-185.828	0.162	0.002
-476.303	210.318	-0.040	-0.063
-475.289	800.000	0.049	-0.150
-474.274	84.093	-0.123	0.135
-473.259	38.302	0.091	-0.081
-472.245	-6.511	0.272	-0.185
-471.230	-110.568	-0.275	-0.057
-470.216	-200.000	-0.020	0.205
-469.201	93.967	0.232	-0.264
-468.186	25.894	-0.142	-0.118
-467.172	31.908	0.123	-0.106
-466.157	-72.015	0.047	0.017
-465.143	-200.000	-0.023	0.103
-464.128	83.467	0.196	0.213
-463.113	-106.729	0.272	0.060
-462.099	800.000	-0.015	0.063
-461.084	-200.000	-0.012	0.093
-460.070	-200.000	-0.032	-0.353
-459.055	-103.625	0.349	-0.082
-458.040	-93.104	0.060	0.017
-457.026	-33.117	-0.146	0.081
-456.011	274.974	-0.131	-0.232
-454.997	298.714	0.036	0.066
-453.982	698.463	0.058	0.152
-452.968	-200.000	-0.050	-0.300
-451.953	-200.000	0.039	-0.234
-450.938	800.000	-0.059	-0.197
-449.924	-38.990	0.221	0.116
-448.909	153.564	-0.090	-0.124
-447.895	-95.206	-0.080	0.021
-446.880	-65.581	-0.193	0.077
-445.865	-104.015	-0.115	-0.027
-444.851	-131.942	0.128	-0.017
-443.836	-200.000	-0.017	0.204
-442.822	-108.642	0.256	0.055
-441.807	-200.000	-0.081	-0.437
-440.792	179.919	-0.134	-0.197
-439.778	-200.000	0.012	-0.097
-438.763	-157.677	-0.216	-0.013
-437.749	800.000	-0.124	-0.373
-436.734	112.770	-0.059	0.071
-435.719	633.439	0.133	-0.336
-434.705	-125.372	-0.382	-0.058
-433.690	-158.619	0.239	0.014
-432.676	800.000	-0.035	-0.137
-431.661	-103.642	0.180	0.042
-430.646	-9.158	-0.428	-0.286
-429.632	-8.259	0.079	-0.053
-428.617	393.127	-0.145	0.302
-427.603	44.819	0.167	-0.154
-426.588	-200.000	-0.012	0.051
-425.573	-200.000	-0.004	-0.033
-424.559	53.538	0.169	0.162
-423.544	-105.067	-0.146	0.033
-422.530	-62.251	-0.223	0.093
-421.515	91.260	0.215	-0.242
-420.500	800.000	0.062	-0.176
-419.486	-9.645	-0.231	-0.154
-418.471	-126.498	-0.328	-0.049
-417.457	800.000	-0.108	0.471
-416.442	493.034	0.020	0.045
-415.428	6.420	0.113	-0.084
-414.413	73.059	0.155	0.162
-413.398	58.928	0.115	-0.113
-412.384	413.830	-0.112	-0.239
-411.369	22.039	-0.042	-0.034
-410.355	326.020	-0.092	0.176
-409.340	351.257	0.122	0.242
-408.325	444.919	-0.055	0.120
-407.311	-200.000	-0.036	-0.496
-406.296	-133.103	0.288	0.036
-405.282	-200.000	-0.004	0.126
-404.267	-9.615	0.176	-0.117
-403.252	-148.308	0.337	-0.028
-402.238	204.853	-0.206	0.319
-401.223	-178.347	0.187	0.004
-400.209	51.111	-0.147	-0.139
-399.194	-107.360	0.262	0.057
-398.179	-200.000	-0.002	-0.220
-397.165	158.410	-0.145	0.201
-396.150	24.828	-0.136	-0.113
-395.136	302.350	-0.110	-0.203
-394.121	64.713	0.126	0.126
-393.106	-200.000	-0.017	0.317
-392.092	119.125	0.182	0.224
-391.077	800.000	0.051	-0.203
-390.063	-200.000	-0.006	0.072
-389.048	-81.787	-0.105	0.034
-388.033	243.942	0.124	-0.208
-387.019	255.418	-0.159	0.272
-386.004	-198.936	-0.127	-0.001
-384.990	463.484	0.032	-0.071
-383.975	-167.158	0.331	0.013
-382.960	231.666	-0.092	0.151
-381.946	-200.000	-0.006	-0.103
-380.931	-88.416	0.072	0.021
-379.917	-49.364	-0.136	-0.065
-378.902	-27.129	-0.220	-0.128
-377.888	-200.000	-0.029	-0.266
-376.873	187.859	-0.080	-0.120
-375.858	-39.097	-0.275	-0.144
-374.844	-200.000	0.015	0.383
-373.829	800.000	-0.026	0.076
-372.815	129.416	-0.064	0.082
-371.800	-164.966	0.088	0.004
-370.785	-77.822	-0.323	0.111
-369.771	229.843	0.098	-0.159
-368.756	-185.623	-0.015	-0.000
-367.742	326.500	0.084	-0.159
-366.727	-122.483	-0.289	0.047
-365.712	-138.072	0.294	-0.033
-364.698	45.483	-0.231	0.212
-363.683	-68.259	-0.283	-0.109
-362.669	-44.965	-0.286	-0.142
-361.654	-68.035	-0.193	0.075
-360.639	-72.581	-0.206	0.076
-359.625	-34.014	0.234	-0.128
-358.610	-127.930	0.071	-0.010
-357.596	96.067	-0.100	-0.113
-356.581	-79.160	0.277	0.094
-355.566	-28.814	0.211	0.121
-354.552	-125.700	-0.067	-0.010
-353.537	-200.000	0.016	0.220
-352.523	48.498	0.094	0.087
-351.508	-16.773	-0.087	-0.055
-350.493	20.256	0.064	0.051
-349.479	431.267	-0.084	-0.181
-348.464	-200.000	-0.018	0.231
-347.450	-200.000	0.004	-0.051
-346.435	324.958	0.104	0.198
-345.420	800.000	0.038	-0.158
-344.406	-197.231	-0.295	-0.002
-343.391	-157.097	0.133	0.008
-342.377	-117.979	0.081	0.014
-341.362	115.346	-0.259	0.315
-340.348	681.573	0.123	0.320
-339.333	-72.949	0.131	0.048
-338.318	-62.032	-0.078	-0.033
-337.304	-50.350	0.251	-0.118
-336.289	-200.000	-0.044	-0.306
-335.275	70.874	0.303	-0.312
-334.260	-192.989	0.290	0.003
-333.245	800.000	0.095	-0.282
-332.231	-103.157	-0.189	0.044
-331.216	-154.390	0.064	-0.004
-330.202	340.039	0.013	0.026
-329.187	312.050	0.037	-0.070
-328.172	-114.245	-0.211	0.040
-327.158	15.028	0.363	0.282
-326.143	-116.960	-0.103	-0.019
-325.129	800.000	-0.142	-0.443
-324.114	-200.000	0.025	-0.117
-323.099	-107.437	-0.184	0.040
-322.085	-112.720	0.297	-0.059
-321.070	-198.201	-0.187	0.001
-320.056	-200.000	0.006	0.111
-319.041	800.000	0.025	0.096
-318.026	800.000	0.086	-0.356
-317.012	129.375	0.179	-0.228
-315.997	22.879	-0.106	-0.087
-314.983	-25.193	-0.293	0.172
-313.968	444.776	-0.075	0.163
-312.953	800.000	0.062	0.247
-311.939	220.420	0.045	-0.071
-310.924	40.794	0.202	-0.181
-309.910	-86.549	-0.055	-0.017
-308.895	-108.253	-0.047	-0.010
-307.880	-68.249	0.175	-0.068
-306.866	444.138	-0.018	0.038
-305.851	-34.153	0.135	-0.074
-304.837	36.981	0.228	-0.200
-303.822	-37.653	0.271	0.144
-302.807	-93.417	-0.237	0.065
-301.793	800.000	0.051	-0.149
-300.778	128.235	-0.272	-0.344
-299.764	-101.607	0.075	-0.018
-298.749	-17.735	-0.252	0.158
-297.735	-37.060	-0.272	-0.145
-296.720	-4.201	-0.260	0.179
-295.705	-66.659	0.240	0.094
-294.691	-120.312	-0.487	-0.082
-293.676	-94.613	0.320	0.087
-292.662	-45.715	0.167	-0.082
-291.647	79.606	-0.131	-0.139
-290.632	200.438	-0.211	-0.322
-289.618	60.570	0.114	-0.112
-288.603	490.358	0.140	0.318
-287.589	477.384	0.095	0.213
-286.574	-200.000	0.006	-0.355
-285.559	-157.199	-0.088	-0.005
-284.545	-80.805	-0.209	0.069
-283.530	-24.184	-0.389	-0.230
-282.516	80.589	0.141	-0.151
-281.501	800.000	0.088	-0.254
-280.486	-200.000	0.012	0.057
-279.472	429.912	0.190	0.408
-278.457	-142.065	0.291	-0.029
-277.443	347.752	-0.105	0.206
-276.428	560.270	0.175	0.419
-275.413	168.246	0.183	-0.259
-274.399	800.000	-0.069	-0.206
-273.384	-79.996	-0.255	-0.085
-272.370	-200.000	-0.012	0.117
-271.355	800.000	-0.070	0.200
-270.340	7.806	-0.055	0.041
-269.326	-40.113	0.101	-0.052
-268.311	14.562	-0.263	-0.204
-267.297	149.203	0.248	-0.333
-266.282	-138.737	-0.256	-0.028
-265.267	307.031	0.048	0.089
-264.253	-148.733	0.095	0.008
-263.238	-200.000	0.015	-0.067
-262.224	16.158	-0.317	-0.248
-261.209	602.265	0.130	0.320
-260.195	-200.000	0.008	0.554
-259.180	-8.992	0.638	0.424
-258.165	4.509	0.193	0.140
-257.151	-48.545	-0.085	-0.040
-256.136	-91.716	0.173	-0.049
-255.122	-200.000	0.017	0.128
-254.107	-200.000	-0.038	0.198
-253.092	800.000	0.080	0.282
-252.078	243.865	0.149	-0.249
-251.063	-49.202	0.279	-0.132
-250.049	-75.278	-0.297	0.105
-249.034	-95.702	-0.451	-0.120
-248.019	215.690	-0.120	-0.189
-247.005	13.604	-0.142	-0.110
-245.990	-109.147	-0.119	-0.025
-244.976	482.006	-0.079	-0.178
-243.961	124.729	0.185	0.231
-242.946	42.962	-0.123	-0.111
-241.932	-200.000	-0.014	0.126
-240.917	-104.179	0.204	-0.047
-239.903	0.039	0.363	-0.257
-238.888	-97.209	0.241	-0.062
-237.873	374.298	0.178	0.359
-236.859	-100.762	-0.204	-0.050
-235.844	40.181	0.202	0.180
-234.830	-200.000	0.052	-0.250
-233.815	16.118	0.186	-0.145
-232.800	-200.000	0.031	-0.378
-231.786	-104.055	-0.142	-0.033
-230.771	-61.398	0.206	0.086
-229.757	-168.379	-0.282	0.011
-228.742	-200.000	-0.055	0.413
-227.727	-200.000	0.018	0.170
-226.713	-200.000	0.019	0.131
-225.698	29.869	0.148	0.125
-224.684	-200.000	-0.023	0.155
-223.669	-200.000	-0.035	0.299
-222.655	486.084	0.081	0.184
-221.640	133.895	-0.109	0.140
-220.625	606.473	-0.199	0.490
-219.611	-200.000	0.027	0.231
-218.596	-136.144	-0.455	0.053
-217.582	-93.881	0.498	0.136
-216.567	-187.803	-0.270	-0.003
-215.552	418.437	0.085	0.179
-214.538	-200.000	-0.046	-0.304
-213.523	61.628	-0.314	-0.309
-212.509	-200.000	-0.013	0.307
-211.494	-200.000	-0.001	0.107
-210.479	-48.552	0.034	0.016
-209.465	-200.000	-0.015	-0.367
-208.450	-33.450	-0.267	0.146
-207.436	32.430	-0.328	0.280
-206.421	252.723	-0.037	0.063
-205.406	-200.000	-0.074	0.326
-204.392	-116.398	-0.140	0.026
-203.377	800.000	-0.067	0.214
-202.363	383.903	-0.136	-0.278
-201.348	217.323	-0.183	-0.289
-200.333	305.613	-0.152	0.280
-199.319	-66.262	0.314	-0.124
-198.304	-200.000	0.007	0.055
-197.290	800.000	0.113	0.362
-196.275	149.953	-0.287	0.385
-195.260	-91.485	-0.084	-0.024
-194.246	800.000	-0.084	-0.309
-193.231	198.497	0.146	-0.221
-192.217	-36.646	-0.217	0.116
-191.202	3.092	0.096	0.069
-190.187	800.000	0.079	0.229
-189.173	-200.000	0.010	0.053
-188.158	-45.461	-0.149	0.073
-187.144	81.129	-0.146	0.156
-186.129	-99.064	-0.120	-0.030
-185.114	96.988	-0.147	0.167
-184.100	-70.699	-0.208	-0.078
-183.085	-99.994	0.424	-0.105
-182.071	-200.000	0.011	0.113
-181.056	-42.321	0.078	-0.039
-180.042	378.737	0.041	0.083
-179.027	135.916	-0.079	0.102
-178.012	-200.000	0.057	-0.302
-176.998	62.667	-0.074	0.073
-175.983	-88.853	-0.139	-0.041
-174.969	800.000	-0.009	-0.037
-173.954	-200.000	-0.000	0.119
-172.939	-38.029	0.176	0.093
-171.925	74.766	0.264	0.275
-170.910	546.250	0.024	0.058
-169.896	-38.937	-0.276	-0.144
-168.881	-38.907	-0.159	0.083
-167.866	800.000	0.028	-0.097
-166.852	-38.242	-0.296	-0.155
-165.837	-89.884	0.402	-0.116
-164.823	-16.490	0.155	0.097
-163.808	51.669	0.268	0.252
-162.793	-81.414	0.134	0.044
-161.779	98.626	-0.093	-0.106
-160.764	40.499	-0.327	-0.291
-159.750	425.472	0.238	-0.506
-158.735	-19.041	-0.453	0.278
-157.720	-41.867	-0.377	-0.191
-156.706	258.727	-0.159	0.271
-155.691	-200.000	-0.002	0.221
-154.677	-61.992	0.230	-0.095
-153.662	-162.839	0.282	0.014
-152.647	375.557	0.102	0.206
-151.633	-112.280	-0.290	0.057
-150.618	-28.957	-0.320	-0.181
-149.604	526.458	-0.111	-0.259
-148.589	-200.000	-0.008	-0.124
-147.574	33.632	-0.184	0.158
-146.560	27.950	-0.213	0.177
-145.545	-200.000	0.037	-0.201
-144.531	-90.919	0.355	-0.101
-143.516	183.965	0.074	-0.108
-142.502	-120.373	0.116	-0.020
-141.487	800.000	0.085	0.303
-140.472	-200.000	0.004	-0.087
-139.458	800.000	0.053	0.145
-138.443	-69.532	0.250	-0.094
-137.429	-200.000	-0.074	0.411
-136.414	-143.202	0.311	0.030
-135.399	66.225	-0.080	-0.081
-134.385	1.328	-0.131	0.093
-133.370	-6.060	-0.186	0.126
-132.356	600.566	-0.107	0.262
-131.341	15.283	0.284	-0.220
-130.326	263.903	0.134	0.230
-129.312	-200.000	0.003	-0.062
-128.297	-125.568	0.128	-0.019
-127.283	208.040	0.145	-0.224
-126.268	-200.000	0.010	0.258
-125.253	-63.652	-0.218	-0.088
-124.239	85.150	0.107	-0.116
-123.224	-60.861	0.272	0.114
-122.210	-175.350	0.139	0.004
-121.195	800.000	-0.015	-0.066
-120.180	-115.539	-0.182	0.034
-119.166	-7.511	-0.187	0.125
-118.151	180.315	-0.154	0.223
-117.137	-126.167	-0.292	-0.043
-116.122	15.383	0.017	0.013
-115.107	-120.721	-0.120	-0.020
-114.093	-41.063	-0.215	0.109
-113.078	-79.306	-0.429	-0.143
-112.064	2.130	-0.108	0.077
-111.049	-32.434	-0.163	-0.090
-110.034	-74.981	-0.106	0.038
-109.020	-11.332	-0.218	-0.142
-108.005	278.413	0.090	0.158
-106.991	-69.135	-0.306	0.116
-105.976	5.494	0.086	-0.063
-104.962	-117.235	-0.329	-0.059
-103.947	-77.115	0.066	-0.023
-102.932	800.000	0.064	0.180
-101.918	52.980	0.107	0.101
-100.903	-200.000	0.000	0.248
-99.889	135.257	-0.173	0.222
-98.874	67.061	0.174	0.174
-97.859	-184.926	-0.098	0.002
-96.845	-200.000	-0.017	-0.304
-95.830	82.451	0.243	-0.260
-94.816	-59.124	-0.040	0.017
-93.801	186.173	0.029	-0.042
-92.786	377.743	-0.186	0.376
-91.772	-40.900	-0.085	-0.044
-90.757	-200.000	0.009	0.372
-89.743	-131.624	-0.345	0.045
-88.728	-32.970	0.164	-0.090
-87.713	37.056	0.224	0.195
-86.699	-110.582	-0.428	0.087
-85.684	62.798	-0.118	-0.116
-84.670	-32.619	0.022	-0.012
-83.655	-127.193	0.276	-0.040
-82.640	278.766	0.198	-0.348
-81.626	-200.000	-0.029	0.189
-80.611	800.000	0.077	0.274
-79.597	-200.000	-0.011	0.323
-78.582	19.246	-0.045	-0.036
-77.567	278.758	-0.078	0.137
-76.553	800.000	-0.123	-0.338
-75.538	-42.241	0.141	-0.071
-74.524	-113.456	0.187	-0.036
-73.509	123.881	0.205	0.254
-72.494	-17.486	0.225	0.139
-71.480	-47.591	-0.202	0.097
-70.465	-200.000	-0.001	-0.012
-69.451	800.000	0.113	-0.336
-68.436	467.851	0.067	0.147
-67.422	90.254	0.100	-0.111
-66.407	625.599	-0.018	0.046
-65.392	-128.455	-0.400	-0.056
-64.378	53.157	-0.152	-0.144
-63.363	8.263	0.115	-0.085
-62.349	-72.618	0.077	-0.028
-61.334	167.510	-0.830	-1.161
-60.319	-4.920	0.644	0.437
-59.305	80.800	-0.818	-0.868
-58.290	261.372	0.654	1.115
-57.276	375.552	0.844	1.694
-56.261	-200.000	113.547	665.791
-55.246	550.387	1514.533	3575.783
-54.232	176.274	2688.300	3843.451
-53.217	101.978	2318.240	2663.267
-52.203	34.604	2065.388	1776.125
-51.188	29.739	1980.689	1659.672
-50.173	28.329	1963.780	1632.882
-49.159	46.907	2022.978	1850.668
-48.144	46.064	2039.185	1857.802
-47.130	30.266	1996.948	1677.800
-46.115	27.960	1987.136	1648.713
-45.100	27.834	1983.720	1644.677
-44.086	27.858	1981.011	1642.578
-43.071	27.827	1978.546	1640.194
-42.057	27.787	1976.745	1638.280
-41.042	27.834	1975.660	1637.734
-40.027	27.711	1974.511	1635.615
-39.013	27.767	1972.246	1634.176
-37.998	27.897	1969.865	1633.302
-36.984	27.840	1968.296	1631.422
-35.969	27.846	1965.807	1629.347
-34.954	27.899	1964.292	1628.504
-33.940	27.846	1963.521	1627.329
-32.925	27.896	1961.207	1625.788
-31.911	27.980	1959.865	1625.362
-30.896	28.035	1957.840	1624.103
-29.881	27.881	1956.937	1621.921
-28.867	27.969	1955.195	1621.194
-27.852	28.004	1953.408	1619.961
-26.838	27.996	1951.955	1618.620
-25.823	27.989	1950.303	1617.121
-24.809	27.990	1947.711	1614.915
-23.794	27.983	1945.996	1613.367
-22.779	28.007	1944.102	1611.950
-21.765	27.905	1942.789	1609.897
-20.750	27.932	1940.775	1608.399
-19.736	27.908	1940.035	1607.513
-18.721	27.987	1937.894	1606.365
-17.706	27.969	1936.241	1604.775
-16.692	28.001	1934.585	1603.621
-15.677	27.967	1933.252	1602.157
-14.663	27.984	1931.594	1600.869
-13.648	27.967	1930.896	1600.074
-12.633	27.915	1929.527	1598.420
-11.619	27.926	1928.456	1597.572
-10.604	27.987	1926.925	1596.767
-9.590	27.994	1925.184	1595.326
-8.575	27.949	1923.792	1593.714
-7.560	27.923	1922.801	1592.609
-6.546	27.997	1920.665	1591.416
-5.531	27.969	1920.188	1590.716
-4.517	27.923	1918.945	1589.220
-3.502	27.945	1917.821	1588.419
-2.487	27.961	1916.390	1587.307
-1.473	27.934	1915.801	1586.528
-0.458	28.002	1910.620	1582.756
0.556	28.817	1891.141	1554.376
1.571	24.557	1871.472	1502.327
2.586	20.577	1893.971	1486.308
3.600	19.432	1929.687	1504.225
4.615	18.981	1922.659	1494.690
5.629	14.399	1821.976	1378.476
6.644	6.942	1707.205	1233.534
7.659	3.570	1673.883	1183.519
8.673	3.204	1671.246	1178.747
9.688	3.165	1669.593	1177.183
10.702	3.312	1668.116	1177.160
11.717	3.318	1664.712	1174.697
12.731	3.727	1663.863	1177.110
13.746	8.709	1675.969	1223.725
14.761	16.585	1692.796	1296.493
15.775	20.448	1699.258	1330.977
16.790	20.550	1698.167	1330.789
17.804	19.690	1694.628	1321.323
18.819	18.665	1692.163	1311.461
19.834	17.973	1689.793	1304.225
20.848	17.835	1688.671	1302.186
21.863	17.752	1686.966	1300.123
22.877	17.592	1685.254	1297.473
23.892	17.365	1683.994	1294.659
24.907	17.266	1682.923	1292.969
25.921	17.257	1681.599	1291.769
26.936	17.157	1681.180	1290.571
27.950	17.221	1680.004	1290.044
28.965	17.324	1679.403	1290.251
29.980	17.309	1678.769	1289.535
30.994	17.428	1678.021	1289.750
32.009	17.531	1676.786	1289.462
33.023	17.631	1675.852	1289.390
34.038	17.637	1674.778	1288.491
35.053	17.548	1673.730	1286.897
36.067	17.456	1672.159	1284.881
37.082	17.382	1671.086	1283.385
38.096	17.378	1670.472	1282.771
39.111	17.453	1669.161	1282.215
40.126	17.507	1668.735	1282.179
41.140	17.494	1667.929	1281.354
42.155	17.255	1666.067	1278.012
43.169	17.061	1664.487	1275.228
44.184	17.046	1662.868	1273.765
45.199	16.977	1662.311	1272.706
46.213	17.024	1660.715	1271.725
47.228	17.013	1659.850	1270.865
48.242	17.149	1658.611	1270.825
49.257	17.306	1657.865	1271.312
50.271	17.314	1656.427	1270.156
51.286	17.308	1655.110	1268.987
52.301	17.349	1653.568	1267.999
53.315	17.367	1652.267	1267.026
54.330	17.318	1650.726	1265.366
55.344	17.084	1649.582	1262.635
56.359	17.185	1647.752	1261.873
57.374	17.125	1646.596	1260.436
58.388	17.115	1645.120	1259.117
59.403	17.112	1644.034	1258.156
60.417	17.037	1642.513	1256.321
61.432	17.017	1641.800	1255.522
62.447	16.985	1640.679	1254.316
63.461	16.927	1639.526	1252.893
64.476	16.845	1638.344	1251.269
65.490	16.884	1636.869	1250.321
66.505	16.875	1635.558	1249.146
67.520	16.892	1634.672	1248.480
68.534	16.905	1633.449	1247.533
69.549	16.830	1632.836	1246.405
70.563	16.868	1631.538	1245.580
71.578	16.943	1629.750	1244.654
72.593	16.864	1628.462	1242.984
73.607	16.641	1627.955	1240.851
74.622	16.786	1626.238	1240.498
75.636	16.621	1625.958	1238.967
76.651	16.710	1625.113	1238.862
77.666	16.808	1624.248	1238.810
78.680	16.857	1622.934	1238.054
79.695	16.795	1622.313	1237.021
80.709	16.985	1621.116	1237.381
81.724	16.941	1621.010	1236.868
82.739	16.919	1620.243	1236.020
83.753	17.076	1619.398	1236.409
84.768	17.150	1618.172	1235.900
85.782	17.268	1617.768	1236.343
86.797	17.371	1617.446	1236.737
87.812	17.384	1616.742	1236.177
88.826	17.467	1614.922	1235.283
89.841	17.201	1613.834	1232.415
90.855	17.378	1612.239	1232.367
91.870	17.342	1611.706	1231.589
92.884	17.526	1610.290	1231.730
93.899	17.542	1609.869	1231.416
94.914	17.568	1608.543	1230.475
95.928	17.574	1607.306	1229.469
96.943	17.527	1606.528	1228.425
97.957	17.510	1605.157	1227.148
98.972	17.455	1603.058	1225.035
99.987	17.459	1601.700	1223.917
101.001	17.390	1600.188	1222.156
102.016	17.341	1599.304	1221.021
103.030	17.434	1597.533	1220.230
104.045	17.357	1596.428	1218.726
105.060	17.432	1594.739	1217.864
106.074	17.449	1593.415	1216.868
107.089	17.255	1591.459	1213.884
108.103	17.030	1589.804	1210.904
109.118	16.917	1588.292	1208.839
110.133	16.787	1587.462	1207.180
111.147	16.793	1585.870	1205.902
112.162	16.846	1584.541	1205.165
113.176	16.921	1582.854	1204.307
114.191	16.925	1581.860	1203.469
115.206	16.967	1581.077	1203.070
116.220	16.996	1579.244	1201.770
117.235	17.010	1578.179	1200.956
118.249	16.944	1576.677	1199.236
119.264	16.999	1575.467	1198.600
120.279	17.010	1573.655	1197.190
121.293	16.888	1572.363	1195.241
122.308	16.864	1570.982	1193.920
123.322	16.860	1568.995	1192.275
124.337	16.750	1567.555	1190.302
125.352	16.700	1566.842	1189.308
126.366	16.706	1565.577	1188.284
127.381	16.703	1564.311	1187.192
128.395	16.835	1562.852	1186.906
129.410	16.785	1561.866	1185.701
130.424	16.761	1560.745	1184.580
131.439	16.864	1559.070	1183.920
132.454	16.905	1558.228	1183.465
133.468	16.991	1556.425	1182.591
134.483	17.001	1554.921	1181.410
135.497	17.015	1554.210	1180.865
136.512	17.004	1552.840	1179.641
137.527	17.037	1551.597	1178.827
138.541	17.034	1549.913	1177.421
139.556	17.096	1548.891	1176.971
140.570	17.131	1547.451	1176.010
141.585	17.286	1546.318	1176.118
142.600	17.232	1545.394	1174.938
143.614	17.373	1544.194	1174.899
144.629	17.457	1543.018	1174.476
145.643	17.529	1541.690	1173.860
146.658	17.554	1540.181	1172.780
147.673	17.484	1539.000	1171.296
148.687	17.323	1537.697	1169.093
149.702	17.326	1535.371	1167.241
150.716	17.187	1534.368	1165.423
151.731	17.199	1532.653	1164.100
152.746	17.103	1531.531	1162.486
153.760	17.080	1530.301	1161.292
154.775	17.161	1529.137	1160.860
155.789	17.324	1527.754	1160.822
156.804	17.379	1526.562	1160.187
157.819	17.388	1525.430	1159.283
158.833	17.322	1524.791	1158.249
159.848	17.431	1522.969	1157.504
160.862	17.593	1521.827	1157.635
161.877	17.671	1520.859	1157.324
162.892	17.459	1519.865	1155.028
163.906	17.310	1517.927	1152.443
164.921	17.221	1516.586	1150.722
165.935	17.169	1515.449	1149.401
166.950	17.269	1514.625	1149.353
167.964	17.306	1513.609	1148.728
168.979	17.291	1512.873	1147.972
169.994	17.355	1511.255	1147.071
171.008	17.276	1510.675	1145.994
172.023	17.374	1509.194	1145.430
173.037	17.379	1508.245	1144.641
174.052	17.507	1507.286	1144.676
175.067	17.496	1506.369	1143.806
176.081	17.409	1505.236	1142.261
177.096	17.353	1503.306	1140.314
178.110	17.263	1502.433	1138.947
179.125	17.320	1501.113	1138.232
180.140	17.337	1500.002	1137.403
181.154	17.351	1499.164	1136.757
182.169	17.487	1498.002	1136.686
183.183	17.515	1497.199	1136.165
184.198	17.550	1496.497	1135.759
185.213	17.718	1494.940	1135.599
186.227	17.555	1494.530	1134.105
187.242	17.558	1493.809	1133.473
188.256	17.664	1492.244	1132.888
189.271	17.771	1491.127	1132.653
190.286	17.816	1490.274	1132.203
191.300	17.805	1489.171	1131.193
192.315	17.510	1487.374	1127.777
193.329	17.218	1485.914	1124.633
194.344	17.115	1485.120	1123.251
195.359	17.254	1483.917	1123.164
196.373	17.425	1482.772	1123.324
197.388	17.494	1481.916	1123.032
198.402	17.569	1481.195	1122.882
199.417	17.687	1480.214	1122.815
200.432	17.795	1479.722	1123.052
201.446	17.924	1478.676	1123.008
202.461	17.981	1477.622	1122.486
203.475	18.051	1476.638	1122.096
204.490	18.123	1475.691	1121.748
205.504	18.024	1474.726	1120.267
206.519	17.841	1473.762	1118.235
207.534	17.805	1472.256	1116.764
208.548	17.768	1470.632	1115.186
209.563	17.755	1469.881	1114.436
210.577	17.810	1469.051	1114.068
211.592	17.901	1468.238	1113.944
212.607	17.769	1468.005	1112.807
213.621	17.813	1467.798	1112.842
214.636	18.044	1466.199	1113.032
215.650	17.988	1464.971	1111.637
216.665	17.998	1464.284	1111.084
217.680	17.959	1463.507	1110.140
218.694	18.145	1462.291	1110.333
219.709	18.206	1462.048	1110.441
220.723	18.316	1460.196	1109.655
221.738	18.195	1459.607	1108.320
222.753	18.122	1458.911	1107.221
223.767	18.137	1457.925	1106.471
224.782	18.023	1457.272	1105.140
225.796	18.201	1456.329	1105.481
226.811	18.227	1455.618	1105.013
227.826	18.362	1454.452	1104.897
228.840	18.257	1453.904	1103.707
229.855	18.132	1452.607	1101.822
230.869	18.153	1451.621	1101.111
231.884	18.093	1450.437	1099.726
232.899	18.123	1449.140	1098.842
233.913	17.984	1448.478	1097.348
234.928	17.917	1446.959	1095.673
235.942	17.924	1445.423	1094.455
236.957	17.939	1444.370	1093.659
237.972	17.880	1443.109	1092.225
238.986	17.989	1442.286	1092.207
240.001	18.032	1441.447	1091.749
241.015	18.037	1440.274	1090.794
242.030	17.962	1439.245	1089.441
243.045	18.044	1438.507	1089.310
244.059	18.114	1437.543	1088.925
245.074	18.125	1436.724	1088.282
246.088	18.145	1435.772	1087.589
247.103	18.197	1435.402	1087.545
248.117	18.312	1434.780	1087.711
249.132	18.444	1433.774	1087.689
250.147	18.533	1433.256	1087.761
251.161	18.766	1432.233	1088.367
252.176	18.834	1432.645	1089.015
253.190	18.899	1431.933	1088.786
254.205	18.959	1430.528	1088.002
255.220	18.995	1429.594	1087.428
256.234	19.026	1428.954	1087.039
257.249	19.058	1428.313	1086.656
258.263	18.987	1427.911	1085.806
259.278	18.961	1426.432	1084.420
260.293	18.975	1425.139	1083.429
261.307	18.933	1425.005	1082.970
262.322	18.972	1424.563	1082.784
263.336	19.025	1423.688	1082.353
264.351	19.138	1422.164	1081.811
265.366	19.155	1421.565	1081.364
266.380	19.119	1420.511	1080.244
267.395	19.166	1419.428	1079.615
268.409	19.047	1418.645	1078.182
269.424	18.968	1417.818	1076.963
270.439	18.949	1416.696	1075.894
271.453	18.907	1415.759	1074.830
272.468	19.003	1414.545	1074.409
273.482	18.852	1413.936	1072.907
274.497	18.790	1413.053	1071.758
275.512	18.846	1411.727	1071.006
276.526	18.821	1411.237	1070.386
277.541	18.963	1410.108	1070.317
278.555	18.901	1409.261	1069.191
279.570	18.912	1408.350	1068.479
280.585	19.046	1407.766	1068.770
281.599	19.169	1407.017	1068.871
282.614	19.229	1406.119	1068.470
283.628	19.270	1404.305	1067.250
284.643	19.096	1403.386	1065.376
285.657	19.061	1402.391	1064.312
286.672	19.078	1401.366	1063.547
287.687	19.083	1400.475	1062.804
288.701	19.095	1399.684	1062.185
289.716	18.992	1399.135	1061.036
290.730	19.090	1398.299	1060.913
291.745	19.115	1396.994	1059.987
292.760	19.063	1396.555	1059.235
293.774	19.094	1395.414	1058.467
294.789	19.091	1394.929	1057.990
295.803	19.238	1393.939	1058.047
296.818	19.328	1392.909	1057.724
297.833	19.290	1391.209	1056.109
298.847	19.247	1390.175	1054.966
299.862	19.227	1389.215	1054.021
300.876	19.192	1388.604	1053.250
301.891	19.165	1387.751	1052.343
302.906	19.290	1386.976	1052.426
303.920	19.326	1386.811	1052.432
304.935	19.406	1385.644	1051.939
305.949	19.516	1384.865	1051.923
306.964	19.595	1384.643	1052.144
307.979	19.579	1383.571	1051.140
308.993	19.450	1382.794	1049.669
310.008	19.466	1381.485	1048.683
311.022	19.496	1380.265	1047.847
312.037	19.581	1379.467	1047.660
313.052	19.645	1378.481	1047.211
314.066	19.546	1377.615	1045.858
315.081	19.415	1376.599	1044.200
316.095	19.307	1375.147	1042.353
317.110	19.250	1373.953	1041.011
318.125	19.160	1373.311	1039.893
319.139	19.316	1372.353	1040.014
320.154	19.280	1371.227	1038.853
321.168	19.255	1370.376	1037.967
322.183	19.322	1369.307	1037.468
323.197	19.317	1368.376	1036.641
324.212	19.287	1368.095	1036.152
325.227	19.312	1367.378	1035.670
326.241	19.517	1365.662	1035.512
327.256	19.526	1364.950	1034.935
328.270	19.452	1364.084	1033.742
329.285	19.472	1363.177	1033.079
330.300	19.446	1362.527	1032.341
331.314	19.327	1361.736	1030.938
332.329	19.417	1360.249	1030.261
333.343	19.377	1359.831	1029.612
334.358	19.400	1359.044	1029.063
335.373	19.498	1358.500	1029.146
336.387	19.571	1358.206	1029.267
337.402	19.573	1357.253	1028.466
338.416	19.675	1356.267	1028.235
339.431	19.632	1355.683	1027.443
340.446	19.693	1355.312	1027.432
341.460	19.888	1353.918	1027.447
342.475	19.927	1353.109	1026.972
343.489	20.013	1352.164	1026.674
344.504	20.071	1351.111	1026.127
345.519	20.140	1350.559	1026.027
346.533	19.999	1349.922	1024.615
347.548	20.124	1348.890	1024.479
348.562	20.197	1348.297	1024.374
349.577	20.140	1347.347	1023.220
350.592	20.121	1346.255	1022.188
351.606	19.961	1345.611	1020.666
352.621	19.817	1344.305	1018.737
353.635	19.750	1343.133	1017.368
354.650	19.685	1342.311	1016.269
355.665	19.741	1341.184	1015.657
356.679	19.791	1339.997	1014.965
357.694	19.878	1338.762	1014.446
358.708	19.974	1337.709	1014.123
359.723	20.010	1336.810	1013.560
360.738	20.053	1336.101	1013.187
361.752	20.053	1334.892	1012.180
362.767	20.015	1334.317	1011.434
363.781	20.094	1333.021	1010.820
364.796	19.962	1332.432	1009.515
365.810	20.068	1331.709	1009.494
366.825	20.228	1331.129	1009.900
367.840	20.300	1330.431	1009.698
368.854	20.360	1330.187	1009.772
369.869	20.447	1329.549	1009.703
370.883	20.577	1328.562	1009.620
371.898	20.454	1327.569	1008.065
372.913	20.378	1327.139	1007.204
373.927	20.292	1326.187	1005.893
374.942	20.331	1325.051	1005.169
375.956	20.337	1324.656	1004.818
376.971	20.538	1323.835	1005.267
377.986	20.457	1322.612	1003.780
379.000	20.350	1322.213	1002.774
380.015	20.440	1321.494	1002.656
381.029	20.594	1321.162	1003.204
382.044	20.632	1320.194	1002.599
383.059	20.596	1319.518	1001.792
384.073	20.655	1318.444	1001.228
385.088	20.561	1318.235	1000.438
386.102	20.674	1317.076	1000.123
387.117	20.628	1316.600	999.404
388.132	20.673	1315.364	998.636
389.146	20.504	1314.434	996.872
390.161	20.360	1314.199	995.780
391.175	20.475	1312.956	995.413
392.190	20.398	1312.064	994.204
393.205	20.478	1311.311	994.003
394.219	20.611	1310.591	994.129
395.234	20.731	1309.129	993.619
396.248	20.661	1308.163	992.399
397.263	20.522	1306.763	990.456
398.278	20.492	1305.185	989.003
399.292	20.496	1304.033	988.068
400.307	20.467	1302.808	986.882
401.321	20.338	1301.863	985.349
402.336	20.426	1300.180	984.485
403.350	20.347	1299.690	983.583
404.365	20.247	1298.912	982.340
405.380	20.268	1298.163	981.806
406.394	20.352	1297.568	981.743
407.409	20.476	1296.741	981.729
408.423	20.536	1296.092	981.491
409.438	20.809	1295.301	982.349
410.453	20.796	1294.757	981.771
411.467	20.873	1293.874	981.451
412.482	20.902	1293.672	981.376
413.496	20.923	1293.135	980.997
414.511	21.020	1292.419	980.911
415.526	20.991	1291.966	980.322
416.540	21.148	1290.704	980.157
417.555	21.171	1290.080	979.727
418.569	21.209	1289.747	979.601
419.584	21.130	1289.586	978.947
420.599	20.992	1288.458	977.234
421.613	145.479	1434.425	1796.534
422.628	140.400	1455.666	1796.631
