DTS Sentinel unit serial number:	SN413079Multiplexer serial number:	ORYXHardware model number:	OX4-SRSoftware version number:	ORYX F/W v4.00 Oryx Data Collector v3.7.2.0data status	okinstallation	princeton_trtdifferential loss correction	single-endedforward channel	channel 4reverse channel	N/Adate	2019/09/12time	17:07:10forward acquisition time	60.00reverse acquisition time	0.00gamma	496.2192k internal	0.2306k external	0.2306temperature offset calibration	1.0127default loss term (dB/km)	0.3790temperature slope calibration	1.0000multiplexer offset coefficient	1.0000multiplexer slope coefficient	1.0000fibre end	0.00T internal ref (°C)	35.44T ext. ref 1 (°C)	2.78T ext. ref 2 (°C)	28.81length (m)	temperature (°C)	Stokes	anti-Stokes-747.200	-200.000	0.019	-0.333
-746.185	181.586	-0.185	0.276
-745.171	-113.671	-0.251	-0.050
-744.156	768.443	0.079	0.219
-743.142	-163.109	-0.211	-0.010
-742.127	800.000	0.053	0.160
-741.112	-86.741	-0.059	0.018
-740.098	376.023	0.102	-0.213
-739.083	230.800	-0.089	0.149
-738.069	72.091	-0.265	0.281
-737.054	-79.830	-0.093	0.032
-736.039	-73.910	-0.207	0.076
-735.025	92.062	0.130	0.149
-734.010	-200.000	-0.073	-0.399
-732.996	-53.576	0.087	-0.041
-731.981	25.125	0.139	0.118
-730.966	127.927	0.029	-0.037
-729.952	165.445	0.160	-0.230
-728.937	-20.876	-0.084	-0.053
-727.923	-200.000	-0.034	-0.209
-726.908	-14.107	-0.208	-0.137
-725.894	156.593	0.136	0.191
-724.879	800.000	-0.042	-0.159
-723.864	305.705	-0.121	-0.229
-722.850	32.886	0.138	-0.122
-721.835	-47.548	-0.119	-0.059
-720.821	-200.000	-0.053	-0.408
-719.806	-46.500	-0.131	0.065
-718.791	4.045	0.340	-0.252
-717.777	506.771	0.149	-0.351
-716.762	727.882	0.024	-0.066
-715.748	-200.000	-0.035	-0.162
-714.733	85.586	-0.108	0.121
-713.718	-67.025	0.100	-0.040
-712.704	97.761	-0.128	0.149
-711.689	396.715	0.042	0.088
-710.675	-200.000	-0.024	0.221
-709.660	-13.492	-0.092	0.061
-708.645	534.567	-0.027	-0.064
-707.631	135.506	-0.255	0.337
-706.616	357.462	0.147	0.297
-705.602	-46.907	-0.215	0.107
-704.587	800.000	0.071	0.251
-703.572	800.000	-0.105	0.350
-702.558	376.131	0.046	-0.095
-701.543	-134.763	0.328	0.040
-700.529	131.899	0.146	0.191
-699.514	-106.381	-0.248	-0.056
-698.499	293.110	0.105	-0.195
-697.485	-200.000	0.004	-0.221
-696.470	-157.269	-0.297	0.018
-695.456	-65.931	-0.450	-0.183
-694.441	-94.082	0.266	-0.074
-693.426	800.000	-0.031	0.118
-692.412	294.326	0.048	0.090
-691.397	-200.000	-0.045	-0.412
-690.383	-8.272	-0.397	-0.271
-689.368	723.024	-0.125	-0.337
-688.354	800.000	0.109	-0.378
-687.339	397.786	-0.070	-0.148
-686.324	-1.172	-0.165	0.118
-685.310	371.883	0.187	0.386
-684.295	223.042	-0.183	-0.299
-683.281	484.056	0.109	-0.251
-682.266	-1.874	0.070	0.050
-681.251	-14.349	-0.198	-0.130
-680.237	717.581	-0.148	0.398
-679.222	-143.198	-0.093	-0.009
-678.208	-68.983	-0.259	-0.101
-677.193	800.000	0.069	0.213
-676.178	-32.961	0.224	-0.126
-675.164	800.000	-0.070	0.295
-674.149	17.780	0.269	0.217
-673.135	-200.000	-0.012	-0.458
-672.120	-90.295	-0.163	0.048
-671.105	108.644	-0.043	-0.052
-670.091	-54.514	0.164	-0.076
-669.076	-61.938	-0.143	-0.061
-668.062	-200.000	0.021	0.152
-667.047	-200.000	-0.018	0.093
-666.032	141.604	0.221	0.297
-665.018	-135.583	-0.242	0.029
-664.003	-56.645	-0.240	-0.108
-662.989	71.087	-0.280	-0.294
-661.974	-28.871	-0.323	0.188
-660.959	-113.611	0.196	0.039
-659.945	800.000	0.070	0.242
-658.930	100.316	0.114	-0.134
-657.916	80.705	-0.150	0.164
-656.901	-100.937	-0.181	0.045
-655.886	-138.415	-0.169	-0.019
-654.872	-86.652	0.257	0.080
-653.857	-155.403	-0.417	-0.027
-652.843	150.467	0.163	0.224
-651.828	-200.000	-0.025	0.195
-650.814	80.824	0.183	-0.200
-649.799	-200.000	-0.013	-0.092
-648.784	58.887	0.221	0.221
-647.770	-130.861	0.424	-0.058
-646.755	-190.247	-0.256	-0.003
-645.741	625.950	0.044	0.114
-644.726	-147.933	0.166	0.014
-643.711	393.199	0.087	0.184
-642.697	4.801	-0.116	0.086
-641.682	20.950	-0.204	0.168
-640.668	800.000	0.034	-0.103
-639.653	62.968	-0.287	-0.291
-638.638	514.300	0.168	-0.398
-637.624	-200.000	0.011	0.102
-636.609	166.675	0.254	0.365
-635.595	-200.000	0.049	0.272
-634.580	63.171	-0.049	0.050
-633.565	800.000	-0.069	-0.280
-632.551	-85.038	-0.225	-0.071
-631.536	83.400	-0.118	0.130
-630.522	3.555	-0.113	0.084
-629.507	3.536	0.209	0.154
-628.492	-188.488	0.196	0.002
-627.478	-140.341	-0.136	-0.014
-626.463	26.574	-0.206	0.174
-625.449	-115.973	-0.290	0.055
-624.434	-200.000	0.007	-0.138
-623.419	-70.558	0.155	-0.060
-622.405	25.826	-0.235	0.198
-621.390	800.000	0.143	-0.536
-620.376	285.990	-0.177	-0.323
-619.361	367.136	-0.192	-0.392
-618.346	98.591	0.153	-0.179
-617.332	11.811	0.223	0.174
-616.317	12.610	-0.156	0.122
-615.303	-2.328	0.125	-0.088
-614.288	-200.000	0.007	-0.285
-613.273	800.000	0.010	0.043
-612.259	800.000	0.015	-0.068
-611.244	105.882	0.211	0.253
-610.230	-200.000	-0.011	-0.106
-609.215	-200.000	0.000	-0.417
-608.201	118.962	-0.223	0.279
-607.186	800.000	-0.081	-0.256
-606.171	-62.799	0.289	-0.121
-605.157	417.074	-0.071	0.153
-604.142	506.363	0.054	-0.128
-603.128	-184.796	-0.398	0.006
-602.113	221.234	-0.215	0.350
-601.098	-105.966	-0.232	0.053
-600.084	61.256	0.121	-0.121
-599.069	-91.101	-0.150	-0.044
-598.055	800.000	-0.093	-0.366
-597.040	-200.000	-0.099	-0.498
-596.025	44.025	-0.183	0.170
-595.011	-50.226	0.124	0.059
-593.996	-136.855	-0.108	0.013
-592.982	-200.000	0.007	-0.076
-591.967	-148.906	-0.060	-0.005
-590.952	69.412	-0.096	-0.100
-589.938	-200.000	-0.015	0.200
-588.923	800.000	-0.074	-0.315
-587.909	-200.000	-0.016	-0.202
-586.894	185.489	-0.195	0.293
-585.879	438.787	-0.161	-0.355
-584.865	21.721	0.278	-0.229
-583.850	19.153	-0.232	0.188
-582.836	37.871	-0.144	0.130
-581.821	800.000	-0.050	-0.149
-580.806	-183.694	0.209	0.004
-579.792	-137.723	0.209	0.024
-578.777	-65.249	-0.096	-0.039
-577.763	-65.685	0.242	-0.098
-576.748	-200.000	0.030	-0.141
-575.733	-121.371	-0.178	0.030
-574.719	100.952	-0.203	-0.239
-573.704	800.000	-0.037	-0.115
-572.690	669.516	0.076	0.198
-571.675	-36.339	-0.174	0.095
-570.661	800.000	-0.028	-0.081
-569.646	-90.740	-0.331	-0.096
-568.631	800.000	0.041	-0.177
-567.617	-13.107	0.021	0.014
-566.602	-200.000	-0.007	0.148
-565.588	-110.767	-0.126	0.026
-564.573	99.854	-0.295	0.346
-563.558	-82.359	-0.188	0.062
-562.544	-200.000	-0.007	-0.040
-561.529	-32.035	0.215	-0.122
-560.515	-200.000	0.003	0.148
-559.500	-47.916	-0.107	-0.052
-558.485	327.043	-0.084	0.162
-557.471	-104.707	-0.146	-0.034
-556.456	-148.796	0.304	-0.025
-555.442	800.000	-0.028	-0.091
-554.427	-200.000	0.027	-0.287
-553.412	-108.844	0.148	0.032
-552.398	3.755	-0.103	0.076
-551.383	40.889	0.110	-0.100
-550.369	-200.000	-0.005	0.190
-549.354	-200.000	-0.021	-0.110
-548.339	-200.000	-0.013	0.133
-547.325	-96.251	0.198	-0.053
-546.310	-108.046	-0.336	0.074
-545.296	-145.859	-0.148	-0.013
-544.281	2.884	-0.062	0.045
-543.266	-75.429	0.184	-0.066
-542.252	-173.520	-0.192	0.006
-541.237	186.428	0.171	0.257
-540.223	-200.000	0.061	-0.379
-539.208	34.640	-0.044	0.039
-538.193	-63.354	-0.293	0.122
-537.179	800.000	-0.063	0.230
-536.164	152.382	-0.061	0.084
-535.150	127.973	-0.102	-0.131
-534.135	406.532	0.085	-0.180
-533.121	131.722	0.099	-0.128
-532.106	231.498	-0.066	0.109
-531.091	209.748	0.146	0.230
-530.077	57.466	-0.056	-0.056
-529.062	229.282	0.208	-0.342
-528.048	652.682	0.075	-0.194
-527.033	800.000	-0.024	-0.089
-526.018	680.943	0.052	-0.136
-525.004	-77.952	-0.450	0.156
-523.989	59.235	0.169	-0.168
-522.975	168.122	0.244	0.350
-521.960	-189.053	0.193	-0.002
-520.945	-82.889	0.216	0.070
-519.931	-157.630	0.114	0.007
-518.916	108.474	0.153	-0.184
-517.902	800.000	0.088	-0.249
-516.887	-200.000	0.012	-0.160
-515.872	14.255	0.326	0.256
-514.858	-5.217	-0.152	0.105
-513.843	42.384	-0.069	0.063
-512.829	19.194	-0.235	-0.190
-511.814	-114.078	0.123	-0.024
-510.799	-43.068	-0.139	0.071
-509.785	346.384	0.048	-0.096
-508.770	-200.000	-0.036	0.314
-507.756	-128.122	0.388	-0.056
-506.741	-200.000	0.033	-0.321
-505.726	-67.851	-0.245	0.096
-504.712	-25.903	0.208	0.123
-503.697	-26.285	0.150	-0.088
-502.683	358.693	0.111	-0.223
-501.668	101.280	-0.095	-0.112
-500.653	147.835	-0.085	-0.115
-499.639	347.836	-0.121	-0.240
-498.624	-154.413	-0.127	0.009
-497.610	3.231	0.167	-0.122
-496.595	578.531	-0.081	-0.199
-495.581	471.940	-0.033	0.074
-494.566	-89.991	-0.159	-0.047
-493.551	325.505	-0.071	0.137
-492.537	-130.635	-0.420	0.057
-491.522	30.720	0.119	0.102
-490.508	536.321	0.089	0.213
-489.493	-7.622	0.324	-0.221
-488.478	-200.000	-0.000	0.079
-487.464	121.965	-0.095	-0.119
-486.449	-200.000	-0.025	-0.117
-485.435	47.394	0.147	-0.138
-484.420	463.914	0.176	0.396
-483.405	-47.437	0.287	-0.141
-482.391	-200.000	0.003	0.064
-481.376	63.242	0.155	0.157
-480.362	13.670	0.190	0.149
-479.347	800.000	-0.067	-0.204
-478.332	48.267	-0.189	0.178
-477.318	-157.894	0.116	-0.007
-476.303	17.317	0.043	0.034
-475.289	78.308	-0.088	-0.095
-474.274	-48.635	0.236	0.114
-473.259	139.808	-0.167	0.221
-472.245	-131.300	-0.277	0.037
-471.230	-200.000	0.050	-0.233
-470.216	-49.394	-0.205	-0.098
-469.201	800.000	-0.079	-0.230
-468.186	410.624	0.137	-0.292
-467.172	-6.581	-0.109	0.075
-466.157	-111.900	-0.296	-0.060
-465.143	119.007	-0.074	0.092
-464.128	-113.062	0.484	-0.096
-463.113	-200.000	0.005	0.261
-462.099	-112.267	0.263	-0.053
-461.084	-200.000	0.075	0.340
-460.070	-35.123	-0.199	-0.109
-459.055	-160.642	-0.215	-0.012
-458.040	35.446	0.367	-0.324
-457.026	-58.672	0.280	-0.122
-456.011	-200.000	-0.010	-0.149
-454.997	-31.271	0.191	-0.108
-453.982	-41.580	0.105	0.055
-452.968	800.000	0.069	-0.231
-451.953	103.833	-0.088	0.104
-450.938	70.252	0.168	-0.175
-449.924	347.095	0.093	0.184
-448.909	271.342	-0.126	-0.223
-447.895	-162.326	0.257	0.013
-446.880	-200.000	0.009	0.169
-445.865	-200.000	0.066	0.338
-444.851	10.769	-0.132	0.101
-443.836	-125.135	-0.205	0.032
-442.822	-200.000	0.003	0.127
-441.807	-157.952	0.279	0.017
-440.792	800.000	0.110	-0.398
-439.778	-200.000	-0.031	-0.440
-438.763	718.430	-0.070	-0.186
-437.749	256.458	-0.105	-0.181
-436.734	-75.343	-0.242	-0.087
-435.719	323.436	0.103	0.197
-434.705	-200.000	0.067	0.322
-433.690	192.920	0.169	-0.256
-432.676	-76.731	-0.295	-0.104
-431.661	186.163	0.266	-0.398
-430.646	165.973	0.070	0.100
-429.632	-138.510	-0.149	-0.016
-428.617	-41.695	-0.266	0.137
-427.603	35.365	0.221	-0.195
-426.588	50.432	-0.158	-0.150
-425.573	-200.000	0.003	-0.244
-424.559	0.831	-0.030	-0.022
-423.544	-3.019	-0.058	-0.041
-422.530	42.593	-0.155	-0.142
-421.515	-131.564	0.207	-0.027
-420.500	-15.642	-0.176	-0.113
-419.486	76.990	0.133	-0.142
-418.471	259.873	0.173	0.301
-417.457	800.000	0.147	0.421
-416.442	-84.174	-0.398	0.127
-415.428	-133.799	0.114	-0.014
-414.413	-103.390	-0.142	-0.034
-413.398	212.744	-0.182	0.288
-412.384	800.000	-0.061	0.215
-411.369	-200.000	0.010	0.555
-410.355	9.987	0.171	-0.130
-409.340	-167.295	0.240	0.010
-408.325	44.596	0.140	-0.129
-407.311	104.374	-0.215	-0.254
-406.296	-12.366	0.151	0.099
-405.282	154.146	-0.211	0.291
-404.267	133.149	-0.278	-0.361
-403.252	46.873	0.065	0.061
-402.238	362.770	-0.094	0.189
-401.223	-56.076	-0.374	0.167
-400.209	-40.792	-0.129	-0.067
-399.194	15.126	0.238	-0.187
-398.179	-100.228	0.161	0.040
-397.165	-200.000	-0.003	0.052
-396.150	-131.268	0.321	0.043
-395.136	66.345	0.141	0.144
-394.121	-142.039	0.286	-0.029
-393.106	-106.678	-0.259	-0.058
-392.092	58.302	0.246	-0.242
-391.077	-80.185	0.284	0.095
-390.063	-200.000	-0.002	0.059
-389.048	-23.640	-0.227	-0.136
-388.033	-21.649	-0.186	0.113
-387.019	-60.513	-0.343	0.146
-386.004	-122.933	-0.169	-0.027
-384.990	-62.958	0.144	0.060
-383.975	-200.000	-0.020	0.154
-382.960	800.000	-0.083	0.264
-381.946	117.202	0.241	0.297
-380.931	121.230	0.218	-0.272
-379.917	38.000	0.262	-0.233
-378.902	-55.361	-0.076	0.034
-377.888	129.871	-0.121	-0.155
-376.873	37.174	0.053	-0.047
-375.858	-89.740	-0.277	0.081
-374.844	-71.037	-0.492	-0.185
-373.829	-200.000	0.021	-0.348
-372.815	-10.720	0.363	-0.241
-371.800	-10.735	-0.112	-0.075
-370.785	-43.792	0.266	0.134
-369.771	-143.000	-0.120	-0.012
-368.756	-60.286	0.241	0.103
-367.742	-109.337	0.261	-0.055
-366.727	483.248	-0.181	-0.413
-365.712	-200.000	0.079	0.000
-364.698	82.635	0.059	0.065
-363.683	800.000	0.026	-0.109
-362.669	-53.371	0.130	-0.060
-361.654	-20.445	0.278	0.171
-360.639	-46.011	-0.027	-0.013
-359.625	800.000	0.029	-0.124
-358.610	516.235	0.076	0.177
-357.596	-156.569	-0.089	0.006
-356.581	7.715	-0.294	0.220
-355.566	-24.554	-0.011	-0.006
-354.552	-26.702	-0.089	-0.052
-353.537	800.000	0.053	0.170
-352.523	-200.000	-0.035	0.204
-351.508	222.788	0.064	0.104
-350.493	-108.545	0.364	-0.078
-349.479	93.501	-0.164	0.186
-348.464	-200.000	-0.046	-0.288
-347.450	-149.911	-0.046	0.004
-346.435	383.559	-0.112	0.230
-345.420	-200.000	-0.011	-0.056
-344.406	-200.000	0.010	0.062
-343.391	-200.000	-0.019	0.512
-342.377	-171.494	0.212	0.007
-341.362	-200.000	0.079	0.403
-340.348	800.000	0.021	0.072
-339.333	-78.319	-0.139	-0.048
-338.318	37.261	-0.083	0.073
-337.304	-95.747	-0.199	0.053
-336.289	-200.000	-0.002	-0.318
-335.275	-61.172	-0.145	-0.061
-334.260	13.692	0.153	0.119
-333.245	457.977	-0.078	-0.173
-332.231	200.437	0.091	0.140
-331.216	-200.000	-0.063	-0.336
-330.202	90.455	-0.061	-0.068
-329.187	13.834	0.281	-0.219
-328.172	-70.209	-0.201	-0.077
-327.158	-120.400	-0.130	-0.022
-326.143	251.179	-0.038	-0.065
-325.129	-200.000	0.026	0.221
-324.114	-200.000	0.036	0.177
-323.099	-200.000	-0.034	0.299
-322.085	249.715	-0.150	0.254
-321.070	-119.464	0.123	-0.021
-320.056	-200.000	0.000	-0.173
-319.041	563.252	0.007	-0.016
-318.026	-200.000	0.021	-0.302
-317.012	799.072	-0.166	-0.457
-315.997	-137.942	0.162	-0.018
-314.983	-200.000	0.016	0.366
-313.968	-109.994	0.470	-0.098
-312.953	-142.280	0.397	-0.039
-311.939	-85.491	0.172	-0.054
-310.924	85.782	0.195	-0.214
-309.910	-26.693	-0.241	0.141
-308.895	-52.081	-0.188	0.087
-307.880	-170.249	-0.070	0.002
-306.866	-18.612	0.111	-0.069
-305.851	-108.066	-0.307	0.067
-304.837	-37.196	-0.064	0.034
-303.822	-13.982	-0.074	0.048
-302.807	-78.027	0.273	0.094
-301.793	70.281	0.183	0.189
-300.778	247.764	-0.062	-0.104
-299.764	-200.000	0.040	-0.271
-298.749	221.831	-0.062	-0.099
-297.735	-123.192	0.120	0.019
-296.720	-139.781	0.291	0.031
-295.705	-51.998	-0.338	-0.157
-294.691	-49.185	-0.299	0.143
-293.676	-18.856	0.323	-0.201
-292.662	601.962	0.115	-0.286
-291.647	-37.048	0.194	-0.104
-290.632	-171.709	-0.368	-0.012
-289.618	-200.000	0.012	0.138
-288.603	-148.539	0.257	0.021
-287.589	590.853	0.042	0.104
-286.574	693.813	-0.126	0.330
-285.559	-44.783	-0.101	-0.050
-284.545	44.659	0.092	0.084
-283.530	-53.077	0.114	-0.052
-282.516	-81.642	0.117	-0.038
-281.501	-65.129	0.377	-0.152
-280.486	-200.000	-0.018	0.289
-279.472	115.672	-0.183	-0.224
-278.457	-101.600	-0.101	0.025
-277.443	474.673	-0.037	0.083
-276.428	61.851	0.206	-0.205
-275.413	-125.266	0.234	-0.036
-274.399	-13.252	0.115	-0.074
-273.384	-141.799	-0.374	-0.037
-272.370	41.268	-0.240	0.216
-271.355	460.411	-0.244	0.544
-270.340	200.889	0.135	0.207
-269.326	14.038	-0.228	-0.177
-268.311	800.000	0.053	-0.222
-267.297	-26.374	0.131	0.077
-266.282	-57.984	-0.201	0.087
-265.267	99.848	0.199	-0.230
-264.253	366.173	-0.013	-0.026
-263.238	685.982	-0.063	0.165
-262.224	-200.000	-0.032	0.263
-261.209	-152.221	-0.253	-0.018
-260.195	-11.579	0.086	0.057
-259.180	-84.991	-0.203	-0.064
-258.165	298.144	0.034	0.063
-257.151	-77.864	-0.322	-0.111
-256.136	185.673	-0.267	0.397
-255.122	-158.188	-0.224	-0.013
-254.107	698.530	-0.107	0.280
-253.092	800.000	-0.053	0.198
-252.078	121.561	0.156	-0.194
-251.063	800.000	0.041	0.136
-250.049	287.500	0.144	0.260
-249.034	461.223	0.031	0.068
-248.019	11.880	-0.096	-0.074
-247.005	-64.339	-0.242	0.098
-245.990	-2.368	-0.370	0.259
-244.976	290.200	-0.113	0.205
-243.961	-200.000	-0.011	0.241
-242.946	32.081	-0.174	0.149
-241.932	-200.000	-0.002	0.363
-240.917	800.000	-0.026	0.103
-239.903	800.000	0.064	-0.261
-238.888	-200.000	0.066	0.324
-237.873	-27.728	-0.273	-0.158
-236.859	-200.000	0.006	0.102
-235.844	98.662	0.144	0.165
-234.830	-200.000	-0.024	-0.285
-233.815	-73.897	0.127	0.046
-232.800	43.328	0.239	-0.218
-231.786	-57.002	0.112	0.049
-230.771	34.688	0.334	-0.291
-229.757	800.000	-0.029	-0.113
-228.742	332.334	-0.132	0.253
-227.727	365.163	-0.101	-0.204
-226.713	356.293	-0.265	0.526
-225.698	-20.812	-0.250	-0.153
-224.684	167.945	0.124	-0.176
-223.669	-36.118	0.153	0.082
-222.655	-200.000	0.000	-0.219
-221.640	118.783	0.011	0.013
-220.625	33.891	0.169	-0.146
-219.611	-200.000	-0.016	0.114
-218.596	725.829	0.024	0.064
-217.582	-43.847	0.380	-0.191
-216.567	307.294	-0.120	-0.224
-215.552	-200.000	-0.041	-0.326
-214.538	-56.322	0.157	-0.070
-213.523	-200.000	-0.008	0.080
-212.509	405.490	-0.012	0.025
-211.494	231.354	-0.152	-0.248
-210.479	721.939	0.085	-0.226
-209.465	-200.000	0.028	0.188
-208.450	-200.000	-0.027	0.142
-207.436	-45.220	0.145	0.072
-206.421	-2.829	-0.289	-0.201
-205.406	390.250	0.162	0.335
-204.392	-200.000	0.011	-0.067
-203.377	-165.072	-0.110	-0.005
-202.363	-130.826	-0.093	0.012
-201.348	200.442	-0.190	-0.290
-200.333	-200.000	-0.025	0.150
-199.319	439.368	-0.045	0.097
-198.304	206.539	0.137	0.213
-197.290	-26.253	-0.097	0.057
-196.275	-110.287	0.201	-0.042
-195.260	-23.334	0.249	-0.149
-194.246	110.024	0.135	0.161
-193.231	800.000	0.036	0.124
-192.217	60.178	-0.294	0.289
-191.202	-128.146	0.165	-0.024
-190.187	-200.000	0.048	0.262
-189.173	217.731	-0.105	0.167
-188.158	5.299	-0.182	-0.134
-187.144	-200.000	-0.020	0.264
-186.129	42.797	-0.102	0.092
-185.114	164.235	0.071	0.100
-184.100	229.085	-0.067	-0.109
-183.085	304.438	0.074	0.136
-182.071	758.909	0.138	0.372
-181.056	333.340	-0.035	-0.067
-180.042	-200.000	-0.004	0.074
-179.027	-200.000	-0.006	0.190
-178.012	0.817	-0.231	0.165
-176.998	-72.727	0.061	0.022
-175.983	-134.939	-0.334	-0.040
-174.969	141.075	-0.171	0.224
-173.954	-107.628	0.194	0.042
-172.939	-200.000	0.002	0.069
-171.925	-106.055	-0.158	0.035
-170.910	-200.000	-0.002	0.124
-169.896	152.087	0.123	0.167
-168.881	-14.207	0.199	0.128
-167.866	-117.806	0.082	-0.015
-166.852	800.000	-0.120	-0.466
-165.837	-58.834	0.094	0.041
-164.823	800.000	-0.005	0.017
-163.808	-49.541	0.073	0.034
-162.793	-13.152	0.388	0.251
-161.779	-200.000	-0.020	-0.100
-160.764	-110.358	-0.085	0.018
-159.750	241.810	0.172	-0.286
-158.735	-200.000	-0.063	0.284
-157.720	-71.313	0.277	-0.103
-156.706	458.650	-0.117	-0.260
-155.691	-105.594	0.298	0.067
-154.677	-200.000	-0.003	0.130
-153.662	-200.000	-0.038	-0.283
-152.647	269.149	0.091	-0.158
-151.633	185.492	0.174	0.257
-150.618	765.485	0.037	0.099
-149.604	-200.000	0.077	0.403
-148.589	667.488	0.049	-0.126
-147.574	800.000	-0.107	-0.304
-146.560	-200.000	-0.018	0.325
-145.545	309.417	-0.049	-0.091
-144.531	-163.006	-0.095	-0.005
-143.516	800.000	-0.045	-0.180
-142.502	-107.383	0.276	-0.060
-141.487	-100.220	-0.274	-0.068
-140.472	32.209	0.373	0.320
-139.458	171.992	0.082	-0.117
-138.443	29.847	-0.103	-0.087
-137.429	429.374	-0.058	0.125
-136.414	116.622	-0.139	0.169
-135.399	380.869	0.109	-0.221
-134.385	-200.000	-0.064	-0.429
-133.370	490.333	-0.107	-0.242
-132.356	209.170	0.142	0.221
-131.341	207.644	-0.232	0.359
-130.326	208.823	-0.120	0.187
-129.312	-200.000	0.017	0.118
-128.297	-105.815	0.375	-0.084
-127.283	800.000	0.054	-0.230
-126.268	-200.000	-0.035	0.182
-125.253	-200.000	-0.009	-0.223
-124.239	-128.014	-0.275	-0.039
-123.224	-179.046	-0.055	-0.001
-122.210	483.989	-0.097	0.218
-121.195	-121.323	0.334	-0.055
-120.180	487.519	0.089	0.201
-119.166	8.421	-0.292	-0.218
-118.151	-100.514	-0.216	0.053
-117.137	35.788	0.228	-0.199
-116.122	44.892	0.091	-0.083
-115.107	-26.630	-0.126	0.073
-114.093	0.711	0.235	-0.167
-113.078	-125.161	0.316	-0.048
-112.064	-200.000	0.035	-0.251
-111.049	270.117	0.069	0.121
-110.034	-122.321	-0.412	-0.067
-109.020	2.760	-0.012	-0.009
-108.005	627.183	0.039	-0.099
-106.991	12.214	-0.074	-0.057
-105.976	246.612	0.116	-0.193
-104.962	-200.000	-0.015	0.391
-103.947	218.517	0.181	0.286
-102.932	-22.372	-0.139	0.083
-101.918	-118.201	-0.134	0.024
-100.903	30.210	0.228	0.193
-99.889	81.363	0.339	0.363
-98.874	-98.724	0.207	-0.052
-97.859	-126.711	0.332	-0.049
-96.845	-200.000	-0.017	0.263
-95.830	-10.560	0.337	-0.221
-94.816	800.000	-0.130	-0.361
-93.801	800.000	-0.054	-0.203
-92.786	95.012	0.250	0.282
-91.772	102.280	-0.229	-0.266
-90.757	20.362	0.168	-0.135
-89.743	403.486	-0.119	0.249
-88.728	19.955	-0.095	0.076
-87.713	-87.811	-0.011	0.003
-86.699	40.498	-0.127	-0.113
-85.684	-20.328	0.336	-0.205
-84.670	-129.230	0.196	0.027
-83.655	-51.378	0.143	-0.066
-82.640	800.000	0.100	0.322
-81.626	-31.004	0.112	-0.063
-80.611	-135.765	-0.080	-0.009
-79.597	-200.000	-0.016	0.112
-78.582	103.355	0.106	0.124
-77.567	-152.927	0.214	0.015
-76.553	-40.923	0.103	-0.053
-75.538	-32.424	-0.283	0.157
-74.524	206.220	0.109	0.168
-73.509	110.509	-0.290	0.346
-72.494	-12.499	0.196	-0.127
-71.480	-200.000	-0.016	-0.190
-70.465	-36.438	0.159	0.085
-69.451	-39.373	-0.132	-0.069
-68.436	161.714	-0.107	-0.149
-67.422	-200.000	0.080	-0.374
-66.407	174.832	-0.116	-0.166
-65.392	96.887	-0.111	0.126
-64.378	500.893	0.085	0.195
-63.363	318.055	-0.107	0.200
-62.349	-133.384	0.171	0.021
-61.334	128.523	-0.697	-0.880
-60.319	-14.614	0.572	0.364
-59.305	-200.000	-0.068	-0.872
-58.290	-200.000	0.235	1.109
-57.276	800.000	0.572	1.712
-56.261	-200.000	96.226	581.745
-55.246	565.826	1372.379	3295.701
-54.232	152.394	2580.666	3488.449
-53.217	106.812	2313.002	2718.356
-52.203	42.233	2063.982	1856.448
-51.188	37.255	1976.973	1733.805
-50.173	35.706	1958.421	1703.753
-49.159	50.295	2010.328	1880.283
-48.144	53.464	2030.010	1927.088
-47.130	37.865	1986.942	1747.749
-46.115	35.408	1975.629	1715.793
-45.100	35.375	1972.358	1712.582
-44.086	35.245	1969.966	1709.282
-43.071	35.280	1967.614	1707.482
-42.057	35.161	1965.748	1704.737
-41.042	35.234	1963.833	1703.663
-40.027	35.268	1961.634	1701.983
-39.013	35.301	1959.685	1700.520
-37.998	35.375	1957.678	1699.363
-36.984	35.307	1956.341	1697.534
-35.969	35.400	1954.031	1696.286
-34.954	35.506	1951.947	1695.347
-33.940	35.516	1950.731	1694.312
-32.925	35.362	1949.704	1691.994
-31.911	35.369	1947.907	1690.427
-30.896	35.582	1945.459	1690.115
-29.881	35.497	1944.321	1688.308
-28.867	35.571	1942.659	1687.445
-27.852	35.478	1941.086	1685.198
-26.838	35.467	1939.139	1683.343
-25.823	35.472	1937.977	1682.317
-24.809	35.461	1935.812	1680.268
-23.794	35.442	1934.023	1678.483
-22.779	35.382	1932.438	1676.519
-21.765	35.429	1930.896	1675.528
-20.750	35.410	1929.417	1674.011
-19.736	35.410	1927.398	1672.193
-18.721	35.559	1925.662	1671.918
-17.706	35.486	1924.385	1670.103
-16.692	35.499	1922.419	1668.443
-15.677	35.441	1921.248	1666.858
-14.663	35.425	1920.330	1665.856
-13.648	35.372	1919.060	1664.234
-12.633	35.449	1917.722	1663.676
-11.619	35.451	1916.372	1662.455
-10.604	35.459	1914.763	1661.056
-9.590	35.439	1913.435	1659.667
-8.575	35.403	1911.842	1657.907
-7.560	35.454	1910.889	1657.459
-6.546	35.456	1909.285	1656.017
-5.531	35.484	1907.759	1654.870
-4.517	35.451	1906.937	1653.804
-3.502	35.364	1906.042	1652.218
-2.487	35.433	1904.997	1651.840
-1.473	35.437	1903.985	1650.926
-0.458	35.414	1898.947	1646.302
0.556	36.000	1878.576	1615.561
1.571	31.043	1857.072	1555.699
2.586	26.469	1877.872	1534.302
3.600	24.909	1913.073	1549.431
4.615	24.123	1906.909	1537.521
5.629	18.451	1804.279	1408.167
6.644	8.437	1681.919	1235.478
7.659	3.339	1642.023	1167.511
8.673	2.846	1638.473	1161.156
9.688	2.808	1637.089	1159.785
10.702	2.777	1635.918	1158.614
11.717	2.679	1632.666	1155.470
12.731	3.053	1631.782	1157.557
13.746	9.585	1647.858	1218.400
14.761	20.252	1671.172	1316.929
15.775	26.256	1682.687	1371.623
16.790	27.750	1684.496	1384.322
17.804	27.957	1684.128	1385.472
18.819	27.966	1683.409	1384.825
19.834	27.977	1682.428	1383.977
20.848	28.284	1681.998	1385.826
21.863	28.415	1681.123	1385.974
22.877	28.360	1680.091	1384.585
23.892	28.349	1679.277	1383.705
24.907	28.375	1678.440	1383.088
25.921	28.428	1677.151	1382.306
26.936	28.340	1676.424	1380.923
27.950	28.254	1675.895	1379.714
28.965	28.320	1674.989	1379.340
29.980	28.413	1673.851	1378.986
30.994	28.335	1672.973	1377.555
32.009	28.341	1671.525	1376.282
33.023	28.418	1670.554	1375.941
34.038	28.304	1669.891	1374.415
35.053	28.393	1668.737	1374.009
36.067	28.401	1667.825	1373.203
37.082	28.385	1666.972	1372.256
38.096	28.415	1665.871	1371.455
39.111	28.282	1666.071	1370.504
40.126	28.343	1664.824	1369.809
41.140	28.360	1664.157	1369.270
42.155	28.351	1663.053	1368.171
43.169	28.326	1661.801	1366.833
44.184	28.267	1661.017	1365.624
45.199	28.321	1660.067	1365.125
46.213	28.328	1658.972	1364.156
47.228	28.386	1656.874	1362.741
48.242	28.356	1655.863	1361.572
49.257	28.380	1654.482	1360.488
50.271	28.341	1653.595	1359.355
51.286	28.269	1652.994	1358.205
52.301	28.355	1651.439	1357.444
53.315	28.323	1650.309	1356.154
54.330	28.292	1649.134	1354.844
55.344	28.293	1647.633	1353.495
56.359	28.302	1646.358	1352.397
57.374	28.386	1645.025	1351.804
58.388	28.326	1644.233	1350.588
59.403	28.315	1643.198	1349.538
60.417	28.376	1641.507	1348.480
61.432	28.366	1640.804	1347.706
62.447	28.333	1639.805	1346.529
63.461	28.414	1638.420	1345.864
64.476	28.408	1638.029	1345.378
65.490	28.425	1636.697	1344.293
66.505	28.394	1635.783	1343.191
67.520	28.359	1634.945	1342.127
68.534	28.409	1634.358	1341.898
69.549	28.327	1633.227	1340.247
70.563	28.415	1631.985	1339.756
71.578	28.417	1630.877	1338.744
72.593	28.376	1629.824	1337.460
73.607	28.366	1629.124	1336.697
74.622	28.437	1628.030	1336.193
75.636	28.310	1627.778	1334.946
76.651	28.374	1626.690	1334.400
77.666	28.362	1625.946	1333.581
78.680	28.316	1624.747	1332.151
79.695	28.328	1623.893	1331.417
80.709	28.334	1623.039	1330.643
81.724	28.361	1622.454	1330.243
82.739	28.367	1621.403	1329.307
83.753	28.375	1620.636	1328.619
84.768	28.418	1619.487	1327.868
85.782	28.464	1618.597	1327.353
86.797	28.430	1617.496	1326.091
87.812	28.394	1617.010	1325.312
88.826	28.371	1616.199	1324.361
89.841	28.384	1615.167	1323.495
90.855	28.390	1614.662	1323.009
91.870	28.431	1612.937	1321.775
92.884	28.380	1612.239	1320.717
93.899	28.442	1611.361	1320.327
94.914	28.430	1610.095	1319.090
95.928	28.428	1609.125	1318.164
96.943	28.368	1608.183	1316.842
97.957	28.359	1606.688	1315.437
98.972	28.397	1605.317	1314.473
99.987	28.411	1603.958	1313.342
101.001	28.461	1602.521	1312.409
102.016	28.478	1601.036	1311.197
103.030	28.317	1600.173	1309.222
104.045	28.380	1599.587	1309.079
105.060	28.429	1597.482	1307.588
106.074	28.351	1596.419	1306.044
107.089	28.431	1595.285	1305.570
108.103	28.390	1594.402	1304.441
109.118	28.406	1593.030	1303.319
110.133	28.454	1591.744	1302.494
111.147	28.558	1590.406	1302.020
112.162	28.465	1589.751	1300.706
113.176	28.463	1588.842	1299.837
114.191	28.467	1587.616	1298.743
115.206	28.426	1586.485	1297.418
116.220	28.393	1585.796	1296.507
117.235	28.431	1584.508	1295.608
118.249	28.487	1583.269	1294.871
119.264	28.464	1582.080	1293.623
120.279	28.436	1580.751	1292.223
121.293	28.491	1579.908	1291.812
122.308	28.505	1578.708	1290.815
123.322	28.422	1577.767	1289.346
124.337	28.592	1576.136	1289.091
125.352	28.518	1575.561	1287.987
126.366	28.565	1574.396	1287.248
127.381	28.526	1574.052	1286.581
128.395	28.536	1573.151	1285.802
129.410	28.609	1571.404	1284.772
130.424	28.552	1570.774	1283.743
131.439	28.622	1569.339	1282.945
132.454	28.542	1568.606	1281.672
133.468	28.538	1567.091	1280.295
134.483	28.560	1565.679	1279.180
135.497	28.557	1564.468	1278.062
136.512	28.567	1563.766	1277.440
137.527	28.496	1562.529	1275.827
138.541	28.560	1561.556	1275.366
139.556	28.533	1560.543	1274.233
140.570	28.540	1559.309	1273.160
141.585	28.628	1557.648	1272.308
142.600	28.529	1556.668	1270.709
143.614	28.519	1555.798	1269.813
144.629	28.483	1555.169	1268.936
145.643	28.593	1553.560	1268.274
146.658	28.534	1552.381	1266.793
147.673	28.395	1551.281	1264.823
148.687	28.412	1550.207	1263.956
149.702	28.537	1548.829	1263.577
150.716	28.509	1547.670	1262.331
151.731	28.521	1546.652	1261.472
152.746	28.538	1546.116	1261.035
153.760	28.528	1544.418	1259.470
154.775	28.542	1543.580	1258.776
155.789	28.563	1542.516	1257.936
156.804	28.579	1541.877	1257.414
157.819	28.587	1540.471	1256.209
158.833	28.556	1539.326	1254.954
159.848	28.544	1538.784	1254.319
160.862	28.710	1537.853	1254.583
161.877	28.587	1537.055	1252.980
162.892	28.635	1535.993	1252.334
163.906	28.619	1534.703	1251.062
164.921	28.705	1533.949	1250.925
165.935	28.623	1533.498	1249.889
166.950	28.699	1532.599	1249.557
167.964	28.618	1531.639	1248.112
168.979	28.595	1530.861	1247.214
169.994	28.652	1529.610	1246.468
171.008	28.633	1528.683	1245.481
172.023	28.793	1527.587	1245.562
173.037	28.771	1526.314	1244.264
174.052	28.677	1525.225	1242.628
175.067	28.738	1524.698	1242.499
176.081	28.704	1524.157	1241.722
177.096	28.756	1522.609	1240.701
178.110	28.727	1521.477	1239.475
179.125	28.722	1520.466	1238.504
180.140	28.845	1519.449	1238.398
181.154	28.737	1519.307	1237.444
182.169	28.758	1518.083	1236.481
183.183	28.683	1517.414	1235.317
184.198	28.631	1516.686	1234.265
185.213	28.727	1515.751	1234.046
186.227	28.763	1514.650	1233.278
187.242	28.792	1513.822	1232.688
188.256	28.943	1512.517	1232.533
189.271	28.825	1512.213	1231.381
190.286	28.795	1511.300	1230.331
191.300	28.790	1510.609	1229.623
192.315	28.851	1509.779	1229.248
193.329	28.657	1509.089	1227.281
194.344	28.789	1507.897	1227.086
195.359	28.796	1507.594	1226.778
196.373	28.799	1506.406	1225.723
197.388	28.816	1505.246	1224.784
198.402	28.776	1504.404	1223.724
199.417	28.711	1503.430	1222.390
200.432	28.805	1502.680	1222.296
201.446	28.745	1502.440	1221.593
202.461	28.753	1501.198	1220.530
203.475	28.787	1500.453	1220.042
204.490	28.767	1499.498	1219.024
205.504	28.751	1499.091	1218.482
206.519	28.894	1497.782	1218.255
207.534	28.832	1497.335	1217.374
208.548	28.803	1496.452	1216.357
209.563	28.824	1495.314	1215.459
210.577	28.814	1494.661	1214.760
211.592	28.865	1493.241	1213.835
212.607	28.970	1492.676	1213.958
213.621	28.829	1492.482	1212.765
214.636	29.030	1491.311	1213.027
215.650	28.966	1490.385	1211.749
216.665	28.933	1489.630	1210.808
217.680	28.887	1488.841	1209.760
218.694	28.875	1488.423	1209.233
219.709	28.862	1487.653	1208.417
220.723	28.890	1486.759	1207.765
221.738	28.857	1486.052	1206.870
222.753	28.862	1485.057	1205.987
223.767	28.754	1484.538	1204.749
224.782	28.795	1483.176	1203.804
225.796	28.942	1482.593	1204.191
226.811	28.987	1481.541	1203.523
227.826	29.027	1481.246	1203.439
228.840	28.899	1480.387	1201.798
229.855	28.924	1479.727	1201.320
230.869	28.981	1478.563	1200.640
231.884	28.962	1477.511	1199.551
232.899	28.932	1476.672	1198.572
233.913	28.964	1475.760	1197.934
234.928	28.889	1474.734	1196.504
235.942	29.018	1473.356	1196.122
236.957	29.068	1472.379	1195.545
237.972	29.005	1472.244	1194.924
238.986	29.026	1470.735	1193.727
240.001	28.971	1469.976	1192.649
241.015	29.071	1469.234	1192.590
242.030	29.159	1467.956	1192.019
243.045	29.103	1467.292	1191.011
244.059	29.180	1466.101	1190.437
245.074	29.119	1465.860	1189.743
246.088	29.168	1464.776	1189.072
247.103	29.176	1463.920	1188.323
248.117	29.201	1463.197	1187.789
249.132	29.249	1462.170	1187.164
250.147	29.134	1461.777	1185.995
251.161	29.214	1461.372	1186.081
252.176	29.246	1460.279	1185.291
253.190	29.244	1459.758	1184.751
254.205	29.270	1458.905	1184.120
255.220	29.240	1457.545	1182.724
256.234	29.275	1456.810	1182.245
257.249	29.253	1456.387	1181.658
258.263	29.222	1455.856	1180.922
259.278	29.308	1454.789	1180.501
260.293	29.373	1453.695	1179.926
261.307	29.392	1452.849	1179.255
262.322	29.275	1452.642	1178.238
263.336	29.379	1451.622	1177.972
264.351	29.360	1450.596	1176.908
265.366	29.381	1449.839	1176.326
266.380	29.317	1449.088	1175.207
267.395	29.229	1448.712	1174.234
268.409	29.271	1447.653	1173.542
269.424	29.340	1446.618	1173.033
270.439	29.302	1445.739	1171.976
271.453	29.376	1444.986	1171.737
272.468	29.309	1444.528	1170.835
273.482	29.353	1443.830	1170.443
274.497	29.368	1443.082	1169.831
275.512	29.365	1442.182	1168.974
276.526	29.334	1441.657	1168.253
277.541	29.407	1439.930	1167.212
278.555	29.420	1439.563	1166.893
279.570	29.460	1439.078	1166.645
280.585	29.446	1438.312	1165.833
281.599	29.346	1437.530	1164.464
282.614	29.395	1436.530	1163.860
283.628	29.520	1434.992	1163.304
284.643	29.493	1434.323	1162.489
285.657	29.512	1433.643	1161.954
286.672	29.410	1432.829	1160.548
287.687	29.386	1431.934	1159.568
288.701	29.554	1430.832	1159.628
289.716	29.439	1430.861	1158.831
290.730	29.500	1430.208	1158.581
291.745	29.522	1428.545	1157.270
292.760	29.560	1427.965	1156.935
293.774	29.554	1426.780	1155.837
294.789	29.533	1426.202	1155.133
295.803	29.482	1425.970	1154.523
296.818	29.577	1424.976	1154.211
297.833	29.608	1423.986	1153.500
298.847	29.607	1423.332	1152.861
299.862	29.586	1422.014	1151.559
300.876	29.656	1421.644	1151.595
301.891	29.626	1420.562	1150.428
302.906	29.598	1420.276	1149.924
303.920	29.687	1419.497	1149.742
304.935	29.641	1419.293	1149.189
305.949	29.707	1418.425	1148.798
306.964	29.675	1417.402	1147.668
307.979	29.692	1416.421	1146.878
308.993	29.792	1415.232	1146.433
310.008	29.779	1414.834	1145.927
311.022	29.720	1414.016	1144.801
312.037	29.762	1412.973	1144.114
313.052	29.754	1412.034	1143.201
314.066	29.867	1411.059	1143.008
315.081	29.759	1410.248	1141.583
316.095	29.836	1409.323	1141.212
317.110	29.765	1408.507	1140.008
318.125	29.746	1407.872	1139.280
319.139	29.777	1407.133	1138.772
320.154	29.799	1406.038	1137.921
321.168	29.883	1405.530	1137.925
322.183	29.789	1405.088	1136.886
323.197	29.663	1404.199	1135.293
324.212	29.728	1402.834	1134.487
325.227	29.828	1401.821	1134.180
326.241	29.860	1401.297	1133.856
327.256	29.811	1400.610	1132.896
328.270	30.014	1399.421	1133.074
329.285	29.908	1399.161	1132.119
330.300	29.828	1398.340	1130.863
331.314	29.922	1397.304	1130.500
332.329	29.965	1396.650	1130.133
333.343	29.927	1396.282	1129.503
334.358	29.973	1395.528	1129.076
335.373	30.063	1394.700	1128.852
336.387	30.050	1393.409	1127.629
337.402	30.065	1392.949	1127.248
338.416	30.092	1392.506	1126.958
339.431	30.006	1391.993	1125.918
340.446	30.063	1391.287	1125.590
341.460	30.041	1390.467	1124.697
342.475	30.051	1389.333	1123.741
343.489	30.145	1388.616	1123.630
344.504	30.155	1387.672	1122.826
345.519	30.058	1386.926	1121.540
346.533	30.089	1385.906	1120.798
347.548	30.167	1384.889	1120.349
348.562	30.163	1384.213	1119.682
349.577	30.152	1383.597	1119.019
350.592	30.160	1382.932	1118.428
351.606	30.080	1382.296	1117.332
352.621	30.114	1381.122	1116.487
353.635	30.120	1379.943	1115.473
354.650	30.225	1379.460	1115.615
355.665	30.206	1378.484	1114.612
356.679	30.188	1377.139	1113.322
357.694	30.226	1376.778	1113.158
358.708	30.318	1375.467	1112.548
359.723	30.212	1374.775	1111.260
360.738	30.223	1373.227	1109.971
361.752	30.276	1372.076	1109.263
362.767	30.274	1371.133	1108.391
363.781	30.257	1370.489	1107.671
364.796	30.267	1369.743	1107.027
365.810	30.338	1368.853	1106.634
366.825	30.465	1368.273	1106.823
367.840	30.342	1367.699	1105.531
368.854	30.312	1366.993	1104.681
369.869	30.449	1366.467	1104.976
370.883	30.454	1366.356	1104.820
371.898	30.376	1365.614	1103.654
372.913	30.455	1364.700	1103.290
373.927	30.517	1363.807	1102.839
374.942	30.450	1362.933	1101.632
375.956	30.475	1362.383	1101.243
376.971	30.504	1361.592	1100.673
377.986	30.414	1360.794	1099.403
379.000	30.419	1360.252	1098.893
380.015	30.510	1359.078	1098.387
381.029	30.458	1358.599	1097.593
382.044	30.520	1357.752	1097.182
383.059	30.519	1357.369	1096.770
384.073	30.527	1356.643	1096.134
385.088	30.606	1356.169	1096.115
386.102	30.616	1355.608	1095.626
387.117	30.545	1355.130	1094.723
388.132	30.583	1354.148	1094.057
389.146	30.504	1353.868	1093.269
390.161	30.561	1352.784	1092.635
391.175	30.686	1352.162	1092.770
392.190	30.624	1351.426	1091.714
393.205	30.573	1350.711	1090.740
394.219	30.651	1349.706	1090.286
395.234	30.667	1349.009	1089.722
396.248	30.672	1347.814	1088.687
397.263	30.668	1347.193	1088.067
398.278	30.749	1345.769	1087.294
399.292	30.797	1344.940	1086.812
400.307	30.748	1344.292	1085.902
401.321	30.839	1343.106	1085.379
402.336	30.714	1342.430	1084.010
403.350	30.822	1341.230	1083.577
404.365	30.782	1340.510	1082.661
405.380	30.772	1339.811	1081.945
406.394	30.719	1339.135	1080.998
407.409	30.828	1338.564	1081.071
408.423	30.837	1337.771	1080.389
409.438	30.992	1336.841	1080.437
410.453	31.017	1336.151	1079.930
411.467	30.972	1335.216	1078.821
412.482	30.954	1334.951	1078.406
413.496	30.979	1334.192	1077.840
414.511	30.976	1333.817	1077.426
415.526	30.969	1332.867	1076.525
416.540	30.834	1332.445	1075.305
417.555	30.951	1331.733	1075.311
418.569	30.914	1331.600	1074.896
419.584	30.954	1330.851	1074.430
420.599	30.974	1330.224	1073.938
421.613	93.796	1349.436	1440.405
422.628	93.282	1352.222	1440.518
