DTS Sentinel unit serial number:	SN413079Multiplexer serial number:	ORYXHardware model number:	OX4-SRSoftware version number:	ORYX F/W v4.00 Oryx Data Collector v3.7.2.0data status	okinstallation	princeton_trtdifferential loss correction	single-endedforward channel	channel 4reverse channel	N/Adate	2019/09/14time	10:41:35forward acquisition time	60.00reverse acquisition time	0.00gamma	496.2192k internal	0.2296k external	0.2296temperature offset calibration	1.0148default loss term (dB/km)	0.3790temperature slope calibration	1.0000multiplexer offset coefficient	1.0000multiplexer slope coefficient	1.0000fibre end	0.00T internal ref (°C)	35.30T ext. ref 1 (°C)	4.26T ext. ref 2 (°C)	32.90length (m)	temperature (°C)	Stokes	anti-Stokes-747.200	-128.171	-0.079	0.012
-746.185	13.382	0.290	0.230
-745.171	350.147	-0.101	0.204
-744.156	-200.000	0.010	-0.218
-743.142	800.000	0.071	-0.306
-742.127	669.249	0.076	-0.201
-741.112	104.358	0.220	0.264
-740.098	-68.494	-0.058	0.023
-739.083	-58.092	-0.178	-0.080
-738.069	-200.000	-0.041	0.292
-737.054	-43.007	-0.218	0.113
-736.039	800.000	0.026	0.088
-735.025	800.000	-0.013	0.039
-734.010	133.148	-0.219	-0.289
-732.996	57.479	-0.068	-0.067
-731.981	-10.251	-0.412	0.279
-730.966	60.368	0.140	0.142
-729.952	-62.872	-0.211	0.089
-728.937	16.562	-0.304	-0.246
-727.923	49.992	-0.186	-0.179
-726.908	-112.450	0.130	0.027
-725.894	800.000	0.054	0.208
-724.879	-40.434	-0.245	0.130
-723.864	-92.384	-0.174	-0.050
-722.850	800.000	0.050	-0.163
-721.835	-20.712	0.280	-0.175
-720.821	800.000	0.021	0.072
-719.806	-7.830	-0.164	-0.113
-718.791	-200.000	0.039	-0.177
-717.777	24.251	-0.096	-0.081
-716.762	418.271	0.091	-0.199
-715.748	-200.000	-0.022	-0.122
-714.733	30.719	-0.222	-0.194
-713.718	800.000	0.031	0.113
-712.704	-200.000	-0.037	-0.206
-711.689	-50.510	0.065	-0.031
-710.675	-200.000	0.049	0.292
-709.660	14.402	0.076	0.060
-708.645	-136.536	0.058	0.007
-707.631	-77.669	-0.337	-0.119
-706.616	-186.206	-0.178	-0.003
-705.602	-15.996	-0.078	0.051
-704.587	800.000	-0.045	-0.149
-703.572	104.810	0.081	0.098
-702.558	63.124	-0.284	-0.290
-701.543	-183.120	0.294	0.005
-700.529	-200.000	0.033	-0.149
-699.514	361.170	-0.051	-0.104
-698.499	223.379	-0.133	0.219
-697.485	-88.459	-0.131	0.040
-696.470	-118.566	0.296	0.053
-695.456	245.347	0.048	0.082
-694.441	-19.218	-0.136	-0.086
-693.426	0.192	0.145	-0.106
-692.412	-32.097	0.061	-0.035
-691.397	37.401	-0.075	-0.068
-690.383	-200.000	-0.044	0.245
-689.368	800.000	-0.068	0.248
-688.354	-95.167	-0.226	0.062
-687.339	-200.000	0.039	-0.269
-686.324	-86.472	0.060	-0.019
-685.310	82.572	-0.122	-0.135
-684.295	-156.827	0.165	-0.010
-683.281	-200.000	-0.004	0.023
-682.266	88.099	-0.169	-0.191
-681.251	11.760	0.144	-0.113
-680.237	-200.000	-0.024	0.135
-679.222	7.707	0.100	0.076
-678.208	303.850	-0.073	-0.137
-677.193	-129.723	0.095	-0.013
-676.178	139.855	0.229	0.307
-675.164	45.378	-0.072	-0.067
-674.149	136.288	0.097	0.128
-673.135	-64.577	-0.069	0.029
-672.120	578.004	0.072	-0.180
-671.105	437.776	-0.160	-0.355
-670.091	-152.276	0.181	-0.013
-669.076	-100.032	-0.203	-0.052
-668.062	183.098	0.076	-0.115
-667.047	6.794	0.023	-0.018
-666.032	43.489	-0.060	0.056
-665.018	374.033	0.071	0.146
-664.003	189.504	-0.085	-0.130
-662.989	227.039	0.075	-0.124
-661.974	388.080	0.080	-0.169
-660.959	-160.483	0.126	-0.007
-659.945	-200.000	-0.040	0.221
-658.930	416.176	-0.213	-0.463
-657.916	296.525	-0.121	-0.226
-656.901	13.558	-0.185	-0.146
-655.886	314.009	-0.134	0.257
-654.872	25.574	0.208	0.176
-653.857	-200.000	-0.062	0.328
-652.843	-200.000	-0.011	0.125
-651.828	26.512	0.194	-0.165
-650.814	-200.000	-0.029	-0.326
-649.799	800.000	0.032	0.109
-648.784	491.658	-0.015	-0.035
-647.770	702.283	0.121	-0.326
-646.755	-43.476	-0.271	-0.140
-645.741	54.272	0.214	-0.210
-644.726	800.000	0.041	-0.117
-643.711	800.000	0.038	0.113
-642.697	270.707	0.082	0.146
-641.682	501.012	-0.124	-0.292
-640.668	-116.464	0.235	0.044
-639.653	233.427	0.278	0.465
-638.638	36.492	-0.250	0.225
-637.624	-1.331	-0.262	0.188
-636.609	629.569	0.139	-0.358
-635.595	-200.000	-0.033	-0.158
-634.580	-200.000	0.020	-0.203
-633.565	18.913	-0.212	0.173
-632.551	-105.641	0.155	-0.036
-631.536	-27.125	-0.353	0.209
-630.522	-89.102	0.185	-0.056
-629.507	-134.155	-0.161	0.020
-628.492	-54.192	-0.185	-0.086
-627.478	104.721	-0.026	-0.031
-626.463	682.272	0.150	0.398
-625.449	692.436	-0.075	-0.201
-624.434	800.000	-0.104	0.416
-623.419	62.013	0.173	0.175
-622.405	172.951	-0.084	-0.123
-621.390	-174.106	-0.111	0.003
-620.376	-25.338	-0.285	0.171
-619.361	-47.354	0.426	0.211
-618.346	27.732	0.058	0.050
-617.332	33.045	-0.328	-0.289
-616.317	341.718	-0.189	-0.376
-615.303	25.288	0.123	0.104
-614.288	167.360	-0.176	0.254
-613.273	-200.000	0.004	-0.288
-612.259	154.405	-0.149	-0.209
-611.244	69.749	-0.208	-0.218
-610.230	796.928	0.132	0.370
-609.215	-101.833	-0.131	-0.032
-608.201	-144.719	-0.167	-0.016
-607.186	800.000	0.080	-0.354
-606.171	530.114	-0.061	-0.147
-605.157	-125.101	-0.186	-0.029
-604.142	156.500	-0.153	-0.215
-603.128	29.885	-0.270	0.233
-602.113	433.491	0.196	0.432
-601.098	66.711	-0.124	0.128
-600.084	233.830	0.152	-0.255
-599.069	800.000	0.085	-0.282
-598.055	-27.369	-0.329	0.195
-597.040	-129.306	0.296	-0.042
-596.025	632.214	-0.107	-0.275
-595.011	10.728	-0.099	-0.077
-593.996	-87.750	-0.046	-0.014
-592.982	-138.392	-0.304	0.034
-591.967	-73.457	0.183	-0.068
-590.952	28.136	-0.135	-0.116
-589.938	518.605	-0.052	0.124
-588.923	603.499	-0.024	0.061
-587.909	28.611	0.024	0.021
-586.894	644.605	0.011	0.029
-585.879	-55.270	-0.103	0.047
-584.865	-200.000	0.014	0.287
-583.850	196.040	0.064	0.098
-582.836	800.000	0.059	-0.191
-581.821	-30.863	-0.130	-0.075
-580.806	-68.816	-0.235	-0.092
-579.792	789.480	-0.145	-0.403
-578.777	623.860	-0.138	-0.353
-577.763	192.844	0.125	0.192
-576.748	-116.420	0.337	0.063
-575.733	82.700	0.142	-0.156
-574.719	28.274	0.063	-0.054
-573.704	-138.378	-0.208	0.023
-572.690	-9.086	-0.153	0.104
-571.675	70.054	-0.198	-0.207
-570.661	21.464	0.335	-0.276
-569.646	258.821	-0.175	0.306
-568.631	-112.653	0.367	-0.074
-567.617	104.501	0.270	-0.323
-566.602	227.434	0.109	-0.179
-565.588	800.000	-0.060	0.248
-564.573	-200.000	0.013	-0.084
-563.558	741.028	-0.060	0.163
-562.544	-63.245	0.192	0.080
-561.529	-144.062	0.283	0.027
-560.515	-33.105	-0.330	-0.186
-559.500	-91.104	0.192	-0.056
-558.485	3.697	-0.257	-0.190
-557.471	-146.765	-0.314	-0.027
-556.456	19.984	-0.240	-0.196
-555.442	63.836	0.307	0.313
-554.427	-27.842	0.223	0.131
-553.412	235.386	-0.228	-0.381
-552.398	-12.145	-0.164	0.109
-551.383	-124.358	-0.125	-0.020
-550.369	-200.000	0.005	0.139
-549.354	800.000	-0.055	0.197
-548.339	-47.562	0.200	-0.098
-547.325	-200.000	-0.024	-0.222
-546.310	-82.228	0.188	0.062
-545.296	-113.463	0.188	-0.037
-544.281	102.661	0.051	0.061
-543.266	-200.000	-0.000	0.038
-542.252	-120.670	0.261	0.045
-541.237	-107.070	-0.196	-0.044
-540.223	-200.000	-0.032	0.491
-539.208	69.037	-0.245	0.255
-538.193	105.513	-0.042	-0.050
-537.179	-136.999	0.470	0.055
-536.164	-200.000	-0.019	0.111
-535.150	118.910	-0.147	0.185
-534.135	800.000	-0.044	-0.142
-533.121	800.000	-0.044	-0.161
-532.106	-113.250	0.036	-0.007
-531.091	155.459	0.208	-0.290
-530.077	526.472	-0.083	-0.199
-529.062	-100.776	0.153	0.038
-528.048	196.409	0.141	-0.217
-527.033	27.820	0.035	-0.030
-526.018	-119.903	-0.154	0.027
-525.004	-200.000	-0.004	-0.395
-523.989	-85.202	-0.168	0.053
-522.975	-193.204	0.303	-0.003
-521.960	-2.532	-0.028	0.020
-520.945	-200.000	0.419	0.000
-519.931	439.724	0.054	0.121
-518.916	-65.868	0.218	0.088
-517.902	178.653	0.178	0.264
-516.887	141.048	-0.141	-0.189
-515.872	137.460	-0.128	0.170
-514.858	800.000	-0.078	0.231
-513.843	140.788	-0.093	0.125
-512.829	5.067	0.181	0.135
-511.814	0.217	0.275	-0.199
-510.799	-200.000	-0.023	-0.111
-509.785	-200.000	-0.017	0.119
-508.770	9.811	0.253	0.195
-507.756	13.078	-0.266	0.209
-506.741	-200.000	-0.018	0.097
-505.726	150.525	0.158	0.218
-504.712	69.931	0.033	0.034
-503.697	-200.000	-0.027	-0.239
-502.683	31.049	0.331	-0.287
-501.668	152.294	0.198	0.273
-500.653	106.884	-0.233	-0.280
-499.639	800.000	0.056	-0.174
-498.624	96.774	0.206	0.238
-497.610	15.989	0.168	-0.134
-496.595	134.907	-0.128	-0.168
-495.581	-39.788	0.043	-0.023
-494.566	115.302	0.238	0.294
-493.551	412.635	0.048	0.104
-492.537	163.181	0.017	-0.025
-491.522	-45.094	0.191	0.096
-490.508	-71.281	-0.138	0.052
-489.493	-74.356	-0.207	-0.076
-488.478	-61.378	0.090	0.038
-487.464	-168.245	0.319	0.012
-486.449	-200.000	-0.028	-0.186
-485.435	-10.964	-0.160	0.107
-484.420	-135.529	0.129	0.016
-483.405	-200.000	-0.006	-0.102
-482.391	800.000	-0.042	0.179
-481.376	800.000	-0.111	0.455
-480.362	-124.173	-0.119	-0.019
-479.347	259.640	-0.265	0.462
-478.332	472.835	0.163	-0.371
-477.318	-133.324	0.177	0.023
-476.303	-110.145	-0.087	-0.018
-475.289	227.133	0.123	0.203
-474.274	287.466	0.117	0.213
-473.259	-5.127	0.127	0.088
-472.245	-43.167	-0.120	0.061
-471.230	-29.082	0.141	0.082
-470.216	33.316	0.085	-0.075
-469.201	-99.008	0.219	-0.056
-468.186	26.700	0.130	-0.110
-467.172	75.820	-0.208	-0.222
-466.157	36.663	0.030	-0.027
-465.143	518.358	-0.087	0.206
-464.128	-200.000	-0.057	-0.281
-463.113	64.499	0.151	-0.154
-462.099	-200.000	0.017	-0.111
-461.084	-37.160	0.508	-0.274
-460.070	61.319	-0.428	-0.430
-459.055	-26.577	-0.242	-0.143
-458.040	50.917	0.208	-0.199
-457.026	694.038	0.057	-0.152
-456.011	-132.259	0.238	0.031
-454.997	79.149	0.266	-0.288
-453.982	-200.000	0.033	0.217
-452.968	-64.972	0.136	0.056
-451.953	154.822	0.077	-0.106
-450.938	54.037	0.172	-0.167
-449.924	86.868	-0.058	-0.065
-448.909	-155.682	-0.543	-0.035
-447.895	53.386	0.157	-0.152
-446.880	-3.938	0.247	0.173
-445.865	-200.000	0.035	0.196
-444.851	256.578	-0.235	0.408
-443.836	-148.133	0.160	-0.013
-442.822	232.429	0.023	0.038
-441.807	-62.958	-0.162	-0.068
-440.792	-162.677	-0.161	-0.008
-439.778	-200.000	-0.029	0.195
-438.763	800.000	-0.112	-0.324
-437.749	-106.906	0.226	0.051
-436.734	-22.716	0.194	0.118
-435.719	47.330	0.126	-0.119
-434.705	106.398	0.119	0.142
-433.690	-128.431	-0.297	-0.043
-432.676	-200.000	0.056	0.282
-431.661	-165.955	-0.283	-0.012
-430.646	-30.916	-0.229	0.130
-429.632	251.090	-0.131	0.225
-428.617	-66.475	-0.226	0.091
-427.603	17.221	0.213	-0.170
-426.588	-200.000	-0.008	0.104
-425.573	800.000	-0.031	-0.128
-424.559	-107.859	-0.249	0.055
-423.544	-200.000	-0.025	-0.131
-422.530	-156.650	0.292	0.018
-421.515	-174.760	-0.176	0.005
-420.500	31.489	0.065	-0.056
-419.486	369.415	0.063	0.128
-418.471	-61.919	-0.324	0.137
-417.457	296.689	-0.217	-0.401
-416.442	740.947	0.061	-0.165
-415.428	-35.190	-0.394	-0.216
-414.413	142.913	0.008	-0.011
-413.398	-146.816	-0.286	0.025
-412.384	431.995	-0.111	-0.242
-411.369	236.362	0.127	-0.211
-410.355	800.000	-0.045	-0.182
-409.340	165.785	-0.164	-0.233
-408.325	34.530	-0.263	-0.231
-407.311	-200.000	0.020	0.136
-406.296	-132.916	-0.528	0.068
-405.282	3.230	-0.411	0.301
-404.267	-200.000	0.027	0.131
-403.252	-122.710	-0.196	0.032
-402.238	-200.000	-0.003	0.052
-401.223	-200.000	0.024	0.158
-400.209	-32.827	0.326	-0.182
-399.194	32.556	-0.103	0.090
-398.179	419.212	-0.027	-0.059
-397.165	800.000	-0.014	-0.047
-396.150	-119.080	-0.205	0.036
-395.136	87.135	0.182	0.203
-394.121	380.870	-0.208	-0.430
-393.106	-126.858	0.272	0.040
-392.092	-93.376	-0.050	0.014
-391.077	-128.207	0.222	0.032
-390.063	215.445	0.070	0.111
-389.048	800.000	0.095	0.278
-388.033	34.051	-0.101	-0.089
-387.019	-4.330	0.180	0.125
-386.004	-106.795	-0.253	-0.057
-384.990	-200.000	-0.008	0.382
-383.975	-200.000	0.012	0.083
-382.960	163.523	0.248	0.352
-381.946	-27.953	0.209	0.122
-380.931	52.666	0.038	-0.037
-379.917	-183.310	-0.075	-0.001
-378.902	-81.498	0.421	0.139
-377.888	-108.427	-0.465	-0.101
-376.873	-200.000	0.028	0.254
-375.858	473.016	-0.086	-0.196
-374.844	65.607	-0.057	0.059
-373.829	800.000	-0.047	0.189
-372.815	275.647	0.087	0.155
-371.800	-92.055	0.278	-0.079
-370.785	119.608	0.236	0.294
-369.771	-200.000	-0.019	-0.084
-368.756	-97.453	-0.072	0.019
-367.742	22.895	-0.172	-0.142
-366.727	800.000	0.068	-0.198
-365.712	3.643	0.358	-0.263
-364.698	-76.775	-0.050	0.017
-363.683	-200.000	-0.000	-0.111
-362.669	155.445	0.238	-0.330
-361.654	170.976	-0.106	0.153
-360.639	86.156	-0.113	0.125
-359.625	-200.000	-0.003	-0.128
-358.610	-67.706	0.234	-0.092
-357.596	14.769	0.090	0.071
-356.581	-200.000	-0.004	-0.054
-355.566	-126.771	0.172	0.026
-354.552	-37.177	-0.175	-0.094
-353.537	-200.000	0.015	-0.180
-352.523	310.797	0.197	0.372
-351.508	169.775	-0.168	0.242
-350.493	207.560	-0.103	0.161
-349.479	-48.293	-0.343	0.166
-348.464	-40.575	0.150	-0.079
-347.450	35.133	-0.068	-0.060
-346.435	-200.000	0.010	-0.293
-345.420	-36.933	0.015	0.008
-344.406	-119.341	-0.310	-0.054
-343.391	31.775	-0.104	-0.090
-342.377	-200.000	-0.006	0.205
-341.362	800.000	-0.093	0.326
-340.348	-200.000	-0.018	0.151
-339.333	-130.106	0.314	-0.043
-338.318	-110.704	0.194	-0.040
-337.304	171.436	-0.111	-0.160
-336.289	800.000	-0.029	-0.099
-335.275	-130.886	0.465	0.063
-334.260	-200.000	0.015	-0.074
-333.245	233.387	-0.193	0.319
-332.231	299.574	-0.072	0.133
-331.216	-6.646	-0.132	0.091
-330.202	166.275	0.218	-0.311
-329.187	96.060	-0.164	-0.188
-328.172	-88.028	0.319	-0.096
-327.158	-139.661	-0.073	-0.008
-326.143	-79.681	-0.227	0.077
-325.129	250.862	0.130	-0.223
-324.114	-200.000	0.036	0.170
-323.099	-25.022	-0.245	-0.146
-322.085	443.640	-0.089	0.195
-321.070	-36.723	0.181	0.098
-320.056	-172.770	-0.417	-0.013
-319.041	-200.000	0.010	0.350
-318.026	-96.553	-0.272	0.072
-317.012	-92.202	0.185	0.052
-315.997	52.606	0.095	-0.091
-314.983	800.000	0.067	-0.250
-313.968	765.227	-0.045	0.124
-312.953	-3.477	-0.160	0.112
-311.939	-63.794	-0.263	-0.108
-310.924	-82.708	-0.176	-0.057
-309.910	-200.000	-0.033	-0.207
-308.895	72.210	0.041	-0.043
-307.880	52.349	0.273	-0.261
-306.866	-43.496	0.188	0.095
-305.851	-119.807	-0.269	-0.047
-304.837	-55.795	0.360	-0.161
-303.822	-63.084	-0.161	-0.067
-302.807	-14.051	0.241	0.156
-301.793	-112.961	-0.376	-0.075
-300.778	-11.108	-0.162	0.108
-299.764	-87.491	-0.228	0.069
-298.749	-200.000	-0.001	0.037
-297.735	-83.912	0.244	0.078
-296.720	217.464	0.224	0.359
-295.705	113.353	-0.139	-0.169
-294.691	748.545	-0.094	0.255
-293.676	-200.000	0.051	-0.281
-292.662	-74.707	0.222	-0.080
-291.647	800.000	-0.046	-0.198
-290.632	83.119	0.032	0.035
-289.618	259.658	-0.112	0.194
-288.603	3.399	-0.297	-0.217
-287.589	516.231	0.138	0.323
-286.574	38.063	-0.163	-0.146
-285.559	-200.000	0.004	0.025
-284.545	116.675	0.180	0.221
-283.530	800.000	-0.072	0.202
-282.516	41.215	0.092	0.084
-281.501	800.000	0.069	-0.241
-280.486	-61.163	0.119	0.050
-279.472	-200.000	-0.016	-0.340
-278.457	-28.804	0.185	-0.107
-277.443	130.734	0.095	-0.123
-276.428	250.155	0.194	-0.330
-275.413	-103.377	-0.177	0.042
-274.399	432.620	-0.130	0.283
-273.384	-70.447	-0.062	-0.024
-272.370	-150.113	-0.082	0.006
-271.355	-200.000	0.061	0.631
-270.340	-32.527	0.178	0.099
-269.326	800.000	-0.074	-0.208
-268.311	507.071	-0.035	-0.080
-267.297	800.000	0.055	0.188
-266.282	-200.000	-0.010	-0.122
-265.267	-200.000	0.078	-0.444
-264.253	-1.696	-0.070	-0.049
-263.238	-87.551	0.383	0.116
-262.224	800.000	0.073	-0.246
-261.209	-50.032	-0.103	-0.049
-260.195	223.592	-0.090	-0.146
-259.180	-70.241	-0.080	-0.030
-258.165	303.826	0.120	0.223
-257.151	-18.477	-0.138	0.086
-256.136	-120.436	-0.230	0.039
-255.122	-200.000	-0.003	0.222
-254.107	-61.145	-0.224	0.095
-253.092	-63.685	-0.022	-0.009
-252.078	116.839	0.136	-0.167
-251.063	391.074	-0.130	0.271
-250.049	-200.000	0.051	-0.264
-249.034	160.339	0.096	-0.134
-248.019	-42.130	0.188	-0.096
-247.005	-200.000	-0.004	-0.144
-245.990	691.514	-0.044	0.115
-244.976	738.172	0.088	0.236
-243.961	-200.000	0.020	0.118
-242.946	767.230	-0.121	-0.330
-241.932	-200.000	-0.003	0.036
-240.917	529.517	-0.030	-0.070
-239.903	97.088	0.244	0.280
-238.888	543.779	0.112	0.268
-237.873	507.067	0.108	0.250
-236.859	-2.927	-0.185	0.129
-235.844	375.235	-0.154	0.315
-234.830	585.434	-0.094	-0.231
-233.815	800.000	0.080	0.260
-232.800	-40.873	0.194	-0.100
-231.786	-95.697	-0.372	-0.100
-230.771	-200.000	-0.056	-0.367
-229.757	327.076	0.085	0.163
-228.742	214.747	-0.096	0.152
-227.727	-64.179	0.144	-0.059
-226.713	376.680	-0.092	0.189
-225.698	-30.846	-0.053	-0.030
-224.684	-140.679	-0.324	-0.034
-223.669	37.834	0.042	0.037
-222.655	-25.930	0.127	-0.075
-221.640	800.000	-0.026	0.112
-220.625	-9.174	-0.343	0.229
-219.611	800.000	0.033	0.104
-218.596	150.513	0.088	0.119
-217.582	647.221	-0.057	0.146
-216.567	210.716	0.215	-0.338
-215.552	37.826	0.320	-0.285
-214.538	-105.732	0.276	0.062
-213.523	185.289	0.197	-0.293
-212.509	-168.349	-0.066	-0.003
-211.494	800.000	-0.059	-0.246
-210.479	-95.321	0.342	-0.092
-209.465	54.050	-0.118	-0.113
-208.450	-200.000	-0.009	0.212
-207.436	-200.000	-0.034	-0.351
-206.421	800.000	-0.087	0.379
-205.406	-121.300	-0.240	0.040
-204.392	-200.000	-0.003	0.259
-203.377	-5.744	0.248	0.170
-202.363	-66.830	-0.138	0.054
-201.348	-200.000	0.011	0.201
-200.333	675.132	-0.075	-0.195
-199.319	-194.527	0.147	-0.001
-198.304	-50.123	-0.297	0.141
-197.290	-150.731	-0.146	-0.011
-196.275	-200.000	-0.007	-0.079
-195.260	-200.000	-0.015	-0.179
-194.246	-16.427	0.106	0.067
-193.231	-200.000	-0.023	-0.160
-192.217	-200.000	0.060	-0.273
-191.202	49.423	-0.248	0.233
-190.187	-200.000	-0.023	0.142
-189.173	302.981	-0.037	0.068
-188.158	70.782	0.092	0.096
-187.144	371.330	0.156	-0.316
-186.129	18.576	-0.179	0.143
-185.114	-2.235	0.283	-0.199
-184.100	17.452	0.081	0.064
-183.085	494.878	0.081	-0.185
-182.071	52.969	0.274	-0.262
-181.056	800.000	-0.044	-0.178
-180.042	-200.000	0.012	-0.076
-179.027	413.116	0.137	0.290
-178.012	246.025	0.131	-0.220
-176.998	173.187	-0.210	-0.302
-175.983	-31.194	0.225	0.127
-174.969	-113.647	-0.383	-0.075
-173.954	-200.000	0.033	-0.146
-172.939	-71.720	0.263	0.098
-171.925	216.590	0.089	0.141
-170.910	60.816	-0.065	-0.064
-169.896	-110.681	-0.086	0.018
-168.881	-200.000	-0.067	0.299
-167.866	172.463	0.218	0.314
-166.852	391.696	-0.109	0.227
-165.837	468.796	0.080	0.178
-164.823	-80.529	-0.177	0.059
-163.808	137.098	-0.161	0.210
-162.793	17.741	0.351	0.279
-161.779	22.106	-0.237	-0.193
-160.764	-85.758	0.096	0.030
-159.750	-200.000	-0.054	-0.251
-158.735	-200.000	0.054	-0.243
-157.720	678.335	0.088	-0.227
-156.706	-200.000	-0.008	-0.168
-155.691	-25.738	-0.133	0.078
-154.677	-200.000	0.054	0.262
-153.662	433.594	-0.061	-0.133
-152.647	-12.557	0.025	-0.016
-151.633	16.539	0.112	0.088
-150.618	-200.000	0.003	-0.095
-149.604	-102.049	0.364	-0.088
-148.589	76.528	-0.053	-0.057
-147.574	800.000	-0.075	0.225
-146.560	-200.000	-0.021	-0.266
-145.545	-137.132	0.223	-0.025
-144.531	295.786	-0.099	-0.181
-143.516	197.919	0.058	0.089
-142.502	-200.000	-0.017	0.128
-141.487	800.000	0.093	0.369
-140.472	160.861	0.243	-0.338
-139.458	-102.060	0.238	-0.057
-138.443	26.825	-0.293	0.245
-137.429	-200.000	-0.038	0.353
-136.414	-43.745	0.260	0.131
-135.399	-81.241	-0.172	0.057
-134.385	-200.000	0.091	-0.479
-133.370	729.440	0.059	0.157
-132.356	149.047	0.133	0.179
-131.341	-171.997	-0.178	0.006
-130.326	-88.480	-0.135	-0.040
-129.312	-135.837	0.285	-0.034
-128.297	-39.827	-0.218	-0.113
-127.283	84.048	-0.101	0.110
-126.268	-200.000	-0.007	-0.043
-125.253	-0.417	0.121	0.086
-124.239	69.483	0.211	0.217
-123.224	-180.784	0.112	-0.002
-122.210	-200.000	0.008	-0.176
-121.195	-200.000	0.024	0.242
-120.180	44.902	0.177	0.163
-119.166	-27.247	-0.220	-0.128
-118.151	-200.000	-0.036	0.241
-117.137	800.000	0.108	0.304
-116.122	-12.018	-0.243	-0.159
-115.107	-26.981	0.152	-0.088
-114.093	-85.321	0.239	-0.074
-113.078	800.000	0.080	0.281
-112.064	353.921	0.109	0.216
-111.049	441.868	0.111	-0.243
-110.034	-156.605	0.512	0.032
-109.020	-200.000	0.000	-0.009
-108.005	-7.953	0.021	-0.014
-106.991	800.000	0.221	-0.617
-105.976	-115.254	0.094	0.018
-104.962	-170.284	-0.405	0.014
-103.947	31.762	0.261	-0.224
-102.932	127.974	-0.218	-0.276
-101.918	156.384	-0.237	-0.325
-100.903	-200.000	-0.026	-0.263
-99.889	209.765	0.044	0.069
-98.874	-200.000	0.005	0.050
-97.859	393.929	0.022	0.045
-96.845	203.963	-0.039	0.060
-95.830	454.491	-0.018	-0.040
-94.816	-200.000	0.056	0.250
-93.801	-21.687	0.190	0.115
-92.786	16.133	-0.041	0.032
-91.772	-123.774	-0.148	0.023
-90.757	-121.416	-0.131	0.022
-89.743	-200.000	0.008	-0.075
-88.728	-40.033	-0.221	-0.115
-87.713	164.157	-0.095	0.133
-86.699	-9.485	-0.075	-0.050
-85.684	-140.547	-0.133	-0.014
-84.670	592.007	0.063	0.155
-83.655	45.822	0.315	-0.290
-82.640	-102.325	0.150	-0.036
-81.626	-96.344	0.519	0.137
-80.611	-200.000	0.062	0.572
-79.597	151.385	-0.237	0.322
-78.582	-69.421	-0.250	-0.095
-77.567	178.391	-0.120	0.175
-76.553	11.845	0.145	-0.111
-75.538	-22.947	0.066	0.040
-74.524	61.988	0.173	0.172
-73.509	-71.996	0.251	-0.093
-72.494	84.347	0.161	0.175
-71.480	19.241	-0.120	-0.096
-70.465	-200.000	-0.008	-0.173
-69.451	-15.477	-0.219	0.139
-68.436	-149.507	0.136	-0.011
-67.422	-87.780	0.189	0.057
-66.407	-26.848	-0.431	-0.251
-65.392	132.611	0.095	0.122
-64.378	24.769	0.123	-0.101
-63.363	39.287	0.195	0.174
-62.349	-118.472	-0.195	-0.034
-61.334	117.921	-0.884	-1.084
-60.319	-34.490	0.633	0.345
-59.305	800.000	-0.134	-0.507
-58.290	63.530	0.692	0.690
-57.276	299.279	0.760	1.391
-56.261	-200.000	90.797	529.458
-55.246	575.388	1386.219	3366.140
-54.232	180.222	2628.281	3833.441
-53.217	110.145	2383.247	2845.531
-52.203	41.703	2126.946	1916.526
-51.188	36.926	2037.047	1791.416
-50.173	35.405	2017.878	1760.545
-49.159	48.652	2066.911	1926.670
-48.144	51.485	2086.443	1971.149
-47.130	37.732	2045.262	1805.830
-46.115	35.316	2033.182	1772.792
-45.100	35.199	2030.354	1769.178
-44.086	35.172	2027.964	1766.781
-43.071	35.205	2025.236	1764.635
-42.057	35.081	2023.449	1761.869
-41.042	35.116	2021.251	1760.205
-40.027	35.179	2019.108	1758.851
-39.013	35.202	2016.695	1756.889
-37.998	35.241	2015.125	1755.806
-36.984	35.202	2013.319	1753.804
-35.969	35.192	2011.263	1751.852
-34.954	35.281	2009.440	1751.011
-33.940	35.226	2007.834	1749.035
-32.925	35.280	2006.633	1748.417
-31.911	35.262	2005.195	1746.927
-30.896	35.290	2002.874	1745.091
-29.881	35.242	2001.348	1743.258
-28.867	35.378	1999.101	1742.468
-27.852	35.307	1997.854	1740.661
-26.838	35.368	1995.411	1739.023
-25.823	35.374	1993.880	1737.673
-24.809	35.304	1991.836	1735.185
-23.794	35.298	1990.100	1733.550
-22.779	35.399	1988.172	1732.718
-21.765	35.331	1986.969	1730.982
-20.750	35.286	1984.903	1728.709
-19.736	35.286	1983.932	1727.798
-18.721	35.338	1981.744	1726.291
-17.706	35.324	1980.332	1724.870
-16.692	35.273	1978.882	1723.074
-15.677	35.334	1977.053	1721.963
-14.663	35.357	1975.249	1720.525
-13.648	35.368	1974.806	1720.171
-12.633	35.336	1973.414	1718.605
-11.619	35.332	1971.724	1717.030
-10.604	35.338	1970.562	1716.002
-9.590	35.330	1969.426	1714.879
-8.575	35.303	1967.967	1713.293
-7.560	35.254	1966.801	1711.779
-6.546	35.323	1965.322	1711.034
-5.531	35.379	1963.545	1709.922
-4.517	35.353	1962.452	1708.666
-3.502	35.402	1961.104	1707.863
-2.487	35.349	1960.051	1706.408
-1.473	35.357	1959.525	1705.951
-0.458	35.487	1955.152	1703.233
0.556	37.265	1935.675	1679.511
1.571	33.411	1916.843	1629.939
2.586	29.398	1939.850	1614.321
3.600	28.112	1977.234	1633.805
4.615	26.747	1970.599	1616.019
5.629	19.998	1864.029	1471.363
6.644	9.588	1738.586	1289.310
7.659	4.692	1698.953	1221.443
8.673	4.340	1695.651	1216.205
9.688	4.261	1694.418	1214.588
10.702	4.257	1692.402	1213.010
11.717	4.192	1690.191	1210.804
12.731	4.822	1689.946	1215.440
13.746	11.352	1706.047	1278.228
14.761	19.807	1723.567	1357.904
15.775	21.723	1724.893	1373.871
16.790	20.706	1721.451	1363.039
17.804	19.624	1718.543	1352.156
18.819	18.676	1714.959	1341.808
19.834	18.014	1712.675	1334.728
20.848	17.819	1710.888	1331.698
21.863	17.513	1710.075	1328.561
22.877	17.347	1707.980	1325.519
23.892	17.149	1706.873	1323.006
24.907	16.964	1705.991	1320.759
25.921	17.001	1704.700	1319.934
26.936	17.045	1703.238	1319.027
27.950	17.039	1702.675	1318.425
28.965	17.120	1701.943	1318.369
29.980	17.092	1701.195	1317.456
30.994	17.204	1700.518	1317.684
32.009	17.333	1699.234	1317.573
33.023	17.387	1698.163	1317.045
34.038	17.462	1697.006	1316.613
35.053	17.347	1696.175	1314.958
36.067	17.323	1694.768	1313.570
37.082	17.234	1693.524	1311.801
38.096	17.266	1692.302	1310.988
39.111	17.287	1691.699	1310.563
40.126	17.286	1691.076	1309.958
41.140	17.278	1690.173	1309.078
42.155	17.188	1688.167	1306.719
43.169	16.952	1686.851	1303.770
44.184	16.833	1686.076	1302.145
45.199	16.949	1684.751	1301.894
46.213	16.936	1683.351	1300.600
47.228	16.939	1682.805	1300.088
48.242	17.028	1681.632	1299.742
49.257	17.128	1680.324	1299.387
50.271	17.232	1678.791	1298.876
51.286	17.065	1678.126	1296.975
52.301	17.119	1676.757	1296.212
53.315	17.130	1675.142	1294.935
54.330	17.187	1673.781	1294.200
55.344	17.053	1671.962	1291.663
56.359	17.000	1670.583	1290.078
57.374	16.960	1669.370	1288.724
58.388	17.016	1668.320	1288.223
59.403	16.859	1667.087	1285.970
60.417	16.922	1665.207	1284.882
61.432	16.870	1664.267	1283.650
62.447	16.907	1662.942	1282.792
63.461	16.820	1661.596	1280.982
64.476	16.787	1660.460	1279.746
65.490	16.726	1659.488	1278.421
66.505	16.754	1658.281	1277.587
67.520	16.743	1657.422	1276.734
68.534	16.881	1656.099	1276.641
69.549	16.909	1654.783	1275.719
70.563	16.819	1654.148	1274.441
71.578	16.907	1652.363	1273.614
72.593	16.737	1651.816	1271.802
73.607	16.632	1651.090	1270.348
74.622	16.610	1649.440	1268.795
75.636	16.615	1648.594	1268.072
76.651	16.660	1647.604	1267.533
77.666	16.674	1646.693	1266.826
78.680	16.752	1645.506	1266.386
79.695	16.667	1645.790	1265.860
80.709	16.716	1644.828	1265.368
81.724	16.756	1643.680	1264.671
82.739	16.938	1642.474	1264.991
83.753	16.916	1641.785	1264.183
84.768	16.988	1641.279	1264.220
85.782	17.150	1640.427	1264.658
86.797	17.214	1639.984	1264.683
87.812	17.331	1638.195	1264.062
88.826	17.292	1636.925	1262.679
89.841	17.153	1635.856	1260.708
90.855	17.155	1635.230	1260.128
91.870	17.267	1633.801	1259.750
92.884	17.276	1633.211	1259.249
93.899	17.297	1632.021	1258.378
94.914	17.290	1630.579	1257.101
95.928	17.364	1629.613	1256.791
96.943	17.357	1628.416	1255.707
97.957	17.353	1626.679	1254.226
98.972	17.339	1625.178	1252.851
99.987	17.246	1623.759	1250.962
101.001	17.222	1622.365	1249.605
102.016	17.232	1620.549	1248.171
103.030	17.328	1619.138	1247.677
104.045	17.245	1618.340	1246.341
105.060	17.235	1616.890	1245.043
106.074	17.185	1615.381	1243.401
107.089	17.109	1613.490	1241.283
108.103	16.789	1612.497	1238.069
109.118	16.810	1610.391	1236.498
110.133	16.741	1609.004	1234.820
111.147	16.755	1607.864	1233.934
112.162	16.861	1605.885	1233.084
113.176	16.815	1604.779	1231.789
114.191	16.781	1603.609	1230.538
115.206	16.979	1602.415	1230.949
116.220	16.918	1601.333	1229.564
117.235	16.956	1599.547	1228.356
118.249	16.981	1598.101	1227.322
119.264	16.950	1596.960	1226.110
120.279	16.874	1596.068	1224.772
121.293	16.827	1594.333	1222.990
122.308	16.858	1592.907	1222.009
123.322	16.798	1591.061	1220.055
124.337	16.813	1589.380	1218.767
125.352	16.722	1588.126	1217.040
126.366	16.691	1587.437	1216.187
127.381	16.802	1586.124	1215.866
128.395	16.753	1585.164	1214.670
129.410	16.715	1583.983	1213.388
130.424	16.771	1582.691	1212.694
131.439	16.745	1581.442	1211.440
132.454	16.890	1579.993	1211.261
133.468	16.993	1578.450	1210.707
134.483	16.913	1577.353	1209.184
135.497	16.928	1575.888	1208.065
136.512	16.992	1574.610	1207.432
137.527	17.050	1573.120	1206.597
138.541	17.033	1571.706	1205.285
139.556	17.047	1570.508	1204.358
140.570	17.060	1569.046	1203.224
141.585	17.188	1567.670	1202.969
142.600	17.174	1567.006	1202.251
143.614	17.358	1565.315	1202.148
144.629	17.330	1564.370	1201.116
145.643	17.409	1563.033	1200.542
146.658	17.465	1561.269	1199.477
147.673	17.326	1560.145	1197.525
148.687	17.248	1558.568	1195.664
149.702	17.150	1556.840	1193.541
150.716	17.143	1555.400	1192.281
151.731	17.108	1554.030	1190.883
152.746	17.046	1552.877	1189.459
153.760	17.100	1551.395	1188.600
154.775	17.098	1550.235	1187.590
155.789	17.157	1548.839	1186.829
156.804	17.285	1547.718	1186.758
157.819	17.313	1546.465	1185.888
158.833	17.300	1545.196	1184.718
159.848	17.330	1544.136	1184.007
160.862	17.424	1543.075	1183.746
161.877	17.478	1541.914	1183.128
162.892	17.419	1540.315	1181.381
163.906	17.238	1538.786	1178.852
164.921	17.093	1537.626	1176.851
165.935	17.151	1536.449	1176.249
166.950	17.213	1535.486	1175.839
167.964	17.256	1534.218	1175.060
168.979	17.315	1532.976	1174.415
169.994	17.312	1532.156	1173.655
171.008	17.275	1530.812	1172.269
172.023	17.209	1529.780	1170.921
173.037	17.321	1528.679	1170.744
174.052	17.352	1527.846	1170.222
175.067	17.427	1526.619	1169.689
176.081	17.368	1525.150	1168.054
177.096	17.320	1524.230	1166.921
178.110	17.217	1522.748	1164.979
179.125	17.246	1521.447	1164.077
180.140	17.264	1520.463	1163.340
181.154	17.324	1519.697	1163.066
182.169	17.364	1518.530	1162.345
183.183	17.406	1517.268	1161.561
184.198	17.487	1516.276	1161.249
185.213	17.542	1515.163	1160.671
186.227	17.672	1513.710	1160.340
187.242	17.578	1513.613	1159.519
188.256	17.558	1512.229	1158.221
189.271	17.667	1510.905	1157.849
190.286	17.688	1510.397	1157.496
191.300	17.595	1509.407	1156.009
192.315	17.356	1508.044	1153.242
193.329	17.197	1506.411	1150.809
194.344	17.174	1504.972	1149.456
195.359	17.320	1503.585	1149.278
196.373	17.424	1502.959	1149.403
197.388	17.454	1502.169	1148.903
198.402	17.499	1501.063	1148.258
199.417	17.617	1500.007	1148.138
200.432	17.752	1499.344	1148.441
201.446	17.793	1498.753	1148.165
202.461	17.966	1497.081	1147.943
203.475	17.946	1495.850	1146.767
204.490	18.061	1495.002	1146.786
205.504	17.843	1494.127	1144.549
206.519	17.695	1492.956	1142.558
207.534	17.710	1491.523	1141.461
208.548	17.684	1490.191	1140.165
209.563	17.725	1488.888	1139.345
210.577	17.721	1488.336	1138.791
211.592	17.734	1487.434	1138.089
212.607	17.842	1486.579	1138.052
213.621	17.881	1486.513	1138.165
214.636	17.910	1485.481	1137.465
215.650	17.861	1484.362	1136.181
216.665	17.873	1483.219	1135.289
217.680	17.949	1482.350	1135.027
218.694	17.958	1481.920	1134.656
219.709	18.039	1481.200	1134.540
220.723	18.115	1479.666	1133.771
221.738	18.052	1478.934	1132.691
222.753	18.040	1477.857	1131.690
223.767	18.026	1477.075	1130.895
224.782	17.974	1476.454	1129.975
225.796	18.111	1474.965	1129.642
226.811	18.160	1474.532	1129.532
227.826	18.137	1473.564	1128.544
228.840	18.168	1472.452	1127.794
229.855	18.037	1471.386	1126.016
230.869	18.006	1470.074	1124.705
231.884	17.960	1469.627	1123.960
232.899	18.042	1468.164	1123.286
233.913	18.021	1466.552	1121.815
234.928	18.002	1466.048	1121.205
235.942	17.910	1464.457	1119.283
236.957	17.929	1463.455	1118.544
237.972	17.820	1462.530	1117.027
238.986	17.908	1460.906	1116.264
240.001	17.934	1460.028	1115.663
241.015	17.998	1458.928	1115.136
242.030	17.983	1457.792	1114.077
243.045	18.071	1456.967	1113.921
244.059	18.133	1456.209	1113.647
245.074	18.122	1455.581	1112.992
246.088	18.146	1454.796	1112.454
247.103	18.264	1453.708	1112.290
248.117	18.258	1453.105	1111.692
249.132	18.330	1452.359	1111.489
250.147	18.428	1452.005	1111.756
251.161	18.607	1450.830	1111.914
252.176	18.629	1450.503	1111.709
253.190	18.631	1449.773	1111.068
254.205	18.720	1449.184	1111.092
255.220	18.841	1447.940	1110.825
256.234	18.790	1447.441	1110.014
257.249	18.802	1446.248	1109.076
258.263	18.848	1445.448	1108.660
259.278	18.903	1443.894	1107.724
260.293	18.817	1443.555	1106.814
261.307	18.878	1442.714	1106.463
262.322	18.878	1442.067	1105.868
263.336	18.841	1441.471	1105.075
264.351	18.805	1440.113	1103.704
265.366	18.975	1439.177	1103.984
266.380	19.051	1437.805	1103.318
267.395	18.966	1437.265	1102.263
268.409	18.977	1436.391	1101.565
269.424	18.921	1435.266	1100.249
270.439	18.817	1434.421	1098.837
271.453	18.790	1433.243	1097.663
272.468	18.846	1432.570	1097.406
273.482	18.894	1431.382	1096.707
274.497	18.786	1430.591	1095.319
275.512	18.828	1429.450	1094.616
276.526	18.798	1428.970	1093.960
277.541	18.810	1427.779	1093.024
278.555	18.818	1426.860	1092.279
279.570	18.903	1425.635	1091.782
280.585	18.878	1425.250	1091.231
281.599	18.945	1424.495	1090.980
282.614	19.049	1423.514	1090.795
283.628	19.046	1421.940	1089.474
284.643	19.000	1421.145	1088.478
285.657	18.805	1420.385	1086.562
286.672	18.874	1419.220	1086.011
287.687	18.951	1417.930	1085.414
288.701	18.928	1417.008	1084.470
289.716	19.001	1416.496	1084.442
290.730	18.983	1415.539	1083.498
291.745	19.017	1414.347	1082.706
292.760	19.036	1413.794	1082.306
293.774	19.026	1412.796	1081.382
294.789	19.087	1411.119	1080.387
295.803	19.250	1410.804	1081.071
296.818	19.242	1410.294	1080.538
297.833	19.203	1408.964	1079.177
298.847	19.117	1407.778	1077.634
299.862	19.030	1406.864	1076.296
300.876	19.094	1406.193	1076.088
301.891	19.091	1405.334	1075.315
302.906	19.157	1404.425	1074.937
303.920	19.222	1403.888	1074.838
304.935	19.294	1403.236	1074.693
305.949	19.313	1402.237	1073.948
306.964	19.484	1401.748	1074.543
307.979	19.444	1400.956	1073.595
308.993	19.393	1399.480	1072.053
310.008	19.456	1398.367	1071.496
311.022	19.417	1397.565	1070.543
312.037	19.508	1396.254	1070.011
313.052	19.526	1395.476	1069.426
314.066	19.435	1394.425	1067.967
315.081	19.297	1393.343	1066.190
316.095	19.272	1391.621	1064.620
317.110	19.161	1390.893	1063.289
318.125	19.265	1389.884	1063.060
319.139	19.368	1388.724	1062.717
320.154	19.250	1388.177	1061.475
321.168	19.282	1386.903	1060.602
322.183	19.281	1385.963	1059.786
323.197	19.271	1385.112	1058.980
324.212	19.323	1384.473	1058.714
325.227	19.401	1382.933	1057.925
326.241	19.439	1382.630	1057.835
327.256	19.416	1381.496	1056.733
328.270	19.477	1380.454	1056.213
329.285	19.457	1379.815	1055.511
330.300	19.418	1378.526	1054.193
331.314	19.400	1378.074	1053.638
332.329	19.396	1376.753	1052.514
333.343	19.450	1375.980	1052.156
334.358	19.401	1375.528	1051.424
335.373	19.461	1374.504	1050.914
336.387	19.581	1373.684	1050.919
337.402	19.538	1372.998	1050.039
338.416	19.699	1372.690	1050.695
339.431	19.660	1372.183	1049.972
340.446	19.696	1371.203	1049.349
341.460	19.677	1370.184	1048.365
342.475	19.809	1369.156	1048.283
343.489	19.905	1368.626	1048.367
344.504	19.880	1367.601	1047.334
345.519	19.957	1366.722	1047.036
346.533	20.101	1365.285	1046.716
347.548	20.035	1364.668	1045.747
348.562	20.056	1364.020	1045.286
349.577	20.148	1363.195	1045.116
350.592	20.061	1362.576	1044.028
351.606	19.927	1361.470	1042.278
352.621	19.950	1359.903	1041.126
353.635	19.797	1358.817	1039.280
354.650	19.765	1358.083	1038.438
355.665	19.806	1357.014	1037.776
356.679	19.845	1355.748	1036.950
357.694	19.847	1354.507	1035.916
358.708	19.888	1354.010	1035.690
359.723	19.907	1353.120	1035.033
360.738	20.027	1351.631	1034.517
361.752	20.042	1350.847	1033.918
362.767	19.941	1350.099	1032.650
363.781	20.018	1349.060	1032.222
364.796	19.996	1348.199	1031.342
365.810	20.068	1347.531	1031.170
366.825	20.139	1347.081	1031.155
367.840	20.198	1346.161	1030.712
368.854	20.322	1345.378	1030.754
369.869	20.387	1344.974	1030.740
370.883	20.425	1344.281	1030.345
371.898	20.377	1343.564	1029.420
372.913	20.255	1342.848	1028.056
373.927	20.263	1341.411	1026.914
374.942	20.353	1340.656	1026.777
375.956	20.332	1340.025	1026.080
376.971	20.402	1339.337	1025.874
377.986	20.352	1338.732	1025.024
379.000	20.328	1337.751	1024.041
380.015	20.332	1336.887	1023.310
381.029	20.516	1336.062	1023.676
382.044	20.594	1335.605	1023.696
383.059	20.582	1334.881	1022.976
384.073	20.581	1334.186	1022.350
385.088	20.587	1333.370	1021.670
386.102	20.550	1332.635	1020.796
387.117	20.682	1331.927	1020.938
388.132	20.541	1331.256	1019.505
389.146	20.427	1330.323	1018.034
390.161	20.336	1329.699	1016.932
391.175	20.488	1328.423	1016.758
392.190	20.333	1327.826	1015.303
393.205	20.467	1326.896	1015.285
394.219	20.490	1326.094	1014.717
395.234	20.695	1324.234	1014.399
396.248	20.646	1323.024	1013.099
397.263	20.568	1321.785	1011.602
398.278	20.509	1320.619	1010.280
399.292	20.485	1319.147	1008.925
400.307	20.394	1318.315	1007.671
401.321	20.468	1317.022	1007.024
402.336	20.354	1315.953	1005.457
403.350	20.328	1315.326	1004.737
404.365	20.372	1314.537	1004.299
405.380	20.376	1313.755	1003.640
406.394	20.520	1312.690	1003.567
407.409	20.679	1311.807	1003.721
408.423	20.626	1311.578	1003.151
409.438	20.694	1311.100	1003.088
410.453	20.776	1310.121	1002.722
411.467	20.895	1309.320	1002.706
412.482	20.980	1308.766	1002.683
413.496	21.022	1308.445	1002.589
414.511	20.964	1307.876	1001.730
415.526	21.030	1306.771	1001.176
416.540	21.076	1306.066	1000.811
417.555	21.078	1305.653	1000.413
418.569	21.081	1305.040	999.875
419.584	21.121	1304.616	999.691
420.599	20.888	1303.621	997.508
421.613	140.513	1432.728	1785.820
422.628	136.115	1451.520	1785.914
