DTS Sentinel unit serial number:	SN413079Multiplexer serial number:	ORYXHardware model number:	OX4-SRSoftware version number:	ORYX F/W v4.00 Oryx Data Collector v3.7.2.0data status	okinstallation	princeton_trtdifferential loss correction	single-endedforward channel	channel 4reverse channel	N/Adate	2019/09/15time	11:09:35forward acquisition time	60.00reverse acquisition time	0.00gamma	496.2192k internal	0.2298k external	0.2298temperature offset calibration	1.0018default loss term (dB/km)	0.3790temperature slope calibration	1.0000multiplexer offset coefficient	1.0000multiplexer slope coefficient	1.0000fibre end	0.00T internal ref (°C)	34.28T ext. ref 1 (°C)	5.05T ext. ref 2 (°C)	29.72length (m)	temperature (°C)	Stokes	anti-Stokes-747.200	-154.173	0.183	-0.013
-746.185	100.323	0.149	0.176
-745.171	-200.000	-0.041	-0.245
-744.156	-38.740	-0.105	0.057
-743.142	-200.000	-0.019	-0.199
-742.127	-59.346	0.241	0.106
-741.112	-200.000	0.205	0.001
-740.098	800.000	0.036	0.159
-739.083	-200.000	-0.067	-0.303
-738.069	-159.583	0.228	-0.013
-737.054	-91.354	0.185	0.054
-736.039	204.942	0.181	0.287
-735.025	119.133	-0.156	-0.197
-734.010	-41.898	-0.350	-0.183
-732.996	98.447	-0.199	-0.234
-731.981	-118.485	0.215	-0.039
-730.966	-200.000	0.013	0.221
-729.952	-199.847	-0.145	0.001
-728.937	-200.000	0.017	-0.192
-727.923	-200.000	-0.020	0.362
-726.908	-200.000	0.033	-0.163
-725.894	800.000	0.040	-0.143
-724.879	-22.771	-0.081	-0.050
-723.864	23.457	0.228	0.191
-722.850	-200.000	0.001	-0.221
-721.835	280.055	0.141	0.258
-720.821	-200.000	-0.024	0.156
-719.806	-52.049	-0.119	-0.056
-718.791	-125.233	-0.373	0.058
-717.777	-24.517	0.261	-0.158
-716.762	153.971	0.080	0.112
-715.748	-40.158	0.084	0.045
-714.733	-200.000	0.002	-0.110
-713.718	-111.375	-0.036	0.008
-712.704	668.383	-0.072	0.189
-711.689	-36.334	-0.213	0.117
-710.675	-35.454	-0.262	0.145
-709.660	90.755	-0.153	-0.174
-708.645	195.356	0.135	0.209
-707.631	-200.000	-0.011	0.224
-706.616	-200.000	-0.044	0.198
-705.602	11.595	0.164	-0.128
-704.587	-200.000	-0.038	-0.194
-703.572	153.485	0.059	0.082
-702.558	47.087	-0.118	-0.112
-701.543	13.145	0.130	-0.102
-700.529	-85.851	-0.141	-0.044
-699.514	800.000	0.058	0.237
-698.499	177.796	0.201	0.299
-697.485	-62.440	-0.295	-0.125
-696.470	38.933	-0.323	-0.294
-695.456	-43.444	0.183	-0.094
-694.441	-111.784	0.366	0.076
-693.426	-200.000	-0.002	0.113
-692.412	29.281	-0.099	0.086
-691.397	232.137	-0.071	0.119
-690.383	-179.124	-0.062	-0.001
-689.368	-200.000	-0.031	0.331
-688.354	62.046	0.135	0.137
-687.339	-124.417	-0.007	-0.001
-686.324	-47.235	0.106	-0.053
-685.310	-11.998	-0.438	0.292
-684.295	-133.563	0.322	-0.041
-683.281	11.008	-0.205	-0.160
-682.266	624.657	-0.047	0.121
-681.251	-109.067	0.215	-0.047
-680.237	33.684	0.081	0.072
-679.222	800.000	-0.037	-0.142
-678.208	10.381	0.049	0.038
-677.193	96.792	-0.086	-0.100
-676.178	800.000	0.062	-0.253
-675.164	-26.330	-0.218	0.130
-674.149	-200.000	-0.067	-0.435
-673.135	45.585	-0.038	0.036
-672.120	-200.000	-0.003	0.250
-671.105	800.000	-0.045	-0.139
-670.091	-200.000	-0.047	0.251
-669.076	-110.873	-0.238	-0.050
-668.062	592.546	-0.062	-0.157
-667.047	-200.000	0.022	0.184
-666.032	-82.073	0.299	0.099
-665.018	-200.000	-0.006	0.194
-664.003	-200.000	0.042	-0.235
-662.989	-200.000	0.011	-0.143
-661.974	-200.000	-0.006	-0.192
-660.959	251.666	-0.192	0.332
-659.945	-96.977	-0.148	0.040
-658.930	59.064	0.048	0.048
-657.916	-136.987	-0.204	0.024
-656.901	-44.912	0.133	-0.067
-655.886	-127.967	-0.565	0.082
-654.872	234.998	-0.141	0.237
-653.857	35.160	0.191	0.170
-652.843	-40.682	-0.132	-0.070
-651.828	14.421	-0.192	-0.152
-650.814	104.891	0.181	0.217
-649.799	198.955	-0.209	-0.326
-648.784	-76.753	-0.339	-0.121
-647.770	8.086	-0.092	-0.070
-646.755	-165.158	0.329	0.015
-645.741	-10.833	0.045	0.030
-644.726	260.259	-0.108	-0.190
-643.711	6.726	-0.247	0.187
-642.697	-200.000	-0.016	0.105
-641.682	-116.572	0.238	-0.045
-640.668	94.657	-0.186	-0.215
-639.653	-72.408	-0.230	0.086
-638.638	43.577	0.236	-0.219
-637.624	118.795	-0.042	-0.053
-636.609	-200.000	-0.023	-0.263
-635.595	67.758	-0.076	0.079
-634.580	-88.859	-0.383	-0.115
-633.565	-51.741	-0.170	0.080
-632.551	-60.580	0.277	0.120
-631.536	-200.000	-0.033	-0.312
-630.522	-200.000	-0.009	-0.195
-629.507	-163.076	0.358	-0.018
-628.492	-83.713	0.389	-0.126
-627.478	800.000	0.041	-0.167
-626.463	-200.000	0.009	0.337
-625.449	86.842	0.287	0.322
-624.434	-200.000	0.025	-0.260
-623.419	99.071	-0.117	-0.137
-622.405	-24.584	0.108	0.065
-621.390	-58.499	0.016	-0.007
-620.376	-88.981	-0.180	0.054
-619.361	-103.975	-0.302	-0.072
-618.346	15.609	-0.326	-0.261
-617.332	511.125	0.090	0.214
-616.317	-88.740	0.215	-0.065
-615.303	-8.256	-0.292	0.199
-614.288	-200.000	-0.007	0.137
-613.273	-29.761	-0.201	0.117
-612.259	-200.000	-0.009	-0.207
-611.244	800.000	-0.055	0.183
-610.230	800.000	0.069	0.209
-609.215	-200.000	-0.014	-0.079
-608.201	-61.354	-0.323	0.138
-607.186	-200.000	0.064	-0.295
-606.171	418.903	-0.159	-0.345
-605.157	138.078	-0.150	-0.200
-604.142	-75.956	-0.211	-0.076
-603.128	429.932	0.083	-0.182
-602.113	324.513	0.084	0.162
-601.098	-92.022	-0.349	0.100
-600.084	537.879	-0.121	-0.293
-599.069	0.668	-0.262	-0.190
-598.055	104.063	0.302	0.361
-597.040	-83.216	-0.147	-0.048
-596.025	146.418	-0.145	-0.198
-595.011	-50.472	-0.280	-0.134
-593.996	-38.072	-0.187	0.101
-592.982	799.241	-0.030	-0.084
-591.967	229.200	0.179	0.296
-590.952	800.000	-0.184	0.554
-589.938	455.349	0.031	-0.069
-588.923	-57.198	0.334	-0.149
-587.909	776.854	0.013	-0.036
-586.894	428.843	0.068	0.148
-585.879	-180.748	0.150	-0.003
-584.865	-200.000	-0.007	0.108
-583.850	68.693	0.146	-0.152
-582.836	185.539	0.065	-0.098
-581.821	107.724	0.144	0.173
-580.806	-200.000	-0.008	-0.356
-579.792	534.171	-0.085	0.204
-578.777	-198.949	0.309	0.002
-577.763	-32.859	0.264	0.149
-576.748	113.221	-0.281	-0.346
-575.733	-200.000	-0.002	-0.298
-574.719	25.206	-0.098	0.082
-573.704	-108.676	-0.152	-0.033
-572.690	-200.000	0.021	-0.108
-571.675	-114.388	0.361	-0.070
-570.661	800.000	0.102	-0.332
-569.646	-122.582	-0.203	0.033
-568.631	800.000	0.046	-0.194
-567.617	114.125	0.106	-0.131
-566.602	-70.656	-0.144	-0.055
-565.588	51.881	-0.103	0.099
-564.573	20.884	0.211	-0.173
-563.558	28.098	-0.069	0.059
-562.544	465.456	-0.167	0.380
-561.529	-59.024	-0.219	-0.096
-560.515	-132.534	-0.130	-0.017
-559.500	89.713	-0.263	0.297
-558.485	-80.504	-0.553	0.187
-557.471	360.946	0.121	0.245
-556.456	419.198	0.081	0.175
-555.442	-25.458	-0.209	-0.125
-554.427	442.928	-0.073	-0.163
-553.412	-200.000	0.008	0.204
-552.398	-200.000	-0.032	0.261
-551.383	0.414	-0.148	0.107
-550.369	100.248	0.038	-0.045
-549.354	199.423	0.134	0.207
-548.339	-24.558	-0.111	-0.067
-547.325	-200.000	-0.013	0.286
-546.310	-34.458	-0.177	-0.098
-545.296	-30.383	0.191	-0.110
-544.281	-200.000	0.062	0.000
-543.266	800.000	-0.104	0.374
-542.252	800.000	-0.078	-0.235
-541.237	374.137	0.098	-0.202
-540.223	-65.115	0.034	-0.014
-539.208	-200.000	0.026	0.219
-538.193	-170.907	0.238	-0.008
-537.179	800.000	-0.071	-0.289
-536.164	-200.000	-0.021	-0.182
-535.150	-147.396	0.194	-0.017
-534.135	-27.164	-0.241	0.142
-533.121	0.538	-0.162	0.117
-532.106	-106.372	0.078	-0.018
-531.091	423.452	0.129	-0.280
-530.077	-49.476	0.314	0.152
-529.062	800.000	-0.029	-0.083
-528.048	21.198	0.182	-0.150
-527.033	-96.198	-0.467	0.125
-526.018	-85.040	0.115	0.037
-525.004	746.390	0.076	-0.206
-523.989	72.228	0.192	-0.203
-522.975	-200.000	-0.020	0.194
-521.960	800.000	-0.075	-0.265
-520.945	38.149	0.254	-0.229
-519.931	224.019	0.080	0.130
-518.916	-163.990	-0.224	0.011
-517.902	-124.828	-0.127	0.020
-516.887	104.410	0.150	-0.179
-515.872	378.636	-0.047	0.097
-514.858	-79.436	-0.178	-0.061
-513.843	800.000	-0.132	0.401
-512.829	-200.000	-0.042	0.402
-511.814	-200.000	0.002	0.199
-510.799	273.077	0.045	-0.081
-509.785	-73.035	-0.160	-0.059
-508.770	-56.252	0.273	0.123
-507.756	400.326	0.136	0.287
-506.741	-82.237	-0.017	-0.006
-505.726	-36.509	-0.166	0.090
-504.712	-134.664	0.224	0.028
-503.697	800.000	0.067	0.281
-502.683	-16.456	0.250	0.160
-501.668	-93.625	0.217	0.061
-500.653	-172.265	0.114	-0.004
-499.639	-200.000	0.006	0.248
-498.624	-140.959	-0.100	-0.010
-497.610	-83.827	0.327	0.105
-496.595	-31.906	-0.283	0.161
-495.581	-200.000	0.027	-0.197
-494.566	140.924	-0.114	0.152
-493.551	94.666	0.343	0.394
-492.537	-200.000	-0.035	0.170
-491.522	792.483	0.077	0.213
-490.508	-9.376	-0.079	-0.054
-489.493	64.274	-0.108	-0.110
-488.478	247.689	0.187	0.320
-487.464	203.256	0.187	0.292
-486.449	190.888	0.153	0.233
-485.435	-83.993	-0.115	0.037
-484.420	-73.978	0.266	-0.098
-483.405	-65.486	-0.066	-0.027
-482.391	84.386	0.157	0.174
-481.376	-138.558	-0.112	-0.012
-480.362	800.000	0.050	-0.178
-479.347	-37.173	0.074	-0.040
-478.332	800.000	-0.090	-0.274
-477.318	-200.000	-0.006	-0.262
-476.303	135.255	-0.107	-0.140
-475.289	-97.824	-0.058	0.015
-474.274	-41.904	0.240	0.124
-473.259	217.935	-0.085	-0.137
-472.245	-200.000	0.046	-0.511
-471.230	116.090	-0.132	0.163
-470.216	-79.267	-0.202	0.069
-469.201	-183.663	-0.270	-0.005
-468.186	247.153	0.059	0.101
-467.172	-200.000	-0.020	0.121
-466.157	-189.157	-0.259	0.003
-465.143	232.948	-0.055	-0.092
-464.128	229.017	0.129	0.212
-463.113	800.000	-0.115	-0.387
-462.099	184.334	0.268	0.401
-461.084	64.611	-0.164	0.167
-460.070	-39.936	-0.181	-0.095
-459.055	482.735	0.151	-0.345
-458.040	-12.626	-0.052	-0.034
-457.026	-110.880	0.336	0.070
-456.011	-200.000	0.005	-0.148
-454.997	37.110	-0.098	-0.087
-453.982	-200.000	-0.336	-0.001
-452.968	-83.907	0.258	-0.083
-451.953	274.412	0.107	-0.192
-450.938	-73.823	-0.133	0.049
-449.924	800.000	-0.075	0.217
-448.909	71.535	0.146	-0.153
-447.895	-70.317	-0.157	-0.060
-446.880	-200.000	-0.047	-0.000
-445.865	-200.000	-0.062	-0.347
-444.851	-105.176	-0.168	0.039
-443.836	200.913	0.077	-0.119
-442.822	207.468	-0.077	-0.121
-441.807	159.107	-0.093	-0.130
-440.792	332.164	-0.120	0.234
-439.778	-50.747	0.198	0.094
-438.763	-74.014	0.288	0.105
-437.749	107.838	-0.198	0.237
-436.734	800.000	0.035	-0.100
-435.719	225.304	0.079	-0.128
-434.705	-55.667	0.250	0.113
-433.690	463.068	0.050	-0.112
-432.676	-200.000	-0.002	-0.116
-431.661	-8.423	0.169	-0.114
-430.646	-200.000	0.036	0.207
-429.632	-14.644	0.049	-0.032
-428.617	16.530	0.304	-0.242
-427.603	-200.000	0.034	0.160
-426.588	-74.814	-0.169	-0.061
-425.573	99.126	-0.170	0.198
-424.559	-159.767	-0.282	0.016
-423.544	-103.587	0.069	-0.016
-422.530	-2.970	0.247	-0.174
-421.515	-92.551	-0.336	-0.095
-420.500	322.357	0.026	0.050
-419.486	-137.609	0.376	-0.043
-418.471	119.441	-0.120	-0.149
-417.457	54.366	0.175	0.170
-416.442	38.540	-0.107	0.096
-415.428	114.822	0.193	0.237
-414.413	153.468	0.047	0.065
-413.398	800.000	0.092	0.393
-412.384	-168.506	-0.206	-0.008
-411.369	345.820	0.056	0.110
-410.355	800.000	-0.048	-0.157
-409.340	-45.150	0.030	0.015
-408.325	67.739	0.186	0.191
-407.311	-159.093	-0.315	0.018
-406.296	-40.678	0.226	0.118
-405.282	35.249	0.039	-0.034
-404.267	-91.639	0.193	-0.055
-403.252	-38.265	0.091	-0.048
-402.238	128.307	-0.088	-0.113
-401.223	406.234	-0.032	0.068
-400.209	53.422	0.332	-0.321
-399.194	-200.000	-0.008	-0.344
-398.179	-112.463	-0.069	-0.014
-397.165	800.000	-0.026	-0.090
-396.150	-78.435	-0.264	-0.091
-395.136	547.251	-0.125	0.302
-394.121	201.156	-0.097	-0.150
-393.106	-30.052	-0.105	-0.060
-392.092	-113.864	0.373	0.073
-391.077	800.000	-0.047	-0.155
-390.063	-200.000	-0.060	0.336
-389.048	695.040	0.144	0.381
-388.033	-33.190	-0.038	-0.021
-387.019	-101.739	0.187	0.046
-386.004	800.000	0.069	0.295
-384.990	-46.298	0.010	-0.005
-383.975	-114.026	0.275	-0.054
-382.960	-200.000	-0.083	-0.440
-381.946	51.589	0.106	-0.101
-380.931	121.537	0.118	0.148
-379.917	-200.000	0.010	0.174
-378.902	304.438	0.125	-0.233
-377.888	-44.145	0.186	-0.094
-376.873	-141.736	-0.296	-0.030
-375.858	76.866	0.116	0.124
-374.844	-53.197	-0.273	0.126
-373.829	326.257	-0.125	-0.240
-372.815	-200.000	0.001	-0.261
-371.800	43.018	-0.099	0.091
-370.785	457.609	0.068	-0.153
-369.771	-86.138	0.045	0.014
-368.756	-39.502	-0.237	-0.125
-367.742	44.763	0.292	0.270
-366.727	608.967	-0.069	-0.174
-365.712	485.195	0.082	-0.189
-364.698	-72.427	0.135	-0.050
-363.683	179.837	0.174	-0.257
-362.669	757.778	0.137	-0.373
-361.654	137.952	0.150	-0.198
-360.639	476.955	0.104	-0.236
-359.625	4.027	-0.056	0.041
-358.610	41.888	-0.177	-0.162
-357.596	-200.000	0.004	0.080
-356.581	533.154	0.105	-0.251
-355.566	-200.000	-0.006	0.048
-354.552	-25.901	-0.298	0.176
-353.537	173.163	-0.169	0.244
-352.523	22.826	0.024	0.020
-351.508	-133.670	-0.152	0.019
-350.493	-80.099	-0.214	0.072
-349.479	-39.490	0.166	0.087
-348.464	-200.000	0.012	-0.311
-347.450	76.607	-0.202	-0.216
-346.435	800.000	0.015	0.053
-345.420	-22.186	-0.336	0.205
-344.406	407.440	0.044	0.093
-343.391	800.000	0.074	-0.256
-342.377	-192.233	-0.248	-0.002
-341.362	-123.034	-0.193	0.031
-340.348	32.318	0.156	-0.135
-339.333	-99.305	-0.506	0.128
-338.318	-45.267	0.111	0.055
-337.304	-123.089	0.097	0.016
-336.289	123.277	-0.109	0.137
-335.275	121.132	0.265	-0.332
-334.260	800.000	0.033	-0.129
-333.245	22.467	0.231	0.190
-332.231	-200.000	0.038	0.185
-331.216	-117.747	0.412	0.074
-330.202	-179.902	0.069	0.001
-329.187	-62.101	-0.144	-0.060
-328.172	78.436	0.104	-0.112
-327.158	-11.780	-0.372	0.245
-326.143	-115.624	-0.061	-0.011
-325.129	336.899	-0.081	-0.157
-324.114	-33.579	-0.257	0.142
-323.099	-67.128	0.280	-0.111
-322.085	161.723	-0.042	0.058
-321.070	-20.495	0.195	-0.120
-320.056	-200.000	-0.009	0.085
-319.041	-59.466	0.195	0.084
-318.026	-66.573	0.155	0.062
-317.012	-66.271	0.176	-0.070
-315.997	-60.959	0.185	-0.078
-314.983	-39.643	0.049	0.026
-313.968	40.921	-0.122	-0.110
-312.953	50.661	-0.140	-0.133
-311.939	800.000	-0.021	0.080
-310.924	-200.000	0.006	0.043
-309.910	109.702	-0.115	0.138
-308.895	-83.607	-0.008	0.003
-307.880	323.606	0.025	0.048
-306.866	-200.000	-0.018	0.287
-305.851	-163.883	0.294	0.014
-304.837	197.185	-0.188	-0.287
-303.822	-108.060	0.238	0.052
-302.807	173.744	-0.226	-0.328
-301.793	-118.423	0.106	-0.019
-300.778	-61.774	-0.207	0.087
-299.764	119.047	0.148	0.183
-298.749	530.712	-0.046	0.109
-297.735	-197.229	-0.303	0.002
-296.720	82.405	-0.155	-0.169
-295.705	17.584	-0.144	0.115
-294.691	-55.337	0.138	0.062
-293.676	167.195	0.107	-0.153
-292.662	-200.000	-0.033	-0.421
-291.647	-200.000	0.005	-0.172
-290.632	-200.000	0.043	-0.199
-289.618	-43.773	0.166	0.084
-288.603	97.445	0.076	0.088
-287.589	-80.148	-0.186	0.062
-286.574	162.113	0.152	-0.213
-285.559	-123.275	0.324	0.052
-284.545	800.000	0.042	0.154
-283.530	-57.546	-0.180	0.079
-282.516	308.505	0.071	-0.132
-281.501	-200.000	0.037	0.181
-280.486	-57.970	-0.172	-0.075
-279.472	800.000	0.089	0.249
-278.457	332.413	0.161	0.312
-277.443	-93.126	0.202	-0.056
-276.428	-4.214	-0.135	0.093
-275.413	139.409	0.103	-0.136
-274.399	-0.343	0.180	0.128
-273.384	800.000	0.127	-0.353
-272.370	-24.716	-0.266	-0.159
-271.355	28.804	-0.061	0.052
-270.340	-180.712	-0.069	-0.001
-269.326	-123.180	0.396	0.064
-268.311	800.000	-0.030	-0.103
-267.297	-129.640	-0.174	-0.024
-266.282	27.090	-0.227	-0.191
-265.267	-158.113	-0.073	-0.004
-264.253	34.056	-0.275	0.240
-263.238	35.324	0.284	0.250
-262.224	40.146	0.200	0.180
-261.209	-200.000	-0.005	0.229
-260.195	283.728	-0.134	0.240
-259.180	61.069	-0.061	-0.061
-258.165	-136.018	0.038	0.005
-257.151	-48.526	0.166	-0.080
-256.136	139.110	0.141	-0.186
-255.122	-12.681	0.196	-0.128
-254.107	25.996	0.079	0.066
-253.092	200.919	-0.050	0.076
-252.078	800.000	0.109	-0.309
-251.063	-200.000	0.006	0.182
-250.049	800.000	0.089	0.311
-249.034	72.613	0.201	0.210
-248.019	285.173	-0.071	0.128
-247.005	45.221	-0.157	-0.145
-245.990	-110.632	-0.113	0.023
-244.976	800.000	-0.083	0.249
-243.961	-200.000	-0.017	0.236
-242.946	727.832	-0.104	-0.277
-241.932	326.685	-0.072	-0.137
-240.917	-108.265	-0.221	-0.048
-239.903	-162.135	0.220	0.011
-238.888	-75.260	-0.051	0.018
-237.873	-196.391	-0.185	0.001
-236.859	52.592	-0.031	-0.030
-235.844	-72.581	-0.304	-0.112
-234.830	-157.829	-0.315	0.019
-233.815	300.689	0.178	0.329
-232.800	-200.000	0.042	-0.304
-231.786	-75.165	0.440	0.157
-230.771	-200.000	0.011	0.055
-229.757	800.000	-0.050	0.154
-228.742	87.309	0.204	0.225
-227.727	-60.599	-0.071	-0.030
-226.713	19.432	-0.260	-0.209
-225.698	53.625	0.044	-0.042
-224.684	444.576	0.085	0.186
-223.669	800.000	0.054	0.206
-222.655	341.207	0.227	0.444
-221.640	-30.038	0.263	0.150
-220.625	-92.652	-0.411	0.115
-219.611	-200.000	0.002	0.158
-218.596	21.913	0.252	0.205
-217.582	-200.000	-0.001	0.078
-216.567	18.481	-0.124	-0.099
-215.552	-40.236	0.176	-0.092
-214.538	-94.129	0.102	-0.028
-213.523	163.655	-0.168	-0.236
-212.509	-99.650	-0.288	0.072
-211.494	800.000	-0.054	-0.215
-210.479	800.000	0.014	-0.063
-209.465	-73.938	0.139	-0.050
-208.450	-200.000	0.016	-0.361
-207.436	29.781	0.061	-0.052
-206.421	-200.000	-0.028	-0.388
-205.406	554.740	0.114	0.274
-204.392	800.000	-0.081	0.257
-203.377	99.079	-0.171	-0.198
-202.363	173.099	0.197	0.284
-201.348	-81.077	-0.130	0.043
-200.333	-19.607	-0.283	-0.175
-199.319	27.955	0.070	-0.059
-198.304	249.470	0.055	-0.093
-197.290	-200.000	0.022	0.120
-196.275	3.957	0.087	-0.064
-195.260	-200.000	-0.060	-0.275
-194.246	800.000	-0.068	-0.262
-193.231	-200.000	0.008	-0.152
-192.217	214.241	0.088	0.140
-191.202	800.000	0.078	0.232
-190.187	800.000	0.089	0.294
-189.173	-200.000	-0.030	0.307
-188.158	-36.936	0.097	0.052
-187.144	182.263	0.037	0.055
-186.129	178.303	0.120	0.175
-185.114	-174.496	-0.267	0.008
-184.100	19.233	-0.014	0.011
-183.085	-153.922	0.236	-0.016
-182.071	121.528	-0.059	-0.073
-181.056	-66.555	0.080	-0.032
-180.042	4.986	0.232	0.170
-179.027	-108.381	0.252	0.054
-178.012	19.505	-0.051	0.041
-176.998	190.591	0.145	0.218
-175.983	-200.000	-0.023	0.154
-174.969	5.452	-0.330	0.243
-173.954	-113.376	-0.235	-0.046
-172.939	7.398	-0.276	-0.206
-171.925	302.963	-0.180	-0.332
-170.910	-160.366	0.388	0.021
-169.896	213.772	0.119	0.188
-168.881	-23.204	-0.164	-0.098
-167.866	341.854	0.102	-0.199
-166.852	-128.577	0.335	0.047
-165.837	-40.781	0.081	0.042
-164.823	561.083	-0.095	0.228
-163.808	-97.953	-0.208	-0.054
-162.793	-200.000	-0.009	0.306
-161.779	5.483	0.047	0.035
-160.764	-41.193	-0.263	0.136
-159.750	-32.560	-0.498	-0.277
-158.735	800.000	0.098	-0.357
-157.720	-151.675	-0.383	-0.028
-156.706	-2.482	0.250	-0.174
-155.691	-40.024	0.133	0.069
-154.677	241.319	0.104	-0.173
-153.662	48.585	-0.071	0.067
-152.647	-64.212	-0.173	-0.070
-151.633	93.390	0.326	-0.368
-150.618	167.098	-0.130	0.184
-149.604	463.965	0.122	0.272
-148.589	148.268	-0.108	0.146
-147.574	133.685	-0.288	0.372
-146.560	17.285	0.153	-0.121
-145.545	363.622	0.191	-0.383
-144.531	236.112	-0.103	-0.170
-143.516	24.178	0.073	-0.060
-142.502	-136.330	0.163	0.019
-141.487	-142.823	0.034	-0.003
-140.472	-126.234	-0.126	0.019
-139.458	39.912	0.246	-0.220
-138.443	24.521	0.187	-0.154
-137.429	-200.000	0.073	0.489
-136.414	-66.062	-0.140	0.056
-135.399	-79.200	0.229	-0.077
-134.385	800.000	-0.123	0.387
-133.370	-21.706	-0.099	0.060
-132.356	-122.949	-0.227	-0.036
-131.341	-14.264	0.043	-0.028
-130.326	733.169	-0.111	0.297
-129.312	-200.000	-0.006	-0.057
-128.297	-52.447	-0.054	-0.025
-127.283	-133.056	-0.060	-0.008
-126.268	-52.363	0.214	-0.098
-125.253	-57.729	-0.142	0.062
-124.239	9.115	-0.088	0.066
-123.224	-196.201	0.172	0.001
-122.210	800.000	-0.067	-0.184
-121.195	19.350	-0.092	0.073
-120.180	-73.226	-0.528	0.192
-119.166	-81.908	0.264	-0.086
-118.151	81.171	0.041	0.045
-117.137	-161.219	0.320	-0.017
-116.122	800.000	-0.058	0.247
-115.107	303.813	-0.133	0.246
-114.093	-81.122	0.209	-0.069
-113.078	-200.000	0.005	-0.041
-112.064	-200.000	-0.020	-0.443
-111.049	-11.538	0.088	0.058
-110.034	207.699	0.095	0.148
-109.020	800.000	0.035	-0.126
-108.005	-52.671	0.103	-0.048
-106.991	-200.000	0.075	-0.333
-105.976	278.574	0.076	0.135
-104.962	-7.971	0.160	0.108
-103.947	181.020	0.070	0.102
-102.932	-7.052	-0.153	-0.104
-101.918	92.759	-0.139	0.156
-100.903	800.000	0.044	0.161
-99.889	800.000	-0.092	-0.310
-98.874	-9.640	0.325	0.216
-97.859	238.209	-0.058	0.096
-96.845	-50.818	0.440	0.206
-95.830	314.096	0.169	0.316
-94.816	5.889	-0.310	0.228
-93.801	-11.601	0.102	0.067
-92.786	195.416	-0.135	0.204
-91.772	0.598	0.180	-0.128
-90.757	111.146	-0.134	-0.161
-89.743	-25.560	-0.225	0.132
-88.728	-200.000	0.013	0.135
-87.713	800.000	0.049	-0.151
-86.699	800.000	0.037	0.143
-85.684	-200.000	-0.020	-0.168
-84.670	-74.348	-0.267	-0.096
-83.655	377.671	0.061	-0.124
-82.640	-200.000	-0.036	0.264
-81.626	389.040	0.031	-0.065
-80.611	278.915	-0.069	0.123
-79.597	137.698	0.043	-0.056
-78.582	-200.000	-0.014	-0.204
-77.567	-200.000	0.041	0.405
-76.553	-38.223	-0.136	0.072
-75.538	-81.053	-0.202	-0.067
-74.524	759.321	0.063	-0.170
-73.509	31.037	0.175	-0.149
-72.494	800.000	-0.073	0.259
-71.480	-200.000	-0.001	0.132
-70.465	323.740	-0.025	0.048
-69.451	-24.439	0.316	-0.187
-68.436	-200.000	-0.012	0.203
-67.422	-13.635	-0.124	0.080
-66.407	666.052	-0.107	-0.275
-65.392	137.367	-0.134	0.174
-64.378	-200.000	-0.031	0.186
-63.363	37.603	0.155	-0.136
-62.349	-11.792	0.180	0.117
-61.334	134.299	-0.632	-0.814
-60.319	128.696	0.334	0.423
-59.305	800.000	-0.294	-0.924
-58.290	238.057	0.535	0.883
-57.276	415.443	0.752	1.592
-56.261	-200.000	97.495	571.691
-55.246	621.921	1399.226	3499.416
-54.232	182.996	2616.787	3838.660
-53.217	110.938	2340.356	2799.243
-52.203	40.949	2086.913	1871.642
-51.188	35.975	1999.026	1747.749
-50.173	34.462	1980.721	1718.060
-49.159	48.524	2033.183	1892.348
-48.144	51.457	2052.054	1936.636
-47.130	36.738	2009.708	1763.774
-46.115	34.372	1997.408	1731.447
-45.100	34.253	1994.473	1727.747
-44.086	34.206	1992.465	1725.519
-43.071	34.147	1989.818	1722.623
-42.057	34.160	1987.000	1720.228
-41.042	34.195	1985.682	1719.335
-40.027	34.168	1983.796	1717.395
-39.013	34.143	1981.353	1714.988
-37.998	34.184	1979.644	1713.809
-36.984	34.276	1977.497	1712.708
-35.969	34.181	1976.423	1710.855
-34.954	34.211	1974.356	1709.268
-33.940	34.298	1972.593	1708.450
-32.925	34.184	1971.502	1706.422
-31.911	34.276	1968.898	1704.921
-30.896	34.200	1967.682	1703.117
-29.881	34.278	1966.254	1702.512
-28.867	34.300	1964.647	1701.249
-27.852	34.351	1962.681	1699.939
-26.838	34.353	1960.323	1697.849
-25.823	34.298	1958.881	1696.035
-24.809	34.260	1957.456	1694.402
-23.794	34.271	1955.824	1693.017
-22.779	34.265	1953.682	1691.043
-21.765	34.303	1951.982	1689.843
-20.750	34.333	1950.332	1688.608
-19.736	34.302	1948.937	1687.063
-18.721	34.358	1947.320	1686.094
-17.706	34.362	1945.983	1684.901
-16.692	34.316	1944.082	1682.784
-15.677	34.335	1942.981	1681.929
-14.663	34.391	1941.099	1680.729
-13.648	34.344	1940.258	1679.518
-12.633	34.349	1939.038	1678.440
-11.619	34.277	1937.747	1676.620
-10.604	34.378	1935.757	1675.722
-9.590	34.337	1934.664	1674.352
-8.575	34.295	1933.514	1672.920
-7.560	34.225	1932.404	1671.274
-6.546	34.272	1930.898	1670.326
-5.531	34.306	1929.783	1669.590
-4.517	34.284	1928.517	1668.238
-3.502	34.348	1927.085	1667.486
-2.487	34.262	1926.640	1666.283
-1.473	34.306	1925.295	1665.446
-0.458	34.414	1920.305	1662.005
0.556	33.290	1900.852	1634.943
1.571	29.097	1881.461	1582.183
2.586	24.926	1903.711	1564.390
3.600	23.816	1940.000	1584.183
4.615	23.265	1936.349	1576.157
5.629	18.469	1835.571	1453.426
6.644	9.680	1716.123	1288.742
7.659	5.490	1678.739	1227.740
8.673	5.108	1675.475	1222.246
9.688	5.060	1673.677	1220.454
10.702	5.070	1672.072	1219.251
11.717	4.973	1668.843	1216.034
12.731	5.463	1669.292	1220.076
13.746	11.409	1683.034	1276.649
14.761	18.336	1697.541	1342.020
15.775	19.436	1697.453	1350.443
16.790	18.208	1693.845	1337.860
17.804	17.038	1690.295	1325.797
18.819	16.101	1687.211	1315.956
19.834	15.466	1684.232	1308.569
20.848	15.150	1683.342	1305.294
21.863	14.855	1681.481	1301.442
22.877	14.665	1679.962	1298.671
23.892	14.431	1678.864	1295.891
24.907	14.417	1677.266	1294.433
25.921	14.338	1675.989	1292.718
26.936	14.287	1675.243	1291.634
27.950	14.419	1674.428	1291.915
28.965	14.462	1673.595	1291.491
29.980	14.487	1672.497	1290.721
30.994	14.495	1672.319	1290.530
32.009	14.551	1670.854	1289.720
33.023	14.680	1669.705	1289.717
34.038	14.697	1669.215	1289.353
35.053	14.643	1667.594	1287.572
36.067	14.596	1666.627	1286.352
37.082	14.462	1665.354	1284.224
38.096	14.509	1663.982	1283.411
39.111	14.550	1663.334	1283.114
40.126	14.680	1662.311	1283.209
41.140	14.608	1661.334	1281.791
42.155	14.415	1660.039	1279.194
43.169	14.344	1658.884	1277.646
44.184	14.323	1657.471	1276.285
45.199	14.315	1655.949	1274.938
46.213	14.246	1655.394	1273.874
47.228	14.306	1654.244	1273.331
48.242	14.394	1652.881	1272.844
49.257	14.475	1652.004	1272.672
50.271	14.481	1650.116	1271.152
51.286	14.412	1649.239	1269.840
52.301	14.490	1647.552	1269.019
53.315	14.417	1646.270	1267.369
54.330	14.418	1644.569	1265.954
55.344	14.343	1643.673	1264.583
56.359	14.426	1641.419	1263.363
57.374	14.370	1640.726	1262.293
58.388	14.295	1639.523	1260.687
59.403	14.282	1638.497	1259.690
60.417	14.331	1636.573	1258.470
61.432	14.281	1635.773	1257.363
62.447	14.287	1634.898	1256.631
63.461	14.189	1633.829	1254.953
64.476	14.157	1632.439	1253.535
65.490	14.117	1631.620	1252.495
66.505	14.145	1629.956	1251.319
67.520	14.240	1628.885	1251.099
68.534	14.230	1628.066	1250.284
69.549	14.228	1627.189	1249.487
70.563	14.177	1626.028	1248.103
71.578	14.261	1624.262	1247.266
72.593	14.151	1624.120	1246.218
73.607	14.132	1622.797	1244.951
74.622	14.058	1621.492	1243.287
75.636	14.137	1620.456	1242.977
76.651	14.153	1619.634	1242.353
77.666	14.012	1619.491	1241.083
78.680	14.139	1618.223	1240.945
79.695	14.131	1617.263	1240.038
80.709	14.179	1616.084	1239.382
81.724	14.066	1616.116	1238.454
82.739	14.259	1614.717	1238.711
83.753	14.283	1613.701	1238.002
84.768	14.388	1612.916	1238.071
85.782	14.421	1612.161	1237.630
86.797	14.455	1611.176	1237.011
87.812	14.489	1610.343	1236.515
88.826	14.505	1608.782	1235.327
89.841	14.481	1607.890	1234.358
90.855	14.370	1607.139	1232.851
91.870	14.431	1606.195	1232.464
92.884	14.497	1604.772	1231.755
93.899	14.602	1603.542	1231.471
94.914	14.518	1602.639	1230.055
95.928	14.569	1601.648	1229.557
96.943	14.572	1600.350	1228.475
97.957	14.521	1598.662	1226.694
98.972	14.572	1596.805	1225.540
99.987	14.487	1595.596	1223.878
101.001	14.520	1593.951	1222.747
102.016	14.434	1592.620	1220.992
103.030	14.471	1591.336	1220.165
104.045	14.460	1590.191	1219.102
105.060	14.500	1588.497	1217.988
106.074	14.464	1587.177	1216.604
107.089	14.432	1585.296	1214.824
108.103	14.194	1584.561	1212.415
109.118	14.201	1583.169	1211.296
110.133	14.132	1581.011	1209.036
111.147	14.183	1580.127	1208.625
112.162	14.178	1578.856	1207.507
113.176	14.196	1577.399	1206.419
114.191	14.226	1575.970	1205.432
115.206	14.327	1574.529	1204.953
116.220	14.299	1573.433	1203.811
117.235	14.342	1572.172	1203.051
118.249	14.302	1570.928	1201.704
119.264	14.220	1569.792	1200.133
120.279	14.291	1568.020	1199.188
121.293	14.141	1566.732	1197.011
122.308	14.205	1565.169	1196.178
123.322	14.140	1563.732	1194.505
124.337	14.180	1561.654	1193.099
125.352	14.192	1560.816	1192.439
126.366	14.139	1559.861	1191.221
127.381	14.167	1558.430	1190.227
128.395	14.224	1557.002	1189.437
129.410	14.188	1556.248	1188.499
130.424	14.275	1554.491	1187.676
131.439	14.289	1553.043	1186.564
132.454	14.271	1552.107	1185.610
133.468	14.295	1550.828	1184.703
134.483	14.342	1548.997	1183.531
135.497	14.329	1547.748	1182.381
136.512	14.390	1546.345	1181.636
137.527	14.397	1545.172	1180.683
138.541	14.415	1543.797	1179.660
139.556	14.480	1542.406	1178.949
140.570	14.524	1541.391	1178.380
141.585	14.470	1539.951	1176.797
142.600	14.537	1539.207	1176.591
143.614	14.544	1538.010	1175.625
144.629	14.547	1536.671	1174.515
145.643	14.593	1535.799	1174.071
146.658	14.781	1533.391	1173.447
147.673	14.675	1532.155	1171.654
148.687	14.602	1530.929	1170.100
149.702	14.561	1529.589	1168.686
150.716	14.593	1527.579	1167.274
151.731	14.493	1526.041	1165.296
152.746	14.467	1525.136	1164.319
153.760	14.470	1523.579	1163.050
154.775	14.487	1522.495	1162.233
155.789	14.566	1520.987	1161.532
156.804	14.645	1519.678	1160.981
157.819	14.621	1518.856	1160.081
158.833	14.808	1517.135	1159.960
159.848	14.669	1516.296	1158.256
160.862	14.762	1515.269	1158.011
161.877	14.771	1514.323	1157.247
162.892	14.660	1512.657	1155.103
163.906	14.646	1510.973	1153.619
164.921	14.545	1510.160	1152.199
165.935	14.598	1509.003	1151.578
166.950	14.565	1508.197	1150.633
167.964	14.539	1507.070	1149.496
168.979	14.602	1506.222	1149.183
169.994	14.583	1505.251	1148.204
171.008	14.698	1504.051	1147.982
172.023	14.680	1502.583	1146.637
173.037	14.673	1501.824	1145.904
174.052	14.707	1501.008	1145.418
175.067	14.830	1499.510	1145.016
176.081	14.752	1497.993	1143.222
177.096	14.682	1496.674	1141.633
178.110	14.681	1495.634	1140.735
179.125	14.662	1494.525	1139.659
180.140	14.721	1493.711	1139.340
181.154	14.736	1492.477	1138.395
182.169	14.709	1491.675	1137.504
183.183	14.802	1490.282	1136.972
184.198	14.907	1489.312	1136.845
185.213	14.870	1488.675	1136.004
186.227	14.914	1487.171	1135.057
187.242	15.009	1485.885	1134.621
188.256	14.970	1484.767	1133.401
189.271	14.864	1484.437	1132.331
190.286	14.967	1483.042	1131.860
191.300	14.988	1482.227	1131.284
192.315	14.834	1480.446	1128.784
193.329	14.737	1478.751	1126.738
194.344	14.712	1478.039	1125.926
195.359	14.686	1477.085	1124.922
196.373	14.713	1476.349	1124.445
197.388	14.910	1475.298	1124.870
198.402	14.975	1474.221	1124.387
199.417	15.070	1473.079	1124.056
200.432	15.153	1472.024	1123.707
201.446	15.161	1471.828	1123.513
202.461	15.186	1470.325	1122.432
203.475	15.174	1469.511	1121.633
204.490	15.278	1468.337	1121.332
205.504	15.233	1467.210	1120.073
206.519	15.078	1466.464	1118.371
207.534	15.177	1464.777	1117.640
208.548	15.142	1463.615	1116.426
209.563	15.154	1462.551	1115.593
210.577	15.181	1461.625	1114.971
211.592	15.178	1460.312	1113.851
212.607	15.153	1460.061	1113.395
213.621	15.242	1459.235	1113.257
214.636	15.295	1458.636	1113.050
215.650	15.215	1457.854	1111.824
216.665	15.322	1456.647	1111.516
217.680	15.256	1456.096	1110.558
218.694	15.416	1454.982	1110.668
219.709	15.460	1453.995	1110.108
220.723	15.441	1453.239	1109.308
221.738	15.378	1452.117	1107.938
222.753	15.428	1451.214	1107.480
223.767	15.410	1450.318	1106.581
224.782	15.369	1449.505	1105.590
225.796	15.399	1448.661	1105.050
226.811	15.491	1447.900	1104.973
227.826	15.522	1446.691	1104.157
228.840	15.533	1445.738	1103.409
229.855	15.466	1445.528	1102.708
230.869	15.413	1444.074	1101.152
231.884	15.527	1442.475	1100.587
232.899	15.384	1441.688	1098.949
233.913	15.426	1440.520	1098.235
234.928	15.447	1439.315	1097.359
235.942	15.443	1437.876	1096.139
236.957	15.316	1437.211	1094.703
237.972	15.405	1435.897	1094.185
238.986	15.369	1434.889	1093.088
240.001	15.453	1434.071	1092.919
241.015	15.462	1432.620	1091.773
242.030	15.430	1431.725	1090.783
243.045	15.404	1431.455	1090.311
244.059	15.435	1430.141	1089.418
245.074	15.573	1429.585	1089.794
246.088	15.604	1428.464	1089.040
247.103	15.636	1427.706	1088.575
248.117	15.567	1426.942	1087.449
249.132	15.712	1426.006	1087.577
250.147	15.738	1425.256	1087.077
251.161	15.927	1424.871	1087.911
252.176	16.026	1423.978	1087.772
253.190	16.084	1423.344	1087.564
254.205	16.019	1422.562	1086.451
255.220	16.115	1421.616	1086.250
256.234	16.146	1420.668	1085.629
257.249	16.045	1419.942	1084.330
258.263	16.109	1418.905	1083.853
259.278	16.075	1418.082	1082.914
260.293	16.124	1417.068	1082.355
261.307	16.162	1416.138	1081.791
262.322	16.076	1415.920	1080.975
263.336	16.184	1415.216	1081.034
264.351	16.179	1413.996	1079.981
265.366	16.321	1412.861	1079.925
266.380	16.195	1412.254	1078.561
267.395	16.236	1411.401	1078.076
268.409	16.265	1410.288	1077.313
269.424	16.250	1409.039	1076.171
270.439	16.212	1408.004	1075.039
271.453	16.253	1407.076	1074.501
272.468	16.127	1406.516	1073.175
273.482	16.206	1405.768	1073.008
274.497	16.138	1404.867	1071.798
275.512	16.208	1403.692	1071.247
276.526	16.214	1402.992	1070.659
277.541	16.187	1401.822	1069.499
278.555	16.208	1401.109	1068.992
279.570	16.176	1400.443	1068.186
280.585	16.269	1399.495	1067.956
281.599	16.323	1398.803	1067.678
282.614	16.447	1397.452	1067.337
283.628	16.412	1396.363	1066.189
284.643	16.375	1395.604	1065.283
285.657	16.234	1394.257	1063.273
286.672	16.409	1393.202	1063.470
287.687	16.408	1392.566	1062.886
288.701	16.382	1391.579	1061.874
289.716	16.344	1391.119	1061.195
290.730	16.426	1390.010	1060.765
291.745	16.386	1388.762	1059.471
292.760	16.423	1388.127	1059.122
293.774	16.499	1387.170	1058.777
294.789	16.480	1385.959	1057.641
295.803	16.509	1385.585	1057.445
296.818	16.557	1384.135	1056.543
297.833	16.553	1383.230	1055.733
298.847	16.477	1382.339	1054.485
299.862	16.447	1381.458	1053.532
300.876	16.560	1380.270	1053.237
301.891	16.441	1379.758	1052.013
302.906	16.483	1379.218	1051.771
303.920	16.614	1378.459	1051.911
304.935	16.606	1377.701	1051.189
305.949	16.649	1376.878	1050.738
306.964	16.718	1376.355	1050.670
307.979	16.883	1374.796	1050.412
308.993	16.883	1373.751	1049.520
310.008	16.730	1373.163	1048.030
311.022	16.845	1371.837	1047.640
312.037	16.776	1371.169	1046.607
313.052	16.907	1370.081	1046.492
314.066	16.779	1369.467	1045.145
315.081	16.688	1368.273	1043.580
316.095	16.782	1366.605	1042.790
317.110	16.677	1365.839	1041.468
318.125	16.718	1365.011	1041.001
319.139	16.835	1363.922	1040.794
320.154	16.725	1363.222	1039.491
321.168	16.695	1362.488	1038.657
322.183	16.773	1361.247	1038.097
323.197	16.675	1360.759	1037.031
324.212	16.709	1359.912	1036.503
325.227	16.817	1358.734	1036.176
326.241	16.844	1357.774	1035.518
327.256	16.855	1357.024	1034.919
328.270	16.761	1356.340	1033.730
329.285	16.678	1355.525	1032.513
330.300	16.724	1354.620	1032.016
331.314	16.969	1353.005	1032.183
332.329	16.888	1352.396	1031.134
333.343	16.924	1351.233	1030.373
334.358	16.875	1350.487	1029.415
335.373	16.904	1349.993	1029.125
336.387	16.945	1349.224	1028.698
337.402	16.923	1348.310	1027.772
338.416	17.028	1347.704	1027.861
339.431	17.042	1346.871	1027.219
340.446	17.082	1346.735	1027.263
341.460	17.187	1345.282	1026.703
342.475	17.233	1344.337	1026.164
343.489	17.242	1343.800	1025.722
344.504	17.301	1342.911	1025.303
345.519	17.304	1341.821	1024.404
346.533	17.341	1340.907	1023.834
347.548	17.382	1340.223	1023.467
348.562	17.404	1339.162	1022.703
349.577	17.360	1338.304	1021.691
350.592	17.461	1337.648	1021.709
351.606	17.347	1336.397	1019.976
352.621	17.197	1335.872	1018.588
353.635	17.284	1334.133	1017.688
354.650	17.228	1333.028	1016.425
355.665	17.264	1332.201	1015.915
356.679	17.235	1331.505	1015.124
357.694	17.301	1330.693	1014.810
358.708	17.286	1329.487	1013.711
359.723	17.348	1328.048	1012.895
360.738	17.401	1327.569	1012.752
361.752	17.371	1326.379	1011.575
362.767	17.376	1325.455	1010.814
363.781	17.416	1324.379	1010.142
364.796	17.433	1323.326	1009.349
365.810	17.408	1323.060	1008.910
366.825	17.534	1322.443	1009.092
367.840	17.510	1321.982	1008.515
368.854	17.609	1320.749	1008.069
369.869	17.601	1320.395	1007.661
370.883	17.761	1319.655	1007.954
371.898	17.714	1319.019	1007.101
372.913	17.623	1318.215	1005.858
373.927	17.505	1317.506	1004.533
374.942	17.647	1316.548	1004.550
375.956	17.654	1315.996	1004.083
376.971	17.735	1314.817	1003.573
377.986	17.773	1313.899	1003.004
379.000	17.822	1312.965	1002.489
380.015	17.879	1312.106	1002.084
381.029	17.656	1311.897	1000.521
382.044	17.886	1310.723	1000.890
383.059	17.831	1310.205	1000.085
384.073	17.909	1309.527	999.935
385.088	17.825	1309.162	999.072
386.102	17.754	1308.453	998.028
387.117	17.869	1307.802	998.114
388.132	18.007	1306.511	997.847
389.146	17.859	1306.040	996.534
390.161	17.843	1304.990	995.553
391.175	17.885	1304.041	994.988
392.190	17.863	1303.352	994.246
393.205	17.850	1302.505	993.438
394.219	17.932	1301.392	992.977
395.234	18.114	1300.241	993.069
396.248	17.984	1298.717	991.061
397.263	17.852	1297.763	989.482
398.278	17.862	1296.335	988.362
399.292	18.003	1295.157	988.192
400.307	17.864	1294.350	986.683
401.321	17.860	1293.247	985.736
402.336	17.826	1292.181	984.639
403.350	17.853	1291.066	983.857
404.365	17.862	1290.389	983.308
405.380	17.855	1289.203	982.274
406.394	17.949	1288.526	982.212
407.409	18.020	1287.935	982.086
408.423	18.027	1287.132	981.422
409.438	18.099	1286.665	981.396
410.453	18.070	1285.973	980.614
411.467	18.261	1285.192	981.026
412.482	18.146	1284.859	980.027
413.496	18.294	1284.392	980.432
414.511	18.244	1283.532	979.403
415.526	18.405	1282.641	979.558
416.540	18.335	1282.079	978.637
417.555	18.396	1281.034	978.103
418.569	18.483	1280.545	978.142
419.584	18.442	1280.212	977.565
420.599	18.469	1279.008	976.716
421.613	137.783	1431.209	1791.120
422.628	132.672	1453.371	1791.247
