DTS Sentinel unit serial number:	SN413079Multiplexer serial number:	ORYXHardware model number:	OX4-SRSoftware version number:	ORYX F/W v4.00 Oryx Data Collector v3.7.2.0data status	okinstallation	princeton_trtdifferential loss correction	single-endedforward channel	channel 4reverse channel	N/Adate	2019/09/12time	20:06:19forward acquisition time	15.00reverse acquisition time	0.00gamma	496.2192k internal	0.2311k external	0.2311temperature offset calibration	1.0159default loss term (dB/km)	0.3790temperature slope calibration	1.0000multiplexer offset coefficient	1.0000multiplexer slope coefficient	1.0000fibre end	0.00T internal ref (°C)	31.69T ext. ref 1 (°C)	3.53T ext. ref 2 (°C)	26.27length (m)	temperature (°C)	Stokes	anti-Stokes-747.200	-48.630	0.885	0.432
-746.185	-60.181	-0.634	0.274
-745.171	-122.224	0.810	0.134
-744.156	306.635	0.401	-0.758
-743.142	215.707	-0.398	-0.642
-742.127	582.991	-0.089	0.222
-741.112	-200.000	-0.047	0.478
-740.098	61.447	-0.580	0.586
-739.083	116.947	0.279	-0.348
-738.069	-200.000	0.063	1.199
-737.054	-51.014	0.250	-0.119
-736.039	-200.000	-0.179	1.281
-735.025	154.133	-0.305	-0.425
-734.010	142.334	-0.256	-0.345
-732.996	-200.000	0.048	0.339
-731.981	12.257	0.571	-0.446
-730.966	21.134	-0.320	-0.263
-729.952	-144.807	0.318	0.030
-728.937	72.627	-0.150	0.159
-727.923	-79.519	-0.360	0.123
-726.908	21.173	0.133	-0.110
-725.894	68.126	-0.244	0.253
-724.879	46.332	0.560	-0.527
-723.864	162.885	-0.397	-0.565
-722.850	-200.000	0.142	-0.912
-721.835	-90.384	-0.519	0.153
-720.821	-78.266	0.135	0.047
-719.806	-50.981	-0.628	-0.299
-718.791	-93.284	-0.107	0.030
-717.777	-200.000	0.011	0.055
-716.762	-200.000	-0.043	0.470
-715.748	186.006	-0.210	-0.316
-714.733	-10.049	0.504	-0.339
-713.718	-162.531	-1.221	0.061
-712.704	-75.420	-0.200	0.072
-711.689	-118.083	-0.520	0.094
-710.675	-16.823	0.456	0.293
-709.660	800.000	-0.157	-0.691
-708.645	242.099	0.115	0.196
-707.631	-33.558	0.383	0.214
-706.616	-116.831	-0.580	0.108
-705.602	-2.873	-0.544	-0.385
-704.587	-49.898	-0.312	0.150
-703.572	78.228	0.378	0.409
-702.558	-133.850	-1.058	0.133
-701.543	-100.163	-0.498	0.126
-700.529	-136.403	0.379	-0.045
-699.514	-51.068	-0.434	0.206
-698.499	173.343	-0.455	0.664
-697.485	-111.560	0.744	0.153
-696.470	-80.108	0.319	-0.108
-695.456	157.999	-0.192	0.269
-694.441	800.000	-0.055	-0.179
-693.426	357.487	0.222	0.449
-692.412	-79.924	0.479	-0.163
-691.397	640.864	0.183	-0.473
-690.383	163.580	0.245	-0.349
-689.368	-200.000	-0.025	-0.144
-688.354	-10.478	0.469	0.315
-687.339	72.808	0.168	-0.178
-686.324	366.946	-0.079	-0.161
-685.310	401.285	-0.097	-0.207
-684.295	345.260	0.062	0.124
-683.281	24.162	0.291	-0.243
-682.266	-200.000	0.048	-0.930
-681.251	67.735	-0.301	0.311
-680.237	-144.671	-0.999	0.093
-679.222	71.292	-0.186	0.195
-678.208	133.413	0.094	0.123
-677.193	295.631	0.618	-1.145
-676.178	800.000	-0.143	-0.421
-675.164	-200.000	-0.017	-0.154
-674.149	800.000	0.241	-0.733
-673.135	-80.544	-0.370	0.125
-672.120	481.917	0.333	-0.766
-671.105	174.750	0.422	-0.618
-670.091	121.651	-0.358	-0.452
-669.076	-113.353	0.786	0.156
-668.062	40.107	-0.249	-0.226
-667.047	499.910	-0.142	0.332
-666.032	-2.612	-0.367	0.260
-665.018	-200.000	-0.171	-1.160
-664.003	-104.339	0.777	-0.182
-662.989	-13.458	-0.262	-0.172
-661.974	73.240	-0.196	0.208
-660.959	-131.380	0.029	0.004
-659.945	-200.000	0.137	-1.335
-658.930	643.151	0.250	-0.644
-657.916	800.000	0.053	0.175
-656.901	-62.395	-0.282	0.119
-655.886	258.176	0.226	0.394
-654.872	174.721	-0.363	-0.531
-653.857	-149.635	0.236	-0.019
-652.843	72.285	-0.295	-0.311
-651.828	-200.000	0.045	0.762
-650.814	-200.000	-0.032	-0.363
-649.799	67.676	0.332	-0.343
-648.784	-85.023	-0.193	-0.061
-647.770	-78.608	-0.427	-0.148
-646.755	-200.000	-0.011	0.292
-645.741	-117.397	-0.476	0.087
-644.726	-27.363	0.202	-0.119
-643.711	-200.000	-0.002	0.587
-642.697	-115.900	-0.477	0.090
-641.682	54.957	-0.653	0.638
-640.668	410.375	-0.214	0.459
-639.653	-183.372	0.292	-0.005
-638.638	-58.465	-0.779	0.342
-637.624	-80.371	0.275	-0.093
-636.609	-131.551	1.174	-0.156
-635.595	-102.043	-0.431	0.105
-634.580	-17.386	0.420	-0.267
-633.565	800.000	0.270	1.078
-632.551	-1.850	-0.307	0.218
-631.536	283.101	0.319	0.580
-630.522	-200.000	-0.018	-0.921
-629.507	-200.000	-0.028	-1.082
-628.492	315.579	0.297	-0.566
-627.478	-199.537	-0.877	-0.005
-626.463	12.760	0.313	0.245
-625.449	-200.000	0.053	0.317
-624.434	229.935	0.144	0.237
-623.419	178.039	0.173	0.255
-622.405	800.000	0.072	-0.301
-621.390	-63.752	0.352	-0.146
-620.376	23.637	-0.555	-0.462
-619.361	-29.469	0.872	-0.504
-618.346	-124.050	-0.539	-0.086
-617.332	195.014	-0.367	0.563
-616.317	157.662	-0.101	0.141
-615.303	-65.433	-0.429	-0.174
-614.288	-41.541	0.563	0.293
-613.273	99.298	0.422	0.493
-612.259	-17.095	-0.277	0.177
-611.244	-200.000	0.049	-0.303
-610.230	412.480	0.148	-0.317
-609.215	14.812	-0.470	-0.371
-608.201	-82.252	-0.768	-0.253
-607.186	362.234	-0.078	-0.158
-606.171	75.913	0.315	0.337
-605.157	202.310	-0.380	0.593
-604.142	6.197	0.275	0.206
-603.128	32.851	0.573	0.501
-602.113	-200.000	-0.040	0.250
-601.098	-119.835	0.531	0.092
-600.084	442.382	-0.243	-0.538
-599.069	800.000	-0.151	0.480
-598.055	-38.650	0.527	0.281
-597.040	-200.000	0.020	-0.601
-596.025	-94.555	0.261	-0.072
-595.011	8.518	1.076	-0.817
-593.996	-78.502	0.282	-0.097
-592.982	800.000	0.093	-0.372
-591.967	-55.807	-0.481	0.217
-590.952	-19.790	0.480	0.299
-589.938	196.507	-0.289	-0.444
-588.923	-129.357	-0.577	-0.081
-587.909	68.974	-0.108	-0.112
-586.894	191.235	-0.391	-0.593
-585.879	800.000	-0.147	-0.514
-584.865	-200.000	0.120	-0.623
-583.850	-200.000	0.027	0.417
-582.836	-130.438	-0.524	0.072
-581.821	269.508	-0.577	-1.021
-580.806	203.512	-0.440	-0.686
-579.792	13.017	0.258	-0.202
-578.777	-200.000	0.008	0.585
-577.763	362.256	-0.192	0.389
-576.748	-82.930	0.278	0.090
-575.733	800.000	-0.144	0.427
-574.719	-19.176	0.640	-0.401
-573.704	-200.000	-0.019	-0.507
-572.690	-50.918	0.521	0.247
-571.675	800.000	-0.131	0.429
-570.661	-88.908	-0.671	0.201
-569.646	156.495	-0.284	0.396
-568.631	-69.668	0.299	0.115
-567.617	-114.579	0.517	0.100
-566.602	-113.620	-0.439	0.087
-565.588	343.698	0.082	-0.162
-564.573	-200.000	0.084	0.671
-563.558	-200.000	0.076	0.426
-562.544	332.865	0.261	-0.508
-561.529	-106.909	0.429	-0.096
-560.515	11.825	0.410	0.318
-559.500	17.623	0.118	0.094
-558.485	-147.080	-0.338	0.029
-557.471	800.000	0.060	0.234
-556.456	-200.000	-0.044	-0.695
-555.442	154.221	-0.487	0.673
-554.427	800.000	0.013	-0.052
-553.412	-17.277	-0.629	-0.399
-552.398	-200.000	-0.002	-0.048
-551.383	46.116	0.177	0.165
-550.369	-98.360	-0.729	0.188
-549.354	-200.000	0.049	-0.393
-548.339	-113.674	-0.421	0.083
-547.325	-200.000	0.213	-1.249
-546.310	557.161	0.322	0.783
-545.296	800.000	0.147	0.585
-544.281	-63.046	0.273	-0.114
-543.266	162.461	-0.427	0.603
-542.252	194.866	0.464	0.709
-541.237	591.547	0.114	0.284
-540.223	141.845	0.225	-0.300
-539.208	29.055	-0.298	0.255
-538.193	800.000	0.189	0.805
-537.179	796.223	-0.143	0.398
-536.164	-77.608	-0.861	-0.300
-535.150	29.511	0.609	0.521
-534.135	-4.296	0.535	0.373
-533.121	800.000	0.178	0.559
-532.106	442.369	0.303	0.669
-531.091	-49.149	0.950	0.457
-530.077	-117.765	-0.073	-0.013
-529.062	132.177	0.124	-0.161
-528.048	-200.000	0.065	-0.769
-527.033	-112.851	-0.325	0.065
-526.018	-151.352	0.780	0.058
-525.004	427.831	-0.726	-1.578
-523.989	-52.436	-0.700	-0.326
-522.975	21.613	-0.206	0.169
-521.960	376.770	0.166	0.342
-520.945	-62.761	-0.308	-0.129
-519.931	551.456	0.239	0.576
-518.916	-59.266	-1.379	0.598
-517.902	-48.140	0.876	0.426
-516.887	-200.000	0.045	-0.546
-515.872	-129.307	0.148	0.021
-514.858	282.886	-0.281	-0.507
-513.843	556.541	0.343	0.832
-512.829	-48.702	-0.069	-0.033
-511.814	800.000	-0.243	0.737
-510.799	-200.000	-0.166	-0.895
-509.785	-200.000	0.046	-0.672
-508.770	160.276	-0.194	0.272
-507.756	-127.767	-0.816	0.118
-506.741	-199.908	-0.435	-0.002
-505.726	334.264	0.209	0.406
-504.712	-145.093	-0.421	-0.038
-503.697	-18.263	-0.100	0.063
-502.683	-200.000	0.002	-0.588
-501.668	695.108	0.102	0.270
-500.653	-200.000	0.124	0.875
-499.639	-97.849	-0.366	0.095
-498.624	-98.858	-0.615	0.157
-497.610	-54.868	0.305	-0.138
-496.595	235.057	0.407	0.675
-495.581	-111.717	-0.316	-0.064
-494.566	800.000	-0.073	0.292
-493.551	-20.919	0.258	0.159
-492.537	-90.986	0.342	0.099
-491.522	-200.000	-0.005	0.117
-490.508	153.223	-0.531	-0.730
-489.493	-200.000	-0.106	-0.818
-488.478	-200.000	0.050	0.830
-487.464	-39.642	-0.397	0.209
-486.449	-200.000	-0.018	-0.492
-485.435	-135.514	0.271	-0.032
-484.420	-19.905	-0.150	-0.093
-483.405	-139.172	-0.229	0.025
-482.391	800.000	0.094	0.344
-481.376	-44.246	-0.528	0.266
-480.362	-101.112	1.033	0.254
-479.347	66.097	0.596	-0.607
-478.332	-200.000	0.092	-0.651
-477.318	-17.543	0.554	-0.350
-476.303	-111.224	-0.402	0.083
-475.289	-46.746	-0.111	-0.054
-474.274	-68.473	0.440	-0.171
-473.259	-200.000	0.077	-0.421
-472.245	-24.887	-0.217	-0.129
-471.230	-26.427	0.277	-0.163
-470.216	-200.000	-0.110	-0.531
-469.201	800.000	0.305	-0.845
-468.186	-21.712	-0.237	-0.145
-467.172	-200.000	-0.007	0.118
-466.157	-200.000	0.043	-0.746
-465.143	-23.448	0.234	0.141
-464.128	800.000	-0.025	0.076
-463.113	701.886	-0.158	-0.417
-462.099	207.055	-0.246	0.385
-461.084	271.515	-0.297	-0.526
-460.070	-44.370	-0.535	-0.269
-459.055	-47.578	-0.476	-0.232
-458.040	-189.177	-0.152	0.002
-457.026	-72.983	0.085	0.031
-456.011	-11.894	-0.351	-0.231
-454.997	800.000	0.171	-0.704
-453.982	28.328	-0.434	0.368
-452.968	200.312	-0.456	0.703
-451.953	-0.923	0.598	0.425
-450.938	69.358	1.020	-1.054
-449.924	-200.000	0.021	-0.144
-448.909	-52.380	0.376	0.175
-447.895	-47.332	-0.521	-0.255
-446.880	339.044	0.104	-0.204
-445.865	60.606	-0.212	-0.210
-444.851	-200.000	0.084	0.446
-443.836	25.704	-0.668	-0.558
-442.822	-64.587	0.508	-0.207
-441.807	-109.905	-0.158	0.033
-440.792	94.118	-0.284	-0.324
-439.778	5.905	0.178	0.132
-438.763	-107.194	-0.258	-0.057
-437.749	93.738	-0.440	0.500
-436.734	-40.396	-0.814	0.424
-435.719	135.559	0.301	0.393
-434.705	-104.073	0.520	-0.122
-433.690	25.396	-0.847	-0.706
-432.676	14.367	-0.719	-0.563
-431.661	-30.317	-0.186	0.106
-430.646	710.450	-0.167	-0.444
-429.632	800.000	-0.176	-0.736
-428.617	193.080	0.359	0.544
-427.603	106.211	0.370	0.440
-426.588	29.851	0.137	0.117
-425.573	-156.640	-0.244	0.015
-424.559	123.206	-0.223	-0.280
-423.544	137.017	-0.284	0.372
-422.530	50.041	-0.341	-0.323
-421.515	-47.808	-0.243	-0.118
-420.500	800.000	0.051	0.151
-419.486	800.000	-0.209	0.793
-418.471	-3.390	0.387	0.270
-417.457	59.193	0.341	-0.336
-416.442	-65.084	0.460	0.186
-415.428	-200.000	0.070	0.419
-414.413	552.223	-0.042	-0.101
-413.398	65.419	-0.281	0.285
-412.384	800.000	-0.090	-0.300
-411.369	306.783	-0.264	-0.493
-410.355	742.689	0.174	0.468
-409.340	-200.000	0.094	0.448
-408.325	-35.607	0.396	-0.215
-407.311	13.994	-0.292	-0.228
-406.296	60.143	0.199	0.197
-405.282	-200.000	0.001	-0.410
-404.267	-200.000	-0.086	-0.682
-403.252	11.100	0.694	-0.532
-402.238	-1.251	-1.158	-0.819
-401.223	-68.295	-0.440	-0.171
-400.209	-200.000	0.012	0.177
-399.194	95.888	0.604	0.690
-398.179	368.473	0.361	-0.731
-397.165	-200.000	0.040	-0.933
-396.150	-163.427	0.361	0.017
-395.136	8.433	-0.666	0.502
-394.121	19.796	-0.299	0.241
-393.106	-35.196	0.231	0.126
-392.092	-109.453	-0.646	0.137
-391.077	18.330	0.378	-0.302
-390.063	340.189	-0.347	-0.677
-389.048	800.000	-0.163	0.457
-388.033	-200.000	-0.020	-0.489
-387.019	133.855	0.296	-0.384
-386.004	800.000	-0.202	-0.581
-384.990	2.466	-0.684	0.495
-383.975	800.000	0.281	1.021
-382.960	443.477	0.469	1.029
-381.946	57.883	-0.231	-0.226
-380.931	251.056	0.197	0.334
-379.917	-36.086	-0.316	-0.171
-378.902	-200.000	-0.044	0.387
-377.888	159.298	0.038	0.052
-376.873	-200.000	0.018	0.551
-375.858	130.059	-0.057	-0.073
-374.844	-21.502	0.678	-0.414
-373.829	-138.560	-0.814	-0.089
-372.815	29.099	-0.109	0.092
-371.800	-200.000	0.004	-0.043
-370.785	-76.414	-0.280	0.098
-369.771	465.682	-0.234	0.525
-368.756	266.273	-0.157	0.274
-367.742	306.810	0.471	0.877
-366.727	-59.098	0.724	0.312
-365.712	-75.325	-0.198	-0.071
-364.698	-37.144	0.977	0.523
-363.683	-46.440	0.900	0.442
-362.669	-200.000	0.116	-1.062
-361.654	-200.000	0.053	0.265
-360.639	-54.206	-1.273	0.578
-359.625	-100.547	0.099	0.024
-358.610	-85.662	0.250	-0.078
-357.596	-200.000	-0.072	0.444
-356.581	216.626	0.241	-0.383
-355.566	800.000	-0.175	-0.516
-354.552	230.466	-0.197	0.323
-353.537	168.635	0.327	0.466
-352.523	-200.000	0.114	-0.921
-351.508	153.196	0.100	0.136
-350.493	-200.000	-0.017	-0.541
-349.479	16.754	-0.501	-0.396
-348.464	-200.000	-0.134	0.781
-347.450	-72.238	0.653	0.242
-346.435	-80.320	0.437	0.146
-345.420	138.241	-0.765	1.003
-344.406	321.502	0.101	0.192
-343.391	-115.818	-1.060	-0.198
-342.377	301.941	-0.479	-0.885
-341.362	264.359	0.290	0.505
-340.348	-200.000	0.042	-0.285
-339.333	63.439	0.234	0.235
-338.318	20.698	0.241	0.195
-337.304	-99.965	0.398	0.099
-336.289	-55.076	0.225	0.101
-335.275	-81.602	0.612	-0.201
-334.260	393.323	-0.131	0.273
-333.245	-73.349	-0.641	0.234
-332.231	46.314	0.509	0.472
-331.216	-70.810	-0.613	0.231
-330.202	558.347	-0.281	0.677
-329.187	-12.434	0.582	0.380
-328.172	32.628	0.298	-0.258
-327.158	-80.784	-0.497	0.165
-326.143	-200.000	0.118	-0.941
-325.129	105.490	-0.413	-0.488
-324.114	166.558	-0.250	-0.354
-323.099	-61.978	-0.199	0.083
-322.085	37.791	-0.234	-0.207
-321.070	109.306	0.183	0.218
-320.056	193.472	0.167	-0.251
-319.041	800.000	-0.189	0.704
-318.026	-143.289	0.365	0.035
-317.012	-140.657	-0.718	0.074
-315.997	-200.000	-0.418	-0.002
-314.983	-177.099	0.467	0.012
-313.968	-105.998	0.678	0.152
-312.953	691.793	-0.325	-0.851
-311.939	-200.000	-0.028	-1.211
-310.924	50.990	-0.181	-0.171
-309.910	-128.481	1.150	-0.163
-308.895	-200.000	-0.069	-0.492
-307.880	-72.468	0.499	-0.184
-306.866	800.000	0.166	-0.460
-305.851	51.234	-0.464	-0.440
-304.837	-200.000	0.069	0.580
-303.822	205.188	0.413	0.639
-302.807	-1.239	0.351	0.248
-301.793	-147.688	-0.196	0.016
-300.778	-43.788	0.416	-0.209
-299.764	-200.000	0.003	-0.032
-298.749	-200.000	0.058	0.615
-297.735	325.821	0.303	0.578
-296.720	-19.287	-0.183	0.113
-295.705	800.000	0.278	-0.848
-294.691	-93.122	-0.985	0.274
-293.676	800.000	0.091	0.264
-292.662	-70.463	1.115	-0.421
-291.647	-51.718	0.684	-0.318
-290.632	356.762	0.272	-0.541
-289.618	84.553	-0.285	-0.311
-288.603	-26.775	-0.825	-0.481
-287.589	800.000	0.132	0.540
-286.574	53.953	0.553	0.530
-285.559	-193.370	0.316	-0.003
-284.545	194.590	0.127	0.192
-283.530	-200.000	-0.118	0.600
-282.516	-101.105	-0.581	0.142
-281.501	800.000	-0.024	0.097
-280.486	-63.542	-0.496	0.203
-279.472	-36.551	0.245	-0.131
-278.457	338.940	-0.281	-0.546
-277.443	74.676	-0.228	-0.239
-276.428	152.631	-0.310	0.422
-275.413	-19.290	0.257	0.159
-274.399	-178.157	-0.455	-0.011
-273.384	-169.652	0.226	0.008
-272.370	81.086	0.546	-0.588
-271.355	-78.623	-0.596	-0.203
-270.340	-135.869	0.570	-0.067
-269.326	800.000	-0.013	0.040
-268.311	800.000	-0.169	0.643
-267.297	47.398	0.497	-0.462
-266.282	37.445	-0.286	0.252
-265.267	-190.723	0.479	-0.005
-264.253	3.059	0.290	0.210
-263.238	177.147	-0.432	0.626
-262.224	-23.422	-0.171	0.102
-261.209	625.770	0.217	-0.545
-260.195	-138.693	0.312	0.034
-259.180	-84.410	-0.179	0.056
-258.165	7.328	0.529	0.393
-257.151	97.955	0.409	0.469
-256.136	59.629	-0.495	-0.486
-255.122	-200.000	-0.076	-0.422
-254.107	-92.223	-0.322	0.091
-253.092	619.116	0.142	0.355
-252.078	-118.983	-0.708	-0.124
-251.063	-200.000	-0.091	0.499
-250.049	-8.748	0.412	-0.275
-249.034	40.163	-0.454	0.406
-248.019	-200.000	-0.003	-0.626
-247.005	-200.000	0.011	-0.261
-245.990	-200.000	0.019	-0.311
-244.976	800.000	-0.109	-0.405
-243.961	-200.000	-0.098	-0.675
-242.946	800.000	0.175	-0.721
-241.932	800.000	-0.222	-0.702
-240.917	800.000	0.204	-0.570
-239.903	-27.673	-0.096	-0.056
-238.888	407.753	-0.374	0.788
-237.873	-115.276	0.773	0.145
-236.859	-171.159	0.237	-0.008
-235.844	691.847	-0.375	-0.979
-234.830	291.915	0.257	-0.466
-233.815	4.000	0.583	0.424
-232.800	-38.183	0.175	0.092
-231.786	-93.010	0.726	-0.201
-230.771	573.883	-0.216	0.524
-229.757	272.142	0.178	0.312
-228.742	-72.478	0.422	0.155
-227.727	23.976	-0.716	-0.588
-226.713	308.043	-0.066	0.122
-225.698	-73.869	-0.657	0.237
-224.684	-14.014	0.431	0.277
-223.669	-0.652	-0.081	0.057
-222.655	-200.000	-0.012	0.186
-221.640	24.762	-0.299	-0.247
-220.625	-12.640	0.560	-0.363
-219.611	-200.000	0.058	0.435
-218.596	79.038	0.287	0.306
-217.582	-75.993	0.432	0.152
-216.567	-121.793	0.491	-0.081
-215.552	-200.000	0.020	-0.966
-214.538	-136.937	0.489	-0.056
-213.523	-3.344	0.534	-0.370
-212.509	323.400	-0.211	0.400
-211.494	-33.289	0.959	0.528
-210.479	146.309	-0.212	0.282
-209.465	-9.626	-0.593	0.393
-208.450	21.382	0.366	0.296
-207.436	-143.637	0.581	0.055
-206.421	123.132	0.224	-0.279
-205.406	-85.289	0.675	0.209
-204.392	-52.411	-0.247	-0.113
-203.377	6.498	0.309	-0.229
-202.363	-63.171	0.172	-0.070
-201.348	60.580	0.215	0.212
-200.333	343.542	-0.415	-0.809
-199.319	-15.286	0.272	0.173
-198.304	-114.730	-0.521	-0.099
-197.290	17.805	0.652	0.516
-196.275	151.169	-0.395	0.533
-195.260	84.877	-0.782	-0.852
-194.246	154.257	0.300	-0.409
-193.231	-113.146	-0.362	-0.071
-192.217	-17.897	0.462	-0.288
-191.202	-106.088	-0.052	-0.012
-190.187	-100.675	-0.420	0.103
-189.173	-68.364	-1.067	0.412
-188.158	36.383	0.716	0.627
-187.144	11.748	-0.419	-0.319
-186.129	-143.120	-0.359	0.034
-185.114	234.928	0.105	0.172
-184.100	205.902	0.048	0.074
-183.085	189.413	-0.051	-0.075
-182.071	-50.974	-0.660	-0.308
-181.056	549.134	0.137	0.326
-180.042	587.229	0.211	-0.516
-179.027	800.000	0.119	-0.510
-178.012	-200.000	-0.096	0.424
-176.998	134.097	0.403	0.519
-175.983	-115.291	1.081	-0.203
-174.969	-132.149	0.334	-0.043
-173.954	93.893	0.494	0.556
-172.939	-51.961	0.537	-0.248
-171.925	-146.057	-0.974	0.085
-170.910	-43.175	-0.526	-0.264
-169.896	800.000	-0.155	-0.514
-168.881	136.265	-0.407	-0.527
-167.866	800.000	-0.071	-0.219
-166.852	123.461	0.350	0.435
-165.837	623.400	0.261	0.654
-164.823	28.470	-0.312	0.262
-163.808	-200.000	0.029	0.552
-162.793	-3.695	-0.211	0.145
-161.779	338.967	0.262	0.506
-160.764	-150.972	-0.641	0.048
-159.750	266.502	-0.059	-0.102
-158.735	-69.801	-0.470	-0.178
-157.720	800.000	-0.266	-0.951
-156.706	800.000	0.086	-0.360
-155.691	16.080	0.518	0.405
-154.677	-77.655	0.648	0.223
-153.662	-165.019	-0.609	-0.027
-152.647	311.739	0.335	0.623
-151.633	306.792	-0.107	0.198
-150.618	-200.000	0.105	0.650
-149.604	800.000	0.071	0.292
-148.589	-153.540	0.281	-0.019
-147.574	800.000	0.051	0.156
-146.560	93.549	-0.410	0.461
-145.545	271.314	-0.344	-0.601
-144.531	800.000	-0.137	-0.470
-143.516	-200.000	0.017	0.382
-142.502	800.000	-0.212	0.901
-141.487	-60.606	0.699	0.294
-140.472	-131.759	-0.362	-0.047
-139.458	-44.270	0.946	-0.470
-138.443	51.270	0.819	-0.770
-137.429	-97.675	0.765	0.196
-136.414	-45.330	-0.394	-0.194
-135.399	-96.339	1.081	0.284
-134.385	-200.000	-0.018	-0.513
-133.370	-50.021	-0.544	0.256
-132.356	-77.494	0.486	-0.167
-131.341	-200.000	-0.062	0.584
-130.326	69.882	0.196	0.200
-129.312	-35.067	0.252	-0.136
-128.297	-171.618	0.502	0.016
-127.283	-200.000	-0.028	-0.186
-126.268	-96.210	-0.481	-0.127
-125.253	-200.000	-0.122	0.929
-124.239	-54.490	0.339	-0.152
-123.224	-144.146	0.758	0.070
-122.210	-200.000	0.102	-0.578
-121.195	-88.162	-0.667	-0.198
-120.180	-97.486	-0.212	0.055
-119.166	-115.857	0.889	-0.165
-118.151	-200.000	0.014	0.388
-117.137	507.208	-0.113	0.260
-116.122	-200.000	0.081	-0.499
-115.107	76.697	-0.533	-0.560
-114.093	-200.000	-0.015	0.750
-113.078	433.311	-0.502	1.079
-112.064	-93.414	0.837	-0.230
-111.049	-200.000	-0.057	-0.286
-110.034	800.000	0.218	0.621
-109.020	-200.000	0.046	-0.250
-108.005	-200.000	0.081	0.875
-106.991	-131.661	0.548	0.071
-105.976	-200.000	-0.026	-0.182
-104.962	-62.785	-0.552	0.226
-103.947	111.049	0.312	-0.372
-102.932	-162.721	-0.425	0.021
-101.918	-78.489	0.594	-0.201
-100.903	-148.918	0.808	0.065
-99.889	173.596	-0.113	-0.161
-98.874	800.000	-0.028	-0.122
-97.859	85.548	-0.513	-0.557
-96.845	-7.806	0.377	0.252
-95.830	61.050	0.399	0.392
-94.816	-200.000	-0.082	0.785
-93.801	-30.131	0.326	0.183
-92.786	176.867	0.028	0.041
-91.772	659.924	-0.352	-0.897
-90.757	1.431	-0.212	-0.150
-89.743	-85.422	0.778	-0.240
-88.728	-133.922	0.916	-0.112
-87.713	-13.714	-0.290	-0.186
-86.699	-44.344	-0.610	-0.302
-85.684	42.614	0.153	0.138
-84.670	800.000	0.103	-0.318
-83.655	350.650	0.346	0.678
-82.640	-153.592	-0.224	-0.015
-81.626	45.935	0.460	-0.421
-80.611	-113.680	0.683	0.132
-79.597	-44.939	0.508	0.250
-78.582	-5.314	-0.501	0.340
-77.567	-155.058	-0.290	-0.019
-76.553	161.616	-0.429	-0.594
-75.538	321.493	-0.160	0.301
-74.524	-129.192	0.735	0.101
-73.509	-164.315	0.413	-0.019
-72.494	-19.971	0.451	0.275
-71.480	191.626	-0.756	1.126
-70.465	536.584	0.033	0.078
-69.451	-157.690	-0.731	-0.043
-68.436	-200.000	-0.039	-0.391
-67.422	37.620	0.334	0.293
-66.407	272.617	-0.281	-0.490
-65.392	-126.620	-0.375	0.055
-64.378	352.886	0.090	-0.176
-63.363	-200.000	0.039	0.197
-62.349	15.256	-0.220	-0.171
-61.334	198.679	-0.824	-1.247
-60.319	273.849	0.532	0.929
-59.305	-200.000	-0.161	-0.890
-58.290	63.386	1.714	1.698
-57.276	784.510	0.737	1.997
-56.261	-200.000	97.960	602.779
-55.246	610.793	1376.009	3398.126
-54.232	196.410	2553.945	3842.915
-53.217	107.610	2283.147	2684.916
-52.203	38.176	2046.869	1799.860
-51.188	33.372	1963.191	1683.626
-50.173	31.908	1944.627	1654.737
-49.159	47.436	1999.322	1840.662
-48.144	48.326	2015.635	1863.580
-47.130	34.200	1976.028	1701.772
-46.115	31.688	1966.271	1670.922
-45.100	31.714	1962.701	1668.051
-44.086	31.524	1962.292	1665.947
-43.071	31.370	1958.881	1661.613
-42.057	31.514	1956.163	1660.525
-41.042	31.641	1952.960	1658.867
-40.027	31.591	1952.125	1657.645
-39.013	31.536	1950.797	1655.964
-37.998	31.668	1948.552	1655.166
-36.984	31.818	1946.292	1654.504
-35.969	31.616	1944.141	1650.826
-34.954	31.679	1942.995	1650.341
-33.940	31.824	1940.381	1649.332
-32.925	31.659	1940.496	1647.910
-31.911	31.624	1938.398	1645.759
-30.896	31.618	1937.454	1644.840
-29.881	31.803	1935.444	1644.687
-28.867	31.688	1933.475	1641.946
-27.852	31.615	1932.405	1640.331
-26.838	31.598	1930.547	1638.537
-25.823	31.681	1928.708	1637.637
-24.809	31.811	1926.582	1636.904
-23.794	31.792	1925.231	1635.527
-22.779	31.682	1924.097	1633.542
-21.765	31.665	1921.830	1631.401
-20.750	31.819	1919.592	1630.772
-19.736	31.721	1917.935	1628.447
-18.721	31.566	1918.141	1627.213
-17.706	31.634	1916.392	1626.253
-16.692	31.700	1913.789	1624.553
-15.677	31.806	1912.097	1623.970
-14.663	31.808	1910.287	1622.385
-13.648	31.750	1909.343	1621.017
-12.633	31.670	1907.998	1619.127
-11.619	31.701	1906.981	1618.467
-10.604	31.849	1905.346	1618.290
-9.590	31.608	1905.575	1616.335
-8.575	31.671	1903.136	1614.751
-7.560	31.527	1901.523	1612.073
-6.546	31.708	1899.463	1611.825
-5.531	31.691	1900.037	1612.099
-4.517	31.498	1898.582	1609.145
-3.502	31.653	1897.168	1609.214
-2.487	31.582	1896.057	1607.599
-1.473	31.558	1895.453	1606.815
-0.458	31.830	1889.639	1604.145
0.556	33.027	1869.314	1574.437
1.571	28.585	1852.326	1523.204
2.586	24.513	1872.933	1505.754
3.600	23.544	1908.533	1525.909
4.615	22.783	1903.594	1515.299
5.629	17.891	1803.029	1395.237
6.644	8.763	1685.075	1233.817
7.659	3.862	1648.821	1170.146
8.673	3.649	1646.442	1166.749
9.688	3.521	1644.930	1164.608
10.702	3.605	1643.588	1164.186
11.717	3.345	1640.535	1159.965
12.731	3.873	1639.726	1163.258
13.746	10.421	1653.719	1222.621
14.761	19.650	1674.299	1307.917
15.775	24.429	1682.299	1350.307
16.790	24.659	1682.922	1352.423
17.804	24.539	1680.333	1349.316
18.819	23.938	1679.600	1344.071
19.834	23.842	1677.077	1341.209
20.848	23.870	1676.415	1340.771
21.863	23.818	1675.481	1339.511
22.877	23.804	1673.921	1338.041
23.892	23.729	1674.213	1337.593
24.907	23.512	1674.058	1335.720
25.921	23.940	1670.242	1335.765
26.936	23.740	1670.518	1334.366
27.950	23.695	1669.470	1333.073
28.965	23.721	1669.543	1333.209
29.980	23.881	1667.811	1332.911
30.994	23.799	1667.541	1331.964
32.009	23.798	1666.859	1331.288
33.023	24.113	1666.190	1332.999
34.038	24.058	1664.953	1331.481
35.053	23.990	1664.038	1330.124
36.067	23.867	1662.260	1327.663
37.082	23.722	1662.865	1326.944
38.096	23.716	1660.049	1324.538
39.111	23.777	1660.718	1325.410
40.126	23.729	1659.544	1323.993
41.140	23.910	1657.990	1323.989
42.155	23.657	1656.934	1321.142
43.169	23.651	1654.645	1319.161
44.184	23.456	1653.972	1317.057
45.199	23.184	1653.509	1314.551
46.213	23.404	1651.690	1314.619
47.228	23.343	1651.043	1313.535
48.242	23.490	1650.276	1313.897
49.257	23.775	1648.801	1314.717
50.271	23.489	1650.213	1313.612
51.286	23.650	1646.925	1312.063
52.301	23.917	1645.428	1312.726
53.315	23.992	1643.340	1311.497
54.330	23.654	1642.793	1308.453
55.344	23.673	1640.803	1306.896
56.359	23.342	1640.302	1303.944
57.374	23.446	1639.786	1304.181
58.388	23.376	1638.906	1302.856
59.403	23.534	1636.122	1301.686
60.417	23.468	1634.181	1299.539
61.432	23.397	1633.936	1298.713
62.447	23.167	1633.664	1296.693
63.461	23.339	1632.173	1296.658
64.476	23.160	1631.430	1294.644
65.490	22.942	1630.467	1292.172
66.505	22.995	1628.858	1291.169
67.520	22.934	1628.995	1290.718
68.534	22.864	1628.146	1289.415
69.549	23.060	1626.250	1289.229
70.563	23.125	1624.484	1288.191
71.578	23.012	1623.007	1286.085
72.593	22.987	1622.484	1285.376
73.607	22.871	1621.083	1283.309
74.622	22.813	1620.244	1282.104
75.636	22.754	1619.991	1281.364
76.651	22.732	1619.591	1280.777
77.666	23.013	1617.552	1281.088
78.680	23.076	1617.760	1281.596
79.695	23.165	1617.075	1281.583
80.709	23.128	1615.685	1280.097
81.724	23.158	1615.709	1280.223
82.739	23.384	1614.159	1280.512
83.753	23.413	1613.559	1280.132
84.768	23.554	1612.608	1280.284
85.782	23.711	1613.910	1282.339
86.797	24.078	1611.187	1282.708
87.812	24.053	1610.748	1282.064
88.826	24.131	1609.203	1281.282
89.841	23.944	1608.576	1279.326
90.855	23.749	1608.324	1277.611
91.870	23.860	1607.139	1277.352
92.884	23.884	1605.824	1276.365
93.899	24.011	1604.834	1276.380
94.914	24.170	1604.415	1277.070
95.928	24.005	1603.949	1275.403
96.943	23.957	1603.137	1274.300
97.957	23.951	1600.907	1272.374
98.972	23.968	1599.813	1271.514
99.987	24.028	1597.435	1269.939
101.001	23.712	1596.724	1267.005
102.016	24.024	1594.975	1267.730
103.030	23.919	1593.223	1265.476
104.045	23.920	1592.997	1265.195
105.060	23.875	1591.324	1263.434
106.074	23.820	1589.815	1261.735
107.089	23.309	1589.268	1257.562
108.103	23.269	1586.401	1254.896
109.118	23.202	1585.159	1253.327
110.133	23.181	1583.822	1252.011
111.147	22.994	1582.139	1249.249
112.162	23.186	1580.139	1248.912
113.176	22.989	1580.294	1247.535
114.191	23.175	1579.214	1247.882
115.206	23.134	1578.407	1246.848
116.220	23.351	1575.327	1245.834
117.235	23.337	1576.034	1246.181
118.249	23.455	1574.181	1245.434
119.264	23.251	1571.805	1242.013
120.279	23.031	1570.892	1239.642
121.293	22.929	1570.097	1238.191
122.308	23.147	1568.449	1238.305
123.322	23.088	1566.257	1236.051
124.337	23.019	1565.451	1234.825
125.352	22.878	1564.104	1232.672
126.366	22.958	1562.742	1232.044
127.381	22.717	1562.376	1229.966
128.395	22.588	1562.580	1229.122
129.410	22.488	1562.228	1228.034
130.424	22.294	1559.792	1224.664
131.439	22.549	1558.502	1225.315
132.454	22.677	1556.344	1224.396
133.468	22.949	1555.802	1225.749
134.483	23.051	1554.767	1225.535
135.497	23.342	1554.510	1227.237
136.512	23.299	1552.652	1225.365
137.527	23.487	1551.039	1225.286
138.541	23.301	1549.582	1222.743
139.556	23.135	1549.812	1221.667
140.570	23.363	1547.925	1221.642
141.585	23.394	1547.010	1221.025
142.600	23.355	1545.762	1219.666
143.614	23.630	1545.090	1220.921
144.629	23.926	1544.178	1222.129
145.643	23.962	1543.788	1221.959
146.658	24.050	1541.376	1220.545
147.673	23.932	1540.166	1218.666
148.687	23.857	1538.866	1217.021
149.702	23.758	1538.052	1215.592
150.716	23.504	1536.050	1212.165
151.731	23.296	1534.972	1209.785
152.746	23.142	1532.741	1206.870
153.760	22.912	1531.711	1204.386
154.775	23.219	1532.411	1206.918
155.789	23.389	1530.782	1206.689
156.804	23.565	1530.227	1207.344
157.819	23.709	1529.015	1207.261
158.833	23.489	1527.892	1204.769
159.848	23.559	1526.573	1204.100
160.862	23.646	1525.938	1204.081
161.877	23.766	1526.126	1204.935
162.892	23.623	1524.309	1202.430
163.906	23.498	1521.706	1199.423
164.921	23.064	1521.209	1195.992
165.935	23.182	1519.195	1195.097
166.950	23.203	1517.515	1193.814
167.964	23.576	1517.345	1196.090
168.979	23.554	1516.409	1195.092
169.994	23.330	1515.482	1192.754
171.008	23.265	1514.362	1191.328
172.023	23.080	1513.847	1189.572
173.037	22.985	1512.667	1187.902
174.052	23.568	1511.422	1190.732
175.067	23.703	1511.696	1191.751
176.081	23.510	1510.630	1189.509
177.096	23.205	1508.984	1186.066
178.110	23.221	1507.287	1184.735
179.125	23.067	1505.020	1181.814
180.140	23.276	1504.795	1182.931
181.154	23.331	1503.592	1182.248
182.169	23.727	1503.598	1184.789
183.183	23.681	1503.098	1183.988
184.198	23.815	1501.790	1183.744
185.213	23.750	1500.513	1182.196
186.227	24.001	1499.978	1183.343
187.242	23.905	1498.730	1181.613
188.256	23.636	1498.272	1179.363
189.271	23.653	1497.981	1179.138
190.286	23.876	1497.424	1180.080
191.300	23.906	1495.886	1178.962
192.315	23.765	1493.113	1175.739
193.329	23.540	1491.912	1173.199
194.344	23.547	1491.055	1172.470
195.359	23.384	1490.766	1171.060
196.373	23.352	1489.397	1169.672
197.388	23.253	1488.512	1168.221
198.402	22.876	1488.357	1165.506
199.417	23.347	1486.726	1167.232
200.432	23.589	1486.544	1168.580
201.446	23.873	1486.672	1170.443
202.461	24.040	1485.558	1170.566
203.475	24.096	1484.067	1169.652
204.490	24.053	1483.545	1168.857
205.504	23.688	1482.867	1165.820
206.519	23.514	1481.551	1163.541
207.534	23.417	1480.333	1161.845
208.548	23.473	1478.230	1160.462
209.563	23.338	1476.977	1158.494
210.577	23.209	1476.676	1157.306
211.592	23.260	1476.214	1157.176
212.607	23.183	1475.833	1156.270
213.621	23.564	1475.826	1158.656
214.636	24.039	1474.577	1160.672
215.650	23.966	1472.890	1158.767
216.665	23.653	1473.082	1156.771
217.680	23.712	1472.146	1156.320
218.694	23.775	1472.213	1156.679
219.709	24.414	1470.479	1159.368
220.723	23.945	1470.954	1156.592
221.738	23.744	1468.766	1153.462
222.753	23.865	1468.464	1153.914
223.767	23.882	1467.109	1152.854
224.782	23.556	1466.010	1149.775
225.796	23.636	1465.973	1150.165
226.811	23.754	1464.819	1149.917
227.826	24.073	1464.057	1151.282
228.840	23.999	1463.132	1149.976
229.855	23.732	1461.903	1147.186
230.869	23.583	1461.059	1145.459
231.884	23.508	1459.480	1143.636
232.899	23.682	1458.842	1144.156
233.913	23.440	1456.954	1141.018
234.928	23.133	1455.718	1137.972
235.942	23.119	1455.145	1137.336
236.957	23.091	1453.609	1135.856
237.972	22.988	1452.220	1134.004
238.986	23.004	1451.088	1133.124
240.001	22.682	1450.886	1130.801
241.015	23.110	1449.001	1131.975
242.030	23.334	1447.942	1132.479
243.045	23.217	1447.749	1131.479
244.059	23.491	1447.035	1132.574
245.074	23.579	1445.227	1131.617
246.088	23.529	1445.729	1131.588
247.103	23.859	1444.801	1132.867
248.117	23.907	1444.187	1132.595
249.132	23.944	1443.472	1132.168
250.147	24.087	1443.232	1132.788
251.161	24.333	1443.685	1134.606
252.176	24.907	1442.905	1137.543
253.190	24.786	1442.389	1136.269
254.205	24.792	1440.724	1134.893
255.220	25.011	1440.794	1136.236
256.234	24.711	1440.476	1133.985
257.249	24.946	1439.315	1134.458
258.263	24.989	1438.312	1133.838
259.278	24.589	1438.072	1131.021
260.293	24.556	1435.978	1129.059
261.307	24.890	1435.536	1130.725
262.322	24.740	1435.130	1129.360
263.336	25.065	1433.891	1130.334
264.351	24.805	1433.183	1128.035
265.366	24.658	1433.606	1127.339
266.380	24.913	1431.382	1127.096
267.395	25.104	1429.303	1126.560
268.409	24.987	1429.287	1125.714
269.424	24.689	1428.899	1123.436
270.439	24.615	1427.467	1121.747
271.453	24.774	1427.168	1122.408
272.468	24.559	1425.132	1119.363
273.482	24.498	1425.234	1118.963
274.497	24.164	1424.104	1115.883
275.512	24.033	1423.379	1114.400
276.526	24.264	1422.126	1114.760
277.541	24.131	1421.376	1113.243
278.555	24.230	1420.075	1112.746
279.570	24.402	1419.720	1113.442
280.585	24.467	1419.115	1113.275
281.599	24.825	1418.424	1114.867
282.614	24.866	1416.879	1113.805
283.628	24.702	1416.793	1112.617
284.643	24.659	1414.725	1110.632
285.657	24.509	1414.434	1109.373
286.672	24.120	1413.515	1106.139
287.687	24.016	1413.356	1105.270
288.701	24.317	1411.583	1105.654
289.716	24.270	1411.602	1105.276
290.730	24.342	1411.028	1105.179
291.745	24.294	1409.977	1103.959
292.760	24.287	1407.947	1102.228
293.774	24.433	1407.398	1102.600
294.789	24.483	1406.200	1101.873
295.803	24.749	1405.175	1102.613
296.818	24.830	1404.681	1102.631
297.833	24.501	1404.264	1100.179
298.847	24.356	1403.243	1098.386
299.862	24.291	1402.215	1097.087
300.876	24.440	1400.389	1096.474
301.891	24.532	1400.263	1096.842
302.906	24.435	1398.971	1095.140
303.920	24.547	1399.397	1096.060
304.935	24.755	1399.027	1096.950
305.949	24.971	1398.727	1097.947
306.964	25.057	1397.662	1097.536
307.979	24.959	1396.824	1096.186
308.993	25.176	1396.037	1096.793
310.008	24.658	1394.632	1092.432
311.022	24.938	1392.794	1092.601
312.037	24.781	1392.932	1091.655
313.052	24.958	1391.155	1091.246
314.066	24.755	1390.170	1089.139
315.081	24.917	1389.033	1089.135
316.095	24.577	1388.406	1086.482
317.110	24.151	1387.017	1082.713
318.125	24.173	1385.947	1081.915
319.139	24.245	1384.489	1081.113
320.154	24.211	1383.519	1080.056
321.168	24.192	1383.070	1079.496
322.183	24.083	1382.334	1078.168
323.197	24.181	1380.934	1077.570
324.212	24.103	1381.159	1077.179
325.227	24.417	1380.092	1078.152
326.241	24.391	1378.599	1076.733
327.256	24.345	1377.715	1075.669
328.270	24.476	1377.270	1076.014
329.285	24.362	1375.986	1074.232
330.300	24.247	1375.554	1073.104
331.314	24.107	1375.426	1072.065
332.329	24.388	1373.796	1072.390
333.343	24.300	1372.422	1070.697
334.358	24.132	1373.028	1070.062
335.373	24.461	1372.263	1071.352
336.387	24.606	1370.796	1070.975
337.402	24.946	1370.583	1072.753
338.416	24.788	1371.116	1072.127
339.431	24.651	1370.397	1070.651
340.446	24.838	1370.060	1071.413
341.460	25.155	1368.606	1072.074
342.475	25.210	1368.214	1072.005
343.489	25.170	1368.598	1071.969
344.504	25.253	1367.236	1071.302
345.519	25.507	1365.089	1071.041
346.533	25.560	1364.434	1070.748
347.548	25.557	1363.178	1069.650
348.562	25.357	1363.294	1068.456
349.577	25.721	1361.510	1069.127
350.592	25.368	1360.862	1066.426
351.606	25.070	1359.900	1063.811
352.621	24.893	1358.237	1061.366
353.635	24.703	1356.916	1059.112
354.650	24.603	1355.134	1057.036
355.665	24.490	1354.629	1055.880
356.679	24.603	1353.667	1055.704
357.694	24.841	1352.835	1056.370
358.708	24.894	1352.084	1056.002
359.723	25.044	1351.265	1056.156
360.738	24.981	1350.432	1055.038
361.752	25.057	1348.831	1054.140
362.767	24.830	1349.251	1053.037
363.781	24.832	1347.809	1051.830
364.796	24.878	1347.231	1051.557
365.810	24.929	1346.832	1051.457
366.825	25.410	1345.930	1053.478
367.840	25.449	1344.868	1052.783
368.854	25.710	1345.357	1054.601
369.869	25.562	1345.347	1053.632
370.883	25.564	1344.522	1052.905
371.898	25.636	1342.910	1051.971
372.913	25.434	1341.593	1049.667
373.927	25.257	1340.573	1047.744
374.942	25.351	1338.736	1046.760
375.956	25.515	1339.043	1047.866
376.971	25.397	1339.245	1047.244
377.986	25.365	1337.920	1045.925
379.000	25.561	1336.174	1045.611
380.015	25.774	1336.751	1047.205
381.029	25.628	1336.088	1045.748
382.044	25.765	1335.949	1046.339
383.059	25.869	1334.361	1045.611
384.073	25.702	1334.538	1044.685
385.088	25.552	1333.643	1043.020
386.102	25.647	1332.486	1042.578
387.117	25.793	1332.423	1043.281
388.132	25.638	1331.537	1041.600
389.146	25.324	1329.930	1038.431
390.161	25.228	1328.258	1036.482
391.175	25.282	1328.197	1036.650
392.190	25.106	1326.890	1034.525
393.205	25.311	1325.894	1034.840
394.219	25.455	1326.022	1035.676
395.234	25.739	1325.400	1036.733
396.248	25.659	1323.073	1034.361
397.263	25.395	1322.505	1032.310
398.278	25.035	1321.012	1028.986
399.292	24.957	1320.485	1028.041
400.307	25.279	1318.653	1028.365
401.321	25.167	1318.120	1027.217
402.336	25.327	1316.846	1027.051
403.350	24.792	1316.711	1023.792
404.365	24.721	1315.451	1022.317
405.380	24.881	1313.568	1021.677
406.394	25.251	1312.279	1022.694
407.409	25.357	1312.201	1023.142
408.423	25.487	1312.238	1023.821
409.438	25.734	1312.331	1025.211
410.453	25.897	1310.919	1024.944
411.467	25.734	1311.101	1024.068
412.482	25.993	1309.366	1024.097
413.496	25.687	1309.929	1022.704
414.511	25.718	1309.501	1022.460
415.526	26.015	1308.853	1023.546
416.540	26.135	1308.197	1023.627
417.555	26.169	1307.786	1023.407
418.569	26.679	1305.344	1024.287
419.584	25.872	1305.764	1019.963
420.599	26.061	1305.036	1020.373
421.613	144.578	1435.266	1796.289
422.628	140.067	1454.144	1796.308
