DTS Sentinel unit serial number:	SN413079Multiplexer serial number:	ORYXHardware model number:	OX4-SRSoftware version number:	ORYX F/W v4.00 Oryx Data Collector v3.7.2.0data status	okinstallation	princeton_trtdifferential loss correction	single-endedforward channel	channel 4reverse channel	N/Adate	2019/09/16time	00:21:35forward acquisition time	60.00reverse acquisition time	0.00gamma	496.2192k internal	0.2322k external	0.2322temperature offset calibration	0.9966default loss term (dB/km)	0.3790temperature slope calibration	1.0000multiplexer offset coefficient	1.0000multiplexer slope coefficient	1.0000fibre end	0.00T internal ref (°C)	27.62T ext. ref 1 (°C)	9.51T ext. ref 2 (°C)	21.59length (m)	temperature (°C)	Stokes	anti-Stokes-747.200	800.000	-0.086	-0.352
-746.185	-101.912	-0.151	-0.037
-745.171	756.799	-0.028	0.077
-744.156	230.861	0.155	0.256
-743.142	3.800	-0.182	0.134
-742.127	-200.000	-0.047	0.312
-741.112	-41.672	-0.115	-0.060
-740.098	24.218	-0.219	-0.183
-739.083	123.801	0.167	-0.212
-738.069	561.454	-0.078	0.191
-737.054	170.079	0.200	0.289
-736.039	149.180	-0.269	-0.368
-735.025	-200.000	0.017	0.079
-734.010	126.178	-0.270	0.345
-732.996	-11.707	-0.105	-0.070
-731.981	-200.000	0.048	0.253
-730.966	1.346	0.145	0.106
-729.952	-200.000	-0.014	0.095
-728.937	39.133	0.198	-0.179
-727.923	-200.000	0.053	-0.323
-726.908	94.737	-0.197	0.226
-725.894	440.359	0.070	-0.154
-724.879	-181.247	-0.451	-0.009
-723.864	8.843	0.097	0.074
-722.850	-200.000	0.006	0.032
-721.835	10.015	0.211	-0.162
-720.821	-128.345	0.118	-0.017
-719.806	-65.739	-0.248	0.100
-718.791	-200.000	0.050	0.253
-717.777	331.804	-0.116	-0.227
-716.762	7.035	0.303	-0.228
-715.748	800.000	0.078	-0.327
-714.733	583.973	-0.160	-0.396
-713.718	159.287	-0.204	-0.286
-712.704	399.703	0.132	0.280
-711.689	-62.469	-0.515	-0.216
-710.675	-200.000	-0.004	0.080
-709.660	86.940	0.137	-0.153
-708.645	333.052	-0.132	0.258
-707.631	583.656	-0.212	0.525
-706.616	-200.000	-0.057	0.258
-705.602	303.748	-0.027	0.050
-704.587	0.742	-0.214	-0.154
-703.572	270.043	-0.172	-0.305
-702.558	-153.517	0.436	0.030
-701.543	41.337	-0.181	-0.165
-700.529	72.574	-0.209	-0.220
-699.514	-28.445	0.258	0.150
-698.499	-200.000	-0.019	-0.165
-697.485	-17.370	0.104	0.066
-696.470	-200.000	0.028	-0.212
-695.456	-188.036	0.293	0.004
-694.441	-200.000	-0.015	0.121
-693.426	-200.000	-0.023	0.103
-692.412	-25.713	-0.167	-0.099
-691.397	94.891	0.103	0.118
-690.383	-29.302	0.104	0.060
-689.368	-141.080	-0.071	-0.007
-688.354	505.671	0.082	0.192
-687.339	108.283	0.133	0.160
-686.324	-76.798	0.168	0.059
-685.310	-200.000	-0.013	0.457
-684.295	544.611	-0.163	-0.392
-683.281	-104.709	-0.089	0.021
-682.266	800.000	0.045	-0.193
-681.251	-15.546	0.270	0.174
-680.237	-125.849	0.138	0.021
-679.222	-101.513	0.160	-0.039
-678.208	800.000	-0.029	-0.101
-677.193	-146.597	0.212	-0.019
-676.178	800.000	0.069	0.273
-675.164	117.866	0.101	0.125
-674.149	152.315	-0.085	0.117
-673.135	106.820	0.201	-0.241
-672.120	-50.339	0.107	-0.051
-671.105	-137.452	-0.219	-0.025
-670.091	-200.000	0.013	-0.096
-669.076	-66.690	-0.271	-0.108
-668.062	42.031	-0.058	0.053
-667.047	-200.000	0.001	0.148
-666.032	-142.574	-0.194	-0.019
-665.018	117.809	-0.033	0.041
-664.003	800.000	0.041	-0.161
-662.989	-200.000	-0.007	-0.179
-661.974	754.012	-0.050	-0.136
-660.959	-200.000	0.004	-0.240
-659.945	4.295	-0.181	0.134
-658.930	-172.984	0.240	-0.007
-657.916	10.095	0.113	-0.087
-656.901	380.573	-0.077	0.159
-655.886	166.477	-0.173	-0.247
-654.872	-124.131	0.204	0.032
-653.857	-200.000	0.001	0.314
-652.843	-49.766	0.158	0.076
-651.828	600.263	0.078	-0.195
-650.814	-115.883	-0.356	0.067
-649.799	-200.000	-0.052	-0.357
-648.784	-200.000	-0.013	-0.219
-647.770	35.480	-0.201	0.178
-646.755	-44.523	-0.164	-0.083
-645.741	-129.355	0.482	-0.067
-644.726	644.045	-0.035	-0.089
-643.711	30.848	-0.236	-0.203
-642.697	-200.000	0.002	-0.016
-641.682	46.681	0.247	-0.231
-640.668	321.178	0.160	0.307
-639.653	-197.900	-0.249	0.002
-638.638	75.720	-0.038	0.040
-637.624	800.000	-0.055	0.216
-636.609	800.000	0.030	-0.122
-635.595	102.243	-0.136	-0.159
-634.580	-133.481	0.153	-0.019
-633.565	141.906	-0.021	0.028
-632.551	432.413	0.077	-0.168
-631.536	243.695	-0.110	-0.185
-630.522	703.184	-0.093	-0.248
-629.507	-25.570	0.088	0.052
-628.492	800.000	0.055	0.226
-627.478	190.772	-0.111	-0.168
-626.463	800.000	-0.030	-0.090
-625.449	510.546	0.050	-0.118
-624.434	-49.165	0.168	-0.081
-623.419	-148.952	-0.119	0.010
-622.405	-89.244	-0.425	-0.126
-621.390	256.542	-0.146	-0.253
-620.376	383.184	-0.099	0.205
-619.361	54.808	-0.256	-0.249
-618.346	800.000	0.120	0.436
-617.332	26.039	0.088	0.073
-616.317	239.143	0.109	0.182
-615.303	529.487	-0.114	0.270
-614.288	-200.000	-0.005	-0.274
-613.273	-100.853	-0.159	0.039
-612.259	-200.000	-0.050	0.282
-611.244	390.414	-0.107	0.223
-610.230	176.401	0.072	-0.105
-609.215	34.384	0.059	0.052
-608.201	-40.855	0.190	-0.099
-607.186	-200.000	0.007	0.287
-606.171	472.448	0.110	0.248
-605.157	128.182	-0.142	0.182
-604.142	-37.117	0.283	-0.152
-603.128	-159.256	-0.197	-0.011
-602.113	214.125	0.045	-0.071
-601.098	38.208	-0.124	0.111
-600.084	-62.414	-0.149	-0.062
-599.069	-200.000	-0.041	-0.307
-598.055	-156.388	0.098	-0.006
-597.040	-200.000	0.053	0.245
-596.025	-146.324	0.140	-0.012
-595.011	380.408	-0.131	-0.270
-593.996	508.708	-0.112	-0.262
-592.982	-64.669	0.177	0.072
-591.967	-18.520	-0.181	-0.113
-590.952	22.722	-0.045	0.037
-589.938	123.996	0.277	-0.350
-588.923	-43.794	-0.227	-0.115
-587.909	195.189	-0.218	-0.332
-586.894	33.939	0.065	-0.057
-585.879	57.337	-0.277	-0.271
-584.865	800.000	-0.070	0.214
-583.850	-47.340	0.233	-0.114
-582.836	-200.000	0.013	0.149
-581.821	27.142	-0.235	0.198
-580.806	800.000	-0.047	-0.163
-579.792	-92.588	0.096	0.027
-578.777	-156.946	0.241	-0.015
-577.763	-200.000	-0.008	-0.076
-576.748	31.165	-0.283	-0.244
-575.733	-164.241	-0.214	0.010
-574.719	223.395	-0.063	0.103
-573.704	-200.000	0.016	-0.169
-572.690	800.000	-0.097	-0.268
-571.675	40.505	0.120	0.108
-570.661	-122.370	0.085	0.014
-569.646	-159.609	0.364	-0.020
-568.631	-170.011	-0.207	-0.007
-567.617	54.312	0.225	0.218
-566.602	-200.000	-0.025	0.280
-565.588	-89.010	-0.267	-0.079
-564.573	-139.824	-0.262	0.028
-563.558	150.148	-0.086	-0.117
-562.544	-43.981	0.148	-0.075
-561.529	673.375	-0.091	-0.237
-560.515	-200.000	-0.009	-0.223
-559.500	-200.000	-0.001	-0.097
-558.485	-150.629	-0.300	0.023
-557.471	-200.000	-0.019	0.105
-556.456	251.503	-0.090	0.153
-555.442	-200.000	0.024	0.156
-554.427	800.000	-0.059	0.185
-553.412	71.845	0.288	-0.300
-552.398	92.585	0.195	-0.220
-551.383	-200.000	0.037	-0.235
-550.369	-113.488	-0.318	-0.062
-549.354	-200.000	-0.037	0.270
-548.339	103.234	-0.219	0.258
-547.325	-131.398	0.205	0.027
-546.310	258.275	0.199	-0.343
-545.296	10.400	-0.379	-0.289
-544.281	800.000	0.097	0.322
-543.266	-200.000	0.064	0.329
-542.252	-122.259	0.289	-0.047
-541.237	-34.932	-0.129	0.071
-540.223	13.336	0.257	0.200
-539.208	800.000	0.034	0.128
-538.193	263.644	0.152	-0.264
-537.179	487.888	0.105	0.240
-536.164	800.000	0.101	-0.348
-535.150	315.248	0.092	-0.173
-534.135	128.029	0.182	0.232
-533.121	800.000	0.027	0.103
-532.106	-200.000	0.005	-0.139
-531.091	-15.329	-0.127	-0.081
-530.077	800.000	-0.091	-0.289
-529.062	-145.629	0.338	0.030
-528.048	118.911	0.179	0.222
-527.033	-200.000	0.001	-0.132
-526.018	358.927	0.187	-0.375
-525.004	469.033	0.150	0.337
-523.989	-23.771	-0.110	0.066
-522.975	161.349	0.121	-0.170
-521.960	-74.166	0.192	0.070
-520.945	-200.000	-0.024	-0.349
-519.931	-130.723	-0.267	0.036
-518.916	575.588	0.168	0.410
-517.902	-200.000	0.046	0.274
-516.887	224.856	-0.220	-0.357
-515.872	-200.000	0.026	0.378
-514.858	553.081	0.173	-0.417
-513.843	26.304	0.118	-0.099
-512.829	-200.000	-0.033	0.217
-511.814	180.047	-0.268	0.393
-510.799	470.150	0.022	-0.050
-509.785	-94.479	-0.219	0.060
-508.770	-200.000	0.017	-0.146
-507.756	-200.000	-0.003	-0.349
-506.741	-114.738	0.218	0.042
-505.726	-200.000	0.022	0.111
-504.712	199.208	0.157	-0.240
-503.697	-34.291	-0.198	-0.108
-502.683	-56.454	0.246	-0.109
-501.668	331.999	0.086	-0.166
-500.653	-76.314	0.048	0.017
-499.639	-54.186	0.058	-0.027
-498.624	800.000	-0.041	0.161
-497.610	47.210	0.347	-0.323
-496.595	800.000	-0.061	0.245
-495.581	-69.013	-0.301	0.116
-494.566	800.000	-0.145	-0.550
-493.551	-134.837	0.324	-0.039
-492.537	-108.491	0.101	-0.022
-491.522	-21.614	0.310	0.189
-490.508	-154.326	0.297	0.020
-489.493	56.646	-0.088	-0.085
-488.478	124.611	0.082	0.103
-487.464	468.327	0.200	-0.450
-486.449	-47.030	-0.133	0.065
-485.435	-200.000	0.043	-0.195
-484.420	-143.815	-0.204	-0.019
-483.405	-13.542	-0.180	-0.117
-482.391	-158.754	-0.086	-0.005
-481.376	-183.513	-0.293	0.005
-480.362	-107.740	0.225	0.049
-479.347	100.297	-0.195	0.226
-478.332	-173.287	-0.060	-0.002
-477.318	-200.000	-0.049	0.232
-476.303	-52.785	-0.040	0.018
-475.289	347.234	-0.062	-0.123
-474.274	800.000	-0.010	0.046
-473.259	33.870	0.176	0.153
-472.245	-27.389	-0.117	0.068
-471.230	128.059	0.244	-0.310
-470.216	-200.000	0.039	0.219
-469.201	216.547	-0.109	0.173
-468.186	268.113	0.108	-0.189
-467.172	42.291	0.203	-0.184
-466.157	-30.223	-0.148	0.084
-465.143	44.326	0.125	-0.114
-464.128	-80.593	-0.045	0.015
-463.113	-87.551	-0.097	0.029
-462.099	308.626	-0.058	0.108
-461.084	-33.178	-0.207	0.115
-460.070	-102.721	0.128	-0.030
-459.055	800.000	0.038	0.121
-458.040	-93.104	-0.186	-0.052
-457.026	7.559	0.249	-0.186
-456.011	-90.408	-0.197	0.057
-454.997	-134.159	0.126	0.016
-453.982	800.000	0.025	-0.078
-452.968	125.951	-0.275	-0.348
-451.953	-75.183	0.192	0.069
-450.938	-200.000	0.008	0.076
-449.924	-63.475	-0.011	-0.004
-448.909	0.739	0.366	-0.262
-447.895	110.152	-0.165	-0.197
-446.880	260.805	-0.008	0.013
-445.865	-42.455	-0.115	-0.059
-444.851	-88.463	-0.066	-0.020
-443.836	-200.000	-0.003	-0.171
-442.822	101.247	-0.200	0.232
-441.807	800.000	-0.061	-0.263
-440.792	477.337	0.032	0.073
-439.778	705.468	-0.093	-0.245
-438.763	481.028	0.088	0.199
-437.749	-133.526	-0.180	-0.023
-436.734	-179.091	0.405	0.009
-435.719	-173.583	-0.379	0.011
-434.705	800.000	-0.028	0.094
-433.690	-200.000	0.030	-0.182
-432.676	-200.000	-0.011	0.156
-431.661	-200.000	-0.060	-0.328
-430.646	6.658	0.240	0.178
-429.632	800.000	0.046	-0.167
-428.617	120.545	0.180	-0.223
-427.603	-200.000	0.044	-0.224
-426.588	0.585	0.406	-0.290
-425.573	800.000	0.094	0.295
-424.559	-159.991	0.332	0.018
-423.544	145.460	-0.153	-0.205
-422.530	0.961	-0.229	-0.164
-421.515	-163.173	0.134	-0.006
-420.500	800.000	0.136	0.456
-419.486	-138.462	-0.091	-0.010
-418.471	-91.564	-0.236	0.067
-417.457	-21.151	0.289	-0.176
-416.442	-74.899	-0.235	0.084
-415.428	-26.833	0.337	0.196
-414.413	-200.000	0.041	-0.190
-413.398	-200.000	-0.012	-0.091
-412.384	-3.574	0.277	0.192
-411.369	-59.498	-0.269	0.115
-410.355	-200.000	-0.032	-0.294
-409.340	800.000	-0.089	-0.334
-408.325	800.000	-0.022	0.077
-407.311	-47.448	-0.203	-0.098
-406.296	-82.928	-0.300	-0.097
-405.282	90.957	-0.184	0.205
-404.267	-200.000	0.003	0.133
-403.252	800.000	-0.006	0.021
-402.238	-84.965	-0.234	-0.073
-401.223	-132.139	-0.382	0.049
-400.209	-200.000	0.011	-0.324
-399.194	-54.378	0.171	-0.077
-398.179	64.894	0.066	0.067
-397.165	-200.000	0.008	-0.204
-396.150	-52.878	-0.209	-0.096
-395.136	332.937	0.104	0.200
-394.121	-116.361	0.380	0.070
-393.106	161.518	0.089	-0.124
-392.092	-187.316	-0.141	-0.002
-391.077	24.933	0.347	0.287
-390.063	186.813	0.061	0.090
-389.048	-21.523	0.017	-0.010
-388.033	2.807	-0.465	-0.336
-387.019	187.797	0.117	-0.174
-386.004	65.445	-0.189	-0.190
-384.990	-67.954	-0.263	0.102
-383.975	573.602	0.018	0.045
-382.960	-73.420	-0.433	-0.158
-381.946	-163.266	0.187	0.009
-380.931	-20.921	0.190	-0.116
-379.917	167.170	0.163	-0.231
-378.902	-66.118	-0.454	-0.180
-377.888	800.000	-0.037	0.107
-376.873	146.418	-0.078	0.105
-375.858	-178.977	0.140	0.003
-374.844	341.133	0.093	0.180
-373.829	-200.000	0.050	-0.313
-372.815	114.307	0.030	0.037
-371.800	-200.000	-0.047	0.295
-370.785	-105.553	-0.019	-0.004
-369.771	-8.105	0.151	0.102
-368.756	54.018	0.165	0.158
-367.742	-31.766	0.083	-0.046
-366.727	465.310	0.128	-0.285
-365.712	-43.218	0.093	0.047
-364.698	-119.675	-0.095	0.016
-363.683	-184.427	0.081	-0.001
-362.669	-7.644	-0.154	-0.103
-361.654	38.848	0.101	-0.090
-360.639	296.382	0.126	-0.231
-359.625	-186.060	0.174	0.003
-358.610	559.903	-0.126	-0.303
-357.596	117.888	-0.121	-0.148
-356.581	3.332	0.198	0.144
-355.566	-85.059	0.102	-0.032
-354.552	800.000	0.032	0.111
-353.537	715.536	-0.025	-0.067
-352.523	-66.587	-0.053	0.021
-351.508	43.557	-0.050	-0.046
-350.493	59.098	-0.050	-0.049
-349.479	121.633	-0.211	0.261
-348.464	-100.971	-0.317	0.077
-347.450	137.721	-0.085	0.111
-346.435	19.947	0.249	0.199
-345.420	-200.000	0.051	0.321
-344.406	-139.154	-0.127	0.014
-343.391	-14.039	-0.030	0.019
-342.377	257.586	0.050	-0.086
-341.362	149.986	0.268	0.361
-340.348	800.000	-0.113	0.363
-339.333	-200.000	0.030	0.267
-338.318	307.702	0.068	0.127
-337.304	-143.899	-0.163	-0.015
-336.289	8.512	-0.343	-0.256
-335.275	-24.802	0.214	0.126
-334.260	-79.769	-0.342	-0.115
-333.245	38.980	0.159	-0.141
-332.231	333.637	0.089	-0.172
-331.216	-200.000	0.035	0.285
-330.202	438.972	0.079	0.172
-329.187	-200.000	0.018	-0.184
-328.172	469.562	-0.100	0.223
-327.158	655.622	-0.051	-0.129
-326.143	-26.539	-0.199	-0.116
-325.129	-12.085	0.178	0.116
-324.114	-107.022	0.120	-0.026
-323.099	800.000	-0.049	-0.140
-322.085	345.167	0.069	-0.135
-321.070	-14.131	-0.453	0.291
-320.056	280.903	0.066	0.117
-319.041	154.111	-0.119	0.162
-318.026	800.000	-0.024	0.098
-317.012	-200.000	-0.015	0.216
-315.997	-9.836	0.325	0.215
-314.983	386.040	-0.023	0.048
-313.968	192.858	0.092	0.139
-312.953	-200.000	-0.015	0.285
-311.939	-200.000	0.015	0.268
-310.924	-88.848	-0.158	0.046
-309.910	-180.682	0.311	0.006
-308.895	237.095	-0.188	0.309
-307.880	-200.000	0.019	0.304
-306.866	-200.000	0.035	0.254
-305.851	155.406	0.224	0.306
-304.837	145.001	0.176	-0.234
-303.822	214.138	-0.065	0.102
-302.807	-158.800	0.126	0.007
-301.793	-200.000	-0.005	0.158
-300.778	-26.051	-0.340	0.198
-299.764	-187.219	-0.333	-0.004
-298.749	22.530	0.345	0.280
-297.735	376.399	0.200	-0.406
-296.720	163.493	0.045	0.063
-295.705	-200.000	-0.041	-0.184
-294.691	2.160	-0.300	-0.215
-293.676	800.000	0.086	0.268
-292.662	-77.001	-0.176	0.061
-291.647	-200.000	0.017	-0.171
-290.632	-105.769	0.266	0.060
-289.618	562.432	0.063	0.151
-288.603	-115.353	0.200	0.038
-287.589	252.178	0.174	0.294
-286.574	213.105	-0.041	0.065
-285.559	209.430	-0.157	0.243
-284.545	19.306	0.202	0.161
-283.530	329.274	-0.180	0.344
-282.516	74.069	-0.128	0.133
-281.501	-44.555	-0.088	-0.044
-280.486	-40.503	-0.277	-0.142
-279.472	-106.915	0.226	0.050
-278.457	632.796	-0.032	-0.080
-277.443	-8.705	-0.177	0.118
-276.428	600.288	-0.050	-0.123
-275.413	187.534	0.183	0.271
-274.399	5.706	-0.233	0.170
-273.384	800.000	0.020	0.079
-272.370	230.544	0.184	-0.298
-271.355	377.334	0.126	-0.255
-270.340	-76.317	0.094	-0.033
-269.326	-65.124	0.201	-0.081
-268.311	-99.400	-0.427	0.107
-267.297	-5.424	-0.070	0.048
-266.282	9.948	-0.129	0.097
-265.267	277.198	-0.184	-0.324
-264.253	-160.064	0.208	-0.011
-263.238	-183.571	-0.240	0.004
-262.224	-129.119	-0.411	0.057
-261.209	-200.000	0.020	-0.299
-260.195	-150.614	0.217	-0.016
-259.180	-200.000	0.019	0.220
-258.165	-200.000	0.126	0.559
-257.151	-144.607	-0.276	-0.025
-256.136	709.314	-0.045	-0.119
-255.122	281.043	0.036	0.064
-254.107	-43.723	0.124	0.062
-253.092	-200.000	0.022	0.148
-252.078	-156.791	0.020	0.001
-251.063	-65.844	-0.022	0.009
-250.049	800.000	0.125	-0.414
-249.034	-132.637	0.221	-0.028
-248.019	-118.658	0.349	-0.061
-247.005	800.000	-0.041	0.163
-245.990	-74.012	0.344	-0.123
-244.976	-200.000	0.002	0.161
-243.961	-35.761	0.250	0.134
-242.946	-54.138	-0.098	-0.044
-241.932	-78.952	-0.287	-0.097
-240.917	-1.104	-0.161	-0.113
-239.903	-97.074	-0.287	-0.074
-238.888	-200.000	0.022	0.250
-237.873	72.369	-0.178	0.184
-236.859	128.897	0.154	-0.194
-235.844	-3.981	0.170	-0.116
-234.830	-3.331	0.066	0.046
-233.815	104.354	-0.104	-0.121
-232.800	0.641	-0.157	-0.111
-231.786	-128.537	0.020	-0.003
-230.771	531.970	0.135	0.315
-229.757	800.000	0.135	0.423
-228.742	-98.884	-0.289	0.073
-227.727	-145.902	0.131	-0.012
-226.713	21.100	0.188	-0.151
-225.698	-132.364	0.224	0.029
-224.684	234.769	-0.033	0.054
-223.669	-46.988	0.036	0.018
-222.655	-103.644	0.081	-0.019
-221.640	489.584	-0.103	-0.232
-220.625	800.000	-0.043	0.169
-219.611	82.439	0.155	-0.166
-218.596	-65.222	0.238	-0.095
-217.582	-64.899	-0.244	0.098
-216.567	-100.656	0.192	-0.047
-215.552	-59.061	-0.133	0.057
-214.538	-38.214	-0.367	-0.192
-213.523	289.488	-0.119	-0.213
-212.509	12.588	-0.209	0.160
-211.494	23.558	-0.128	-0.104
-210.479	-200.000	0.055	0.302
-209.465	-116.909	0.116	0.021
-208.450	91.359	0.016	0.018
-207.436	579.472	0.165	0.399
-206.421	-200.000	0.021	0.097
-205.406	143.240	-0.222	-0.292
-204.392	-140.711	-0.151	-0.015
-203.377	155.530	0.093	0.127
-202.363	800.000	-0.025	0.092
-201.348	25.952	-0.109	0.090
-200.333	45.824	0.145	0.133
-199.319	800.000	0.075	0.271
-198.304	-200.000	0.011	0.132
-197.290	800.000	0.015	-0.064
-196.275	289.709	-0.196	-0.351
-195.260	-120.430	-0.026	-0.004
-194.246	721.850	0.134	0.353
-193.231	800.000	0.047	-0.159
-192.217	166.166	0.133	0.186
-191.202	-141.182	-0.194	-0.020
-190.187	76.856	-0.199	0.209
-189.173	27.064	0.383	-0.317
-188.158	70.000	0.113	0.115
-187.144	-61.269	-0.149	-0.062
-186.129	-74.914	-0.241	0.085
-185.114	77.782	-0.003	-0.004
-184.100	85.568	-0.121	0.132
-183.085	32.484	-0.011	0.009
-182.071	176.028	0.165	0.237
-181.056	800.000	0.062	-0.236
-180.042	-11.284	-0.357	0.232
-179.027	-113.463	-0.103	-0.020
-178.012	47.105	0.252	-0.232
-176.998	317.293	-0.095	0.177
-175.983	-187.062	0.138	0.002
-174.969	-200.000	-0.045	-0.200
-173.954	217.434	-0.016	0.025
-172.939	800.000	-0.088	-0.379
-171.925	-200.000	0.010	-0.200
-170.910	197.935	0.048	0.072
-169.896	-12.688	0.192	0.124
-168.881	40.785	0.081	-0.072
-167.866	356.101	0.088	-0.173
-166.852	-86.809	-0.105	-0.032
-165.837	2.934	-0.242	0.173
-164.823	-200.000	-0.015	0.185
-163.808	-70.317	-0.147	0.055
-162.793	800.000	-0.125	0.360
-161.779	-200.000	0.040	-0.325
-160.764	800.000	0.088	-0.244
-159.750	182.964	0.157	0.230
-158.735	123.727	0.117	-0.145
-157.720	-131.382	-0.138	0.018
-156.706	19.682	0.113	0.090
-155.691	800.000	0.082	-0.247
-154.677	-200.000	-0.008	-0.151
-153.662	75.249	0.116	0.121
-152.647	-56.237	0.334	0.147
-151.633	67.719	0.105	0.106
-150.618	299.441	-0.100	-0.183
-149.604	52.144	0.230	-0.217
-148.589	562.131	-0.130	0.311
-147.574	38.516	-0.169	0.149
-146.560	-30.908	-0.157	-0.088
-145.545	-47.872	-0.370	-0.177
-144.531	437.447	-0.111	-0.238
-143.516	-41.717	-0.002	-0.001
-142.502	-29.626	-0.381	0.215
-141.487	-89.733	-0.172	-0.050
-140.472	237.218	0.450	-0.736
-139.458	-106.653	-0.242	0.053
-138.443	37.816	0.107	0.094
-137.429	314.541	-0.025	-0.046
-136.414	92.563	0.060	0.067
-135.399	-97.233	-0.050	0.013
-134.385	-17.571	0.145	-0.090
-133.370	48.376	-0.082	-0.075
-132.356	6.714	0.261	-0.191
-131.341	-73.683	-0.105	-0.038
-130.326	-25.319	-0.108	0.063
-129.312	-70.472	0.258	-0.096
-128.297	-27.938	-0.095	0.054
-127.283	414.579	0.135	0.282
-126.268	-78.046	-0.189	-0.064
-125.253	-51.599	0.295	0.136
-124.239	391.606	-0.089	-0.181
-123.224	-18.241	0.206	0.127
-122.210	-124.125	-0.318	0.049
-121.195	-115.742	0.205	0.038
-120.180	-113.652	0.077	0.015
-119.166	-79.412	0.159	0.053
-118.151	800.000	0.133	0.464
-117.137	-30.100	-0.284	0.159
-116.122	5.142	0.031	-0.022
-115.107	-51.221	-0.309	0.143
-114.093	121.139	0.155	0.191
-113.078	130.436	0.055	-0.069
-112.064	-77.151	0.124	-0.043
-111.049	93.113	0.226	0.252
-110.034	140.999	0.080	-0.104
-109.020	-183.400	0.271	-0.005
-108.005	74.752	0.202	-0.210
-106.991	196.641	0.153	0.230
-105.976	-50.772	-0.071	-0.033
-104.962	-54.776	0.101	-0.045
-103.947	148.723	0.159	-0.211
-102.932	-200.000	-0.001	0.035
-101.918	800.000	-0.025	-0.086
-100.903	308.244	0.130	-0.239
-99.889	-8.681	-0.102	-0.068
-98.874	800.000	-0.056	-0.212
-97.859	-200.000	0.030	0.196
-96.845	199.743	0.171	0.258
-95.830	238.553	-0.139	-0.228
-94.816	633.598	0.060	-0.149
-93.801	-16.223	-0.084	0.052
-92.786	521.834	0.107	-0.248
-91.772	-200.000	0.002	-0.078
-90.757	-53.263	-0.132	-0.059
-89.743	55.823	-0.122	0.117
-88.728	39.095	0.128	0.112
-87.713	-200.000	0.042	-0.265
-86.699	-200.000	0.034	0.371
-85.684	-200.000	-0.040	0.224
-84.670	-135.409	0.114	-0.013
-83.655	-104.253	-0.088	-0.020
-82.640	-11.913	-0.289	-0.186
-81.626	-53.319	0.346	0.156
-80.611	6.655	0.106	-0.077
-79.597	29.982	0.124	0.104
-78.582	-5.253	0.195	-0.132
-77.567	132.691	0.125	-0.159
-76.553	-200.000	0.024	-0.155
-75.538	-168.135	-0.112	-0.004
-74.524	-26.101	0.058	-0.033
-73.509	-134.455	-0.423	-0.051
-72.494	124.816	0.072	-0.089
-71.480	-200.000	0.035	0.161
-70.465	-200.000	-0.033	-0.433
-69.451	423.585	0.145	-0.306
-68.436	-12.232	-0.107	-0.069
-67.422	-200.000	-0.013	0.192
-66.407	-200.000	0.005	0.178
-65.392	36.003	-0.192	0.166
-64.378	-177.366	-0.090	0.002
-63.363	43.315	-0.151	-0.136
-62.349	66.679	-0.253	0.254
-61.334	89.150	-0.950	-1.041
-60.319	41.156	0.489	0.434
-59.305	-200.000	0.112	-1.177
-58.290	33.634	1.092	0.933
-57.276	800.000	0.538	1.633
-56.261	-200.000	112.273	641.898
-55.246	477.731	1490.927	3317.291
-54.232	147.492	2662.528	3526.009
-53.217	94.247	2308.425	2576.547
-52.203	33.848	2059.301	1762.063
-51.188	29.380	1974.009	1649.174
-50.173	27.978	1957.132	1622.571
-49.159	46.103	2015.085	1834.386
-48.144	45.397	2031.504	1842.897
-47.130	29.920	1991.493	1668.390
-46.115	27.625	1980.619	1638.609
-45.100	27.635	1977.551	1636.103
-44.086	27.553	1975.809	1633.862
-43.071	27.517	1972.926	1631.090
-42.057	27.405	1971.543	1628.875
-41.042	27.412	1969.347	1627.058
-40.027	27.505	1966.953	1625.851
-39.013	27.525	1965.079	1624.415
-37.998	27.575	1963.854	1623.781
-36.984	27.523	1962.129	1621.826
-35.969	27.528	1960.181	1620.197
-34.954	27.492	1958.482	1618.405
-33.940	27.520	1957.271	1617.596
-32.925	27.578	1955.043	1616.202
-31.911	27.663	1953.648	1615.740
-30.896	27.641	1951.561	1613.754
-29.881	27.644	1950.560	1612.888
-28.867	27.658	1948.998	1611.658
-27.852	27.687	1946.986	1610.184
-26.838	27.654	1945.661	1608.734
-25.823	27.738	1943.279	1607.437
-24.809	27.664	1941.924	1605.604
-23.794	27.635	1939.887	1603.603
-22.779	27.726	1938.087	1602.846
-21.765	27.696	1936.362	1601.093
-20.750	27.620	1934.978	1599.223
-19.736	27.659	1933.240	1598.059
-18.721	27.758	1931.326	1597.284
-17.706	27.718	1930.411	1596.113
-16.692	27.641	1928.073	1593.448
-15.677	27.671	1926.911	1592.682
-14.663	27.688	1925.747	1591.804
-13.648	27.601	1924.251	1589.746
-12.633	27.638	1923.224	1589.157
-11.619	27.689	1921.896	1588.443
-10.604	27.593	1920.556	1586.436
-9.590	27.548	1919.354	1584.984
-8.575	27.604	1917.937	1584.245
-7.560	27.638	1916.546	1583.327
-6.546	27.644	1915.036	1582.064
-5.531	27.637	1913.848	1580.962
-4.517	27.606	1912.781	1579.746
-3.502	27.692	1911.549	1579.418
-2.487	27.593	1910.533	1577.655
-1.473	27.665	1909.354	1577.244
-0.458	27.696	1904.828	1573.709
0.556	25.400	1885.167	1545.361
1.571	21.175	1866.481	1493.839
2.586	17.299	1889.102	1478.172
3.600	16.374	1923.777	1496.978
4.615	16.183	1918.382	1490.963
5.629	14.696	1826.491	1406.897
6.644	11.601	1722.013	1301.682
7.659	9.733	1691.499	1263.879
8.673	9.565	1688.698	1260.356
9.688	9.463	1687.856	1258.816
10.702	9.551	1685.467	1257.610
11.717	9.452	1681.912	1254.075
12.731	9.637	1680.544	1254.384
13.746	11.918	1685.581	1275.824
14.761	15.472	1693.417	1309.410
15.775	17.408	1694.828	1325.482
16.790	17.049	1693.282	1321.363
17.804	16.011	1689.735	1310.411
18.819	15.018	1686.416	1300.008
19.834	14.336	1684.220	1292.908
20.848	14.042	1682.053	1288.846
21.863	13.810	1680.891	1286.049
22.877	13.571	1678.932	1282.582
23.892	13.354	1677.928	1280.027
24.907	13.247	1676.630	1278.095
25.921	13.187	1675.583	1276.721
26.936	13.105	1674.898	1275.452
27.950	13.224	1674.307	1275.806
28.965	13.269	1673.489	1275.422
29.980	13.304	1672.327	1274.687
30.994	13.346	1671.320	1274.131
32.009	13.441	1669.958	1273.711
33.023	13.440	1669.821	1273.491
34.038	13.509	1668.205	1272.675
35.053	13.509	1667.207	1271.799
36.067	13.353	1666.254	1269.765
37.082	13.340	1665.145	1268.702
38.096	13.353	1663.944	1267.775
39.111	13.304	1663.599	1267.027
40.126	13.414	1662.389	1266.840
41.140	13.479	1661.018	1266.175
42.155	13.328	1659.752	1263.949
43.169	13.242	1658.272	1262.053
44.184	13.174	1657.254	1260.646
45.199	13.109	1656.173	1259.218
46.213	13.188	1654.563	1258.478
47.228	13.189	1654.012	1257.960
48.242	13.232	1652.269	1256.845
49.257	13.232	1651.220	1255.941
50.271	13.237	1649.734	1254.736
51.286	13.197	1649.190	1253.907
52.301	13.261	1647.671	1253.126
53.315	13.361	1645.818	1252.361
54.330	13.232	1644.602	1250.353
55.344	13.282	1642.678	1249.153
56.359	13.241	1641.209	1247.617
57.374	13.228	1640.803	1247.104
58.388	13.185	1639.257	1245.494
59.403	13.264	1637.704	1244.798
60.417	13.151	1636.488	1242.913
61.432	13.145	1635.540	1242.037
62.447	13.053	1634.661	1240.569
63.461	13.095	1633.292	1239.738
64.476	13.080	1632.767	1239.116
65.490	12.999	1630.850	1236.942
66.505	13.065	1630.057	1236.724
67.520	13.071	1628.887	1235.774
68.534	13.047	1628.217	1234.974
69.549	13.009	1627.466	1234.018
70.563	13.028	1625.820	1232.797
71.578	13.082	1624.513	1232.104
72.593	13.114	1623.134	1231.184
73.607	12.969	1622.663	1229.642
74.622	12.975	1621.131	1228.415
75.636	12.984	1620.309	1227.748
76.651	12.976	1619.667	1227.090
77.666	12.978	1618.729	1226.289
78.680	13.003	1617.607	1225.518
79.695	13.038	1616.836	1225.087
80.709	13.054	1615.848	1224.345
81.724	13.039	1615.193	1223.630
82.739	13.083	1614.426	1223.264
83.753	13.180	1613.666	1223.298
84.768	13.226	1612.443	1222.609
85.782	13.289	1611.786	1222.464
86.797	13.347	1610.826	1222.061
87.812	13.363	1609.973	1221.423
88.826	13.313	1608.344	1219.707
89.841	13.209	1607.778	1218.404
90.855	13.254	1606.758	1217.851
91.870	13.288	1605.361	1216.936
92.884	13.437	1603.926	1216.840
93.899	13.273	1604.150	1215.696
94.914	13.367	1601.926	1214.595
95.928	13.390	1600.609	1213.654
96.943	13.461	1599.358	1213.117
97.957	13.420	1598.205	1211.840
98.972	13.404	1596.547	1210.356
99.987	13.423	1594.773	1209.043
101.001	13.391	1592.962	1207.327
102.016	13.351	1591.848	1206.089
103.030	13.297	1590.837	1204.818
104.045	13.311	1589.594	1203.876
105.060	13.356	1587.534	1202.532
106.074	13.283	1586.844	1201.374
107.089	13.291	1584.742	1199.732
108.103	13.099	1583.563	1197.346
109.118	13.139	1582.014	1196.355
110.133	13.171	1580.553	1195.377
111.147	13.091	1578.922	1193.462
112.162	13.116	1577.955	1192.808
113.176	13.092	1576.681	1191.563
114.191	13.156	1574.906	1190.579
115.206	13.225	1573.416	1189.841
116.220	13.166	1572.605	1188.699
117.235	13.126	1571.313	1187.331
118.249	13.237	1570.001	1187.033
119.264	13.187	1568.557	1185.474
120.279	13.162	1567.229	1184.185
121.293	13.073	1565.862	1182.412
122.308	13.253	1563.882	1182.097
123.322	13.151	1562.189	1179.989
124.337	13.041	1561.635	1178.680
125.352	13.110	1559.543	1177.487
126.366	13.122	1558.565	1176.727
127.381	13.054	1557.954	1175.684
128.395	13.122	1556.502	1174.967
129.410	13.142	1555.341	1174.130
130.424	13.074	1553.991	1172.524
131.439	13.137	1552.243	1171.542
132.454	13.194	1550.884	1170.818
133.468	13.113	1549.964	1169.447
134.483	13.213	1548.169	1168.697
135.497	13.269	1546.883	1168.022
136.512	13.151	1546.072	1166.467
137.527	13.307	1544.337	1166.160
138.541	13.306	1542.993	1165.031
139.556	13.264	1541.922	1163.827
140.570	13.277	1540.386	1162.657
141.585	13.320	1538.968	1161.786
142.600	13.289	1538.290	1160.951
143.614	13.489	1536.322	1160.766
144.629	13.486	1535.306	1159.873
145.643	13.443	1534.132	1158.585
146.658	13.515	1532.434	1157.704
147.673	13.504	1531.151	1156.553
148.687	13.482	1529.384	1154.962
149.702	13.456	1528.142	1153.744
150.716	13.316	1526.659	1151.544
151.731	13.391	1524.893	1150.630
152.746	13.378	1524.286	1149.980
153.760	13.366	1522.498	1148.452
154.775	13.424	1521.322	1147.862
155.789	13.468	1520.048	1147.102
156.804	13.546	1518.657	1146.494
157.819	13.541	1517.338	1145.360
158.833	13.442	1516.586	1144.005
159.848	13.491	1515.662	1143.551
160.862	13.620	1514.188	1143.223
161.877	13.639	1512.989	1142.352
162.892	13.546	1512.083	1140.923
163.906	13.573	1510.483	1139.799
164.921	13.484	1509.240	1138.147
165.935	13.472	1508.588	1137.475
166.950	13.487	1507.711	1136.817
167.964	13.505	1506.493	1135.925
168.979	13.515	1505.349	1135.030
169.994	13.519	1504.222	1134.101
171.008	13.528	1503.218	1133.309
172.023	13.536	1502.322	1132.589
173.037	13.579	1501.118	1131.873
174.052	13.621	1500.389	1131.513
175.067	13.738	1498.732	1130.958
176.081	13.686	1497.686	1129.712
177.096	13.507	1496.407	1127.432
178.110	13.518	1494.821	1126.209
179.125	13.572	1493.624	1125.578
180.140	13.555	1493.123	1124.982
181.154	13.564	1491.909	1124.030
182.169	13.620	1490.093	1122.944
183.183	13.772	1489.061	1123.093
184.198	13.759	1488.446	1122.444
185.213	13.804	1487.306	1121.793
186.227	13.964	1486.384	1122.076
187.242	13.858	1485.472	1120.572
188.256	13.925	1484.091	1119.884
189.271	13.845	1483.463	1118.769
190.286	13.841	1482.835	1118.170
191.300	13.854	1480.753	1116.591
192.315	13.783	1479.057	1114.734
193.329	13.615	1478.163	1112.834
194.344	13.669	1476.970	1112.200
195.359	13.667	1476.306	1111.590
196.373	13.699	1475.089	1110.787
197.388	13.820	1473.883	1110.591
198.402	13.810	1473.201	1109.913
199.417	13.792	1472.536	1109.195
200.432	13.916	1471.384	1109.056
201.446	14.074	1470.070	1109.019
202.461	14.076	1469.478	1108.489
203.475	14.021	1468.177	1107.046
204.490	14.172	1467.164	1107.190
205.504	14.090	1465.700	1105.439
206.519	14.133	1464.459	1104.693
207.534	13.954	1463.858	1102.953
208.548	14.055	1462.556	1102.543
209.563	14.040	1461.185	1101.315
210.577	13.884	1460.525	1099.682
211.592	14.011	1459.479	1099.639
212.607	14.032	1458.836	1099.199
213.621	14.101	1458.436	1099.256
214.636	14.201	1457.417	1099.050
215.650	14.137	1456.344	1097.722
216.665	14.110	1455.720	1096.978
217.680	14.162	1454.450	1096.265
218.694	14.284	1453.728	1096.428
219.709	14.274	1453.041	1095.743
220.723	14.309	1451.892	1095.010
221.738	14.197	1451.032	1093.533
222.753	14.288	1449.882	1093.165
223.767	14.159	1449.679	1092.068
224.782	14.214	1447.961	1091.037
225.796	14.323	1447.278	1091.137
226.811	14.306	1446.262	1090.167
227.826	14.341	1445.307	1089.582
228.840	14.436	1444.681	1089.634
229.855	14.360	1443.472	1088.129
230.869	14.339	1442.523	1087.177
231.884	14.355	1441.447	1086.376
232.899	14.345	1440.377	1085.406
233.913	14.307	1438.991	1084.023
234.928	14.291	1437.945	1083.034
235.942	14.299	1437.027	1082.296
236.957	14.302	1435.382	1080.980
237.972	14.204	1434.545	1079.621
238.986	14.244	1433.475	1078.980
240.001	14.283	1432.576	1078.456
241.015	14.327	1431.525	1077.860
242.030	14.309	1430.338	1076.750
243.045	14.438	1429.431	1076.804
244.059	14.393	1428.727	1075.893
245.074	14.523	1427.167	1075.461
246.088	14.477	1426.890	1074.858
247.103	14.446	1426.342	1074.151
248.117	14.585	1425.199	1074.087
249.132	14.583	1424.035	1073.107
250.147	14.642	1423.557	1073.031
251.161	14.716	1423.022	1073.009
252.176	14.805	1422.591	1073.156
253.190	14.877	1421.592	1072.770
254.205	14.820	1420.811	1071.725
255.220	14.950	1419.877	1071.755
256.234	14.933	1419.341	1071.150
257.249	14.900	1418.649	1070.319
258.263	14.952	1417.543	1069.723
259.278	14.931	1416.465	1068.681
260.293	14.926	1415.784	1068.042
261.307	14.871	1414.981	1066.988
262.322	14.970	1414.197	1066.937
263.336	14.969	1413.453	1066.273
264.351	15.111	1412.114	1066.069
265.366	15.050	1411.437	1065.078
266.380	15.146	1410.353	1064.775
267.395	15.040	1409.937	1063.692
268.409	15.107	1408.574	1062.995
269.424	15.139	1407.340	1062.175
270.439	15.013	1406.905	1060.956
271.453	15.016	1405.802	1060.046
272.468	15.087	1404.869	1059.699
273.482	15.051	1403.884	1058.632
274.497	15.036	1402.983	1057.766
275.512	15.036	1402.453	1057.273
276.526	14.997	1401.275	1056.045
277.541	15.098	1400.108	1055.709
278.555	15.055	1399.493	1054.882
279.570	15.129	1398.514	1054.515
280.585	15.084	1397.737	1053.553
281.599	15.192	1396.949	1053.546
282.614	15.251	1395.924	1053.050
283.628	15.190	1394.825	1051.748
284.643	15.168	1393.852	1050.782
285.657	15.153	1392.532	1049.599
286.672	15.281	1391.549	1049.565
287.687	15.236	1391.315	1049.014
288.701	15.301	1389.452	1047.922
289.716	15.264	1389.051	1047.298
290.730	15.349	1388.160	1047.065
291.745	15.316	1386.994	1045.887
292.760	15.315	1386.180	1045.171
293.774	15.362	1385.169	1044.613
294.789	15.322	1384.279	1043.599
295.803	15.389	1383.589	1043.401
296.818	15.412	1382.850	1042.895
297.833	15.409	1381.921	1042.087
298.847	15.401	1380.670	1041.000
299.862	15.374	1379.613	1039.946
300.876	15.413	1378.696	1039.402
301.891	15.430	1377.676	1038.646
302.906	15.532	1376.922	1038.613
303.920	15.572	1376.097	1038.149
304.935	15.481	1375.664	1037.169
305.949	15.597	1375.035	1037.320
306.964	15.670	1374.209	1037.055
307.979	15.642	1373.448	1036.214
308.993	15.702	1372.259	1035.597
310.008	15.659	1371.136	1034.390
311.022	15.661	1370.185	1033.595
312.037	15.671	1369.255	1032.863
313.052	15.688	1368.334	1032.182
314.066	15.652	1367.687	1031.382
315.081	15.699	1366.256	1030.499
316.095	15.561	1365.561	1029.039
317.110	15.496	1364.752	1027.940
318.125	15.648	1363.328	1027.707
319.139	15.659	1362.344	1026.939
320.154	15.584	1361.387	1025.669
321.168	15.558	1360.666	1024.880
322.183	15.546	1359.374	1023.741
323.197	15.672	1358.233	1023.557
324.212	15.796	1357.683	1023.807
325.227	15.707	1357.162	1022.781
326.241	15.798	1355.778	1022.206
327.256	15.766	1355.349	1021.593
328.270	15.677	1354.716	1020.487
329.285	15.713	1353.497	1019.698
330.300	15.712	1352.781	1019.059
331.314	15.684	1351.607	1017.918
332.329	15.784	1350.435	1017.552
333.343	15.770	1349.727	1016.840
334.358	15.847	1349.011	1016.678
335.373	15.791	1348.281	1015.700
336.387	15.831	1347.250	1015.077
337.402	15.868	1346.687	1014.785
338.416	15.883	1346.441	1014.595
339.431	15.932	1345.753	1014.284
340.446	15.935	1344.766	1013.472
341.460	15.967	1343.518	1012.629
342.475	16.037	1342.543	1012.229
343.489	16.079	1342.093	1012.048
344.504	16.189	1340.775	1011.627
345.519	16.075	1340.231	1010.444
346.533	16.134	1339.435	1010.108
347.548	16.260	1338.350	1009.951
348.562	16.234	1337.673	1009.201
349.577	16.291	1336.733	1008.742
350.592	16.250	1335.946	1007.813
351.606	16.112	1335.324	1006.431
352.621	16.087	1334.279	1005.402
353.635	16.116	1332.795	1004.371
354.650	16.050	1332.322	1003.534
355.665	16.130	1331.060	1002.967
356.679	16.166	1329.705	1002.072
357.694	16.140	1329.015	1001.307
358.708	16.203	1327.816	1000.688
359.723	16.227	1326.661	999.874
360.738	16.201	1326.037	999.161
361.752	16.318	1324.776	998.815
362.767	16.295	1323.768	997.833
363.781	16.250	1323.125	996.991
364.796	16.290	1322.181	996.429
365.810	16.317	1321.470	995.965
366.825	16.391	1321.256	996.149
367.840	16.474	1320.113	995.691
368.854	16.486	1319.363	995.104
369.869	16.647	1318.583	995.378
370.883	16.519	1318.486	994.462
371.898	16.483	1317.752	993.608
372.913	16.482	1316.631	992.671
373.927	16.465	1315.768	991.832
374.942	16.505	1314.978	991.386
375.956	16.612	1314.285	991.399
376.971	16.652	1313.324	990.820
377.986	16.553	1312.970	989.888
379.000	16.613	1311.672	989.175
380.015	16.759	1310.351	988.943
381.029	16.662	1310.219	988.188
382.044	16.767	1309.607	988.249
383.059	16.688	1308.937	987.201
384.073	16.821	1308.016	987.188
385.088	16.749	1307.801	986.523
386.102	16.830	1306.693	986.070
387.117	16.880	1305.820	985.615
388.132	16.803	1305.408	984.768
389.146	16.703	1304.666	983.540
390.161	16.692	1303.485	982.497
391.175	16.782	1302.307	982.045
392.190	16.732	1301.912	981.374
393.205	16.728	1301.046	980.612
394.219	16.813	1299.975	980.207
395.234	16.893	1298.648	979.582
396.248	16.947	1297.388	978.854
397.263	16.866	1296.330	977.507
398.278	16.841	1294.947	976.232
399.292	16.777	1293.854	974.954
400.307	16.825	1292.911	974.432
401.321	16.739	1291.949	973.128
402.336	16.703	1291.011	972.128
403.350	16.726	1290.312	971.649
404.365	16.795	1289.208	971.124
405.380	16.911	1288.140	970.900
406.394	16.868	1287.591	970.153
407.409	16.900	1286.372	969.331
408.423	16.954	1286.250	969.466
409.438	17.045	1285.470	969.308
410.453	17.081	1284.417	968.636
411.467	17.116	1283.653	968.171
412.482	17.138	1283.387	968.011
413.496	17.232	1283.002	968.172
414.511	17.121	1282.132	966.794
415.526	17.220	1281.346	966.680
416.540	17.324	1280.575	966.606
417.555	17.215	1279.760	965.286
418.569	17.292	1279.274	965.274
419.584	17.305	1278.632	964.773
420.599	17.291	1277.903	964.063
421.613	97.178	1355.595	1478.294
422.628	94.949	1366.854	1478.392
