DTS Sentinel unit serial number:	SN413079Multiplexer serial number:	ORYXHardware model number:	OX4-SRSoftware version number:	ORYX F/W v4.00 Oryx Data Collector v3.7.2.0data status	okinstallation	princeton_trtdifferential loss correction	single-endedforward channel	channel 4reverse channel	N/Adate	2019/09/14time	20:13:35forward acquisition time	60.00reverse acquisition time	0.00gamma	496.2192k internal	0.2305k external	0.2305temperature offset calibration	1.0094default loss term (dB/km)	0.3790temperature slope calibration	1.0000multiplexer offset coefficient	1.0000multiplexer slope coefficient	1.0000fibre end	0.00T internal ref (°C)	33.81T ext. ref 1 (°C)	4.86T ext. ref 2 (°C)	28.26length (m)	temperature (°C)	Stokes	anti-Stokes-747.200	-87.032	0.249	-0.077
-746.185	360.563	0.084	0.172
-745.171	-103.048	-0.046	0.011
-744.156	-200.000	-0.022	0.315
-743.142	492.051	0.050	0.117
-742.127	399.796	-0.126	0.268
-741.112	-42.836	-0.240	0.124
-740.098	-138.836	-0.436	0.048
-739.083	-40.190	0.245	0.130
-738.069	234.994	0.264	0.444
-737.054	54.993	-0.111	0.109
-736.039	79.807	-0.193	-0.211
-735.025	91.758	0.074	0.085
-734.010	417.056	-0.159	-0.346
-732.996	-76.016	0.045	0.016
-731.981	101.272	-0.141	0.167
-730.966	-10.473	0.240	0.162
-729.952	403.487	0.118	-0.254
-728.937	800.000	-0.102	-0.298
-727.923	800.000	-0.133	-0.390
-726.908	82.157	-0.326	-0.360
-725.894	-118.722	0.350	-0.063
-724.879	150.484	-0.207	-0.286
-723.864	-135.673	-0.214	0.026
-722.850	-200.000	0.044	-0.305
-721.835	-98.848	0.151	-0.039
-720.821	202.892	0.102	-0.161
-719.806	308.056	0.017	0.033
-718.791	336.075	-0.209	-0.412
-717.777	800.000	-0.088	-0.289
-716.762	-68.763	-0.120	-0.047
-715.748	-200.000	-0.456	-0.000
-714.733	800.000	0.126	0.365
-713.718	-9.061	0.262	0.178
-712.704	207.474	-0.089	-0.141
-711.689	-200.000	0.006	-0.095
-710.675	60.438	-0.098	0.098
-709.660	-131.482	-0.157	0.021
-708.645	179.565	-0.025	-0.038
-707.631	800.000	-0.049	-0.216
-706.616	30.870	-0.140	-0.122
-705.602	-75.855	0.277	-0.100
-704.587	-200.000	-0.040	-0.299
-703.572	16.783	0.265	-0.213
-702.558	-200.000	-0.036	0.455
-701.543	-34.170	0.089	-0.050
-700.529	-200.000	0.048	-0.291
-699.514	-188.364	0.068	-0.001
-698.499	-142.999	0.114	0.011
-697.485	-129.914	-0.278	-0.039
-696.470	-140.172	0.295	0.031
-695.456	-118.860	0.321	-0.057
-694.441	445.271	-0.145	-0.324
-693.426	13.850	0.275	0.217
-692.412	-160.874	-0.499	0.027
-691.397	800.000	0.080	0.320
-690.383	-200.000	-0.076	-0.375
-689.368	129.699	-0.112	0.145
-688.354	38.185	-0.167	0.151
-687.339	253.580	0.073	0.126
-686.324	-132.577	-0.330	0.043
-685.310	-36.990	-0.091	-0.050
-684.295	11.408	0.037	-0.029
-683.281	1.163	-0.134	0.097
-682.266	153.191	0.117	0.163
-681.251	-80.528	0.184	-0.062
-680.237	356.314	-0.140	-0.284
-679.222	9.368	0.169	0.129
-678.208	392.741	-0.097	0.205
-677.193	-200.000	-0.009	0.231
-676.178	800.000	-0.061	-0.240
-675.164	-200.000	0.061	-0.354
-674.149	-51.322	0.167	0.079
-673.135	586.514	-0.122	-0.304
-672.120	1.938	-0.265	0.194
-671.105	757.692	-0.069	-0.190
-670.091	654.401	-0.062	-0.162
-669.076	102.144	-0.061	-0.073
-668.062	-200.000	0.003	0.280
-667.047	-177.352	0.149	0.004
-666.032	-88.117	-0.113	0.034
-665.018	303.141	0.048	-0.091
-664.003	481.281	-0.095	-0.219
-662.989	739.160	0.127	0.346
-661.974	-200.000	-0.057	-0.366
-660.959	128.975	-0.199	0.258
-659.945	-72.392	0.279	0.105
-658.930	527.049	0.035	0.084
-657.916	58.431	-0.429	-0.427
-656.901	296.108	0.192	-0.357
-655.886	-17.900	-0.177	-0.113
-654.872	40.666	-0.174	-0.159
-653.857	800.000	-0.059	-0.206
-652.843	-200.000	0.002	-0.094
-651.828	-200.000	0.022	0.299
-650.814	205.845	-0.091	-0.143
-649.799	22.848	-0.064	0.053
-648.784	-26.332	0.033	-0.020
-647.770	-45.258	0.283	0.142
-646.755	-200.000	0.008	0.107
-645.741	-177.136	-0.307	0.008
-644.726	369.012	-0.063	-0.130
-643.711	-45.051	0.286	-0.144
-642.697	659.281	-0.026	-0.067
-641.682	-200.000	0.032	0.150
-640.668	-200.000	-0.006	-0.150
-639.653	88.651	0.058	0.065
-638.638	-72.283	0.070	0.026
-637.624	-200.000	0.025	-0.145
-636.609	-200.000	-0.005	-0.176
-635.595	80.698	-0.087	0.095
-634.580	-127.030	-0.332	0.049
-633.565	139.631	-0.089	-0.119
-632.551	-52.668	0.068	0.032
-631.536	-200.000	0.042	-0.187
-630.522	-84.417	0.187	0.060
-629.507	-123.225	-0.276	0.045
-628.492	84.405	-0.151	0.168
-627.478	57.264	0.222	0.220
-626.463	-143.184	-0.146	0.014
-625.449	-200.000	-0.033	-0.283
-624.434	118.108	-0.264	-0.329
-623.419	-9.043	0.447	-0.303
-622.405	-46.452	0.165	-0.082
-621.390	-200.000	-0.038	0.181
-620.376	800.000	0.161	-0.548
-619.361	435.315	0.076	-0.167
-618.346	-200.000	0.012	0.095
-617.332	-136.685	0.119	-0.014
-616.317	780.819	0.077	-0.214
-615.303	-140.687	0.034	-0.004
-614.288	-39.276	0.267	-0.142
-613.273	-14.513	0.136	-0.089
-612.259	-118.766	-0.345	-0.062
-611.244	-71.753	-0.120	-0.045
-610.230	191.576	0.139	0.212
-609.215	105.071	0.136	0.162
-608.201	289.962	-0.027	0.050
-607.186	-200.000	-0.016	-0.080
-606.171	74.028	-0.246	0.262
-605.157	-200.000	0.031	-0.152
-604.142	800.000	0.107	-0.313
-603.128	-91.922	0.244	0.070
-602.113	84.547	-0.005	0.006
-601.098	301.240	0.059	0.110
-600.084	-16.264	-0.318	-0.205
-599.069	71.499	0.054	0.056
-598.055	-200.000	0.027	0.228
-597.040	673.268	0.044	0.117
-596.025	800.000	0.078	-0.289
-595.011	-15.374	-0.080	-0.052
-593.996	-70.567	0.126	0.048
-592.982	800.000	-0.098	0.353
-591.967	161.305	-0.284	0.402
-590.952	58.041	-0.205	-0.203
-589.938	-17.855	0.097	-0.062
-588.923	384.030	0.156	-0.325
-587.909	-21.373	-0.295	-0.182
-586.894	-88.892	0.213	-0.064
-585.879	-42.643	0.068	0.035
-584.865	-200.000	-0.022	0.125
-583.850	69.515	0.065	-0.068
-582.836	800.000	0.070	0.201
-581.821	86.027	0.164	-0.183
-580.806	-200.000	-0.022	0.170
-579.792	74.271	-0.087	0.093
-578.777	31.504	0.190	-0.165
-577.763	438.181	-0.051	0.112
-576.748	-125.884	-0.259	-0.040
-575.733	-123.587	0.072	0.012
-574.719	13.876	0.049	-0.038
-573.704	266.403	-0.102	-0.179
-572.690	-122.072	-0.283	-0.047
-571.675	640.596	0.030	-0.077
-570.661	-110.898	0.157	0.033
-569.646	-61.296	0.164	-0.070
-568.631	-103.121	-0.321	0.077
-567.617	-79.681	0.490	0.167
-566.602	-58.683	-0.078	0.034
-565.588	131.790	-0.106	-0.138
-564.573	800.000	-0.079	-0.317
-563.558	94.817	0.367	0.422
-562.544	-200.000	-0.073	0.376
-561.529	107.801	0.086	0.103
-560.515	71.897	-0.083	-0.087
-559.500	-137.612	-0.399	0.045
-558.485	800.000	0.118	0.371
-557.471	-28.971	-0.131	-0.076
-556.456	-183.185	-0.161	0.003
-555.442	9.131	0.249	0.190
-554.427	47.295	0.121	-0.114
-553.412	-200.000	-0.002	-0.153
-552.398	7.990	0.258	0.196
-551.383	64.558	-0.134	0.136
-550.369	164.109	-0.090	-0.128
-549.354	-129.395	-0.313	-0.044
-548.339	-200.000	-0.007	-0.109
-547.325	37.888	-0.124	0.111
-546.310	-20.214	-0.177	0.110
-545.296	17.971	0.134	-0.108
-544.281	298.265	0.050	-0.093
-543.266	-30.090	-0.193	-0.111
-542.252	-200.000	-0.033	-0.342
-541.237	-109.580	-0.397	0.085
-540.223	-131.218	0.150	0.020
-539.208	26.874	-0.074	-0.063
-538.193	-93.542	0.286	-0.080
-537.179	-7.362	0.267	-0.183
-536.164	22.101	-0.113	0.093
-535.150	476.286	-0.029	-0.066
-534.135	319.512	-0.163	-0.313
-533.121	-158.375	0.301	0.018
-532.106	800.000	-0.108	-0.373
-531.091	498.954	0.052	-0.120
-530.077	-200.000	-0.035	0.265
-529.062	800.000	-0.044	-0.156
-528.048	-175.803	-0.046	0.001
-527.033	-107.619	0.337	-0.074
-526.018	800.000	0.031	-0.132
-525.004	33.727	0.138	-0.121
-523.989	173.899	-0.067	0.098
-522.975	78.477	0.111	0.120
-521.960	-90.490	-0.023	0.007
-520.945	-200.000	-0.016	0.469
-519.931	-67.895	-0.245	0.096
-518.916	42.337	0.117	0.108
-517.902	-200.000	-0.023	0.137
-516.887	-161.791	0.107	-0.005
-515.872	64.220	-0.291	-0.296
-514.858	-0.146	-0.242	0.173
-513.843	-35.024	0.089	-0.049
-512.829	434.964	0.080	0.175
-511.814	372.771	-0.128	0.262
-510.799	85.508	-0.181	0.200
-509.785	-111.883	-0.068	0.014
-508.770	-119.461	0.133	0.023
-507.756	-66.459	0.076	-0.030
-506.741	-155.708	0.076	0.005
-505.726	6.586	-0.165	0.123
-504.712	90.921	-0.200	-0.226
-503.697	235.930	-0.059	-0.099
-502.683	-200.000	0.015	0.128
-501.668	800.000	-0.049	0.142
-500.653	-200.000	0.013	0.384
-499.639	-200.000	-0.003	0.078
-498.624	-134.335	0.133	-0.016
-497.610	-168.804	0.120	-0.005
-496.595	-200.000	-0.034	0.212
-495.581	49.176	0.218	-0.207
-494.566	160.487	-0.223	-0.314
-493.551	28.010	0.263	-0.223
-492.537	-149.145	0.232	0.019
-491.522	800.000	0.113	0.325
-490.508	131.387	0.102	-0.132
-489.493	-99.191	0.114	-0.029
-488.478	92.826	0.276	0.314
-487.464	-145.976	-0.372	-0.033
-486.449	392.327	-0.050	0.106
-485.435	-20.435	0.103	-0.064
-484.420	-133.033	-0.195	-0.025
-483.405	-39.580	0.193	0.102
-482.391	-151.472	0.359	-0.027
-481.376	-160.816	-0.436	-0.023
-480.362	-200.000	0.003	0.051
-479.347	-12.411	-0.258	0.170
-478.332	-200.000	-0.016	-0.156
-477.318	-52.978	-0.192	0.089
-476.303	110.547	0.054	0.065
-475.289	22.577	-0.165	0.136
-474.274	196.836	0.051	0.078
-473.259	-200.000	-0.046	-0.582
-472.245	11.927	0.329	-0.254
-471.230	-90.953	-0.083	-0.024
-470.216	-38.897	0.147	0.078
-469.201	-200.000	0.005	0.144
-468.186	-119.546	-0.191	0.033
-467.172	-200.000	-0.009	-0.111
-466.157	-74.576	0.059	-0.021
-465.143	-160.115	0.067	-0.004
-464.128	-34.567	0.351	0.194
-463.113	-55.679	-0.381	0.172
-462.099	-50.825	-0.165	0.078
-461.084	-143.951	-0.444	-0.042
-460.070	-50.764	-0.041	-0.020
-459.055	-175.615	0.058	-0.002
-458.040	-71.727	-0.368	-0.138
-457.026	-91.558	0.229	-0.066
-456.011	471.876	0.059	0.134
-454.997	800.000	0.057	0.206
-453.982	205.337	-0.062	0.097
-452.968	-107.781	0.157	0.034
-451.953	-200.000	-0.022	-0.180
-450.938	-160.403	-0.128	-0.007
-449.924	125.377	0.091	0.115
-448.909	-60.226	-0.143	-0.062
-447.895	-39.975	0.272	0.143
-446.880	-200.000	0.022	0.126
-445.865	-121.433	-0.059	-0.010
-444.851	-200.000	-0.007	-0.122
-443.836	800.000	-0.077	-0.232
-442.822	-200.000	-0.007	-0.107
-441.807	-94.767	-0.216	0.059
-440.792	-140.395	0.200	0.021
-439.778	800.000	0.141	0.396
-438.763	508.757	0.072	-0.169
-437.749	176.538	0.275	-0.402
-436.734	800.000	-0.089	-0.361
-435.719	800.000	0.100	-0.311
-434.705	-127.577	-0.236	-0.034
-433.690	-200.000	-0.019	0.087
-432.676	32.218	0.071	-0.062
-431.661	237.519	-0.157	-0.263
-430.646	631.561	0.145	-0.369
-429.632	85.860	-0.181	-0.200
-428.617	-25.283	-0.048	-0.028
-427.603	34.629	0.137	0.121
-426.588	-200.000	-0.014	-0.303
-425.573	-119.048	0.271	0.048
-424.559	45.817	0.149	0.138
-423.544	24.309	0.086	0.072
-422.530	518.461	-0.125	0.294
-421.515	-138.070	0.199	0.022
-420.500	-84.593	-0.139	-0.044
-419.486	800.000	-0.048	-0.199
-418.471	59.897	-0.269	-0.267
-417.457	341.297	-0.073	-0.144
-416.442	-200.000	0.042	0.225
-415.428	-200.000	0.011	0.176
-414.413	-200.000	-0.098	0.434
-413.398	141.285	-0.263	0.350
-412.384	-68.866	-0.042	-0.016
-411.369	-135.625	-0.419	-0.050
-410.355	-115.291	0.315	0.060
-409.340	-14.721	0.173	0.112
-408.325	-71.627	-0.262	-0.098
-407.311	-97.161	-0.161	0.042
-406.296	-200.000	0.036	-0.272
-405.282	16.105	-0.277	-0.220
-404.267	800.000	0.054	-0.214
-403.252	-78.660	0.060	-0.021
-402.238	-200.000	0.020	0.173
-401.223	114.989	0.272	-0.333
-400.209	283.200	0.075	0.136
-399.194	16.588	0.315	0.250
-398.179	154.065	-0.215	0.296
-397.165	346.668	0.076	-0.150
-396.150	-200.000	-0.012	0.193
-395.136	-138.002	-0.263	0.029
-394.121	-79.097	0.179	-0.061
-393.106	-200.000	-0.015	0.205
-392.092	16.358	0.230	0.182
-391.077	800.000	-0.043	0.131
-390.063	800.000	0.076	0.221
-389.048	-200.000	0.018	-0.089
-388.033	-6.707	-0.234	-0.160
-387.019	314.860	0.070	0.132
-386.004	260.842	-0.058	-0.101
-384.990	29.396	0.292	0.249
-383.975	-86.007	-0.420	0.130
-382.960	-154.330	0.349	-0.024
-381.946	-168.771	0.436	0.017
-380.931	63.625	-0.068	-0.068
-379.917	15.397	0.285	0.225
-378.902	690.110	0.094	0.246
-377.888	-167.953	0.205	0.008
-376.873	-189.337	-0.262	-0.003
-375.858	-200.000	0.041	-0.183
-374.844	-107.259	0.330	-0.073
-373.829	432.744	-0.096	-0.209
-372.815	-200.000	0.009	-0.134
-371.800	800.000	0.068	0.285
-370.785	-23.776	0.019	-0.012
-369.771	607.457	-0.081	0.202
-368.756	-58.194	-0.461	0.202
-367.742	-200.000	-0.001	-0.049
-366.727	788.000	-0.108	-0.297
-365.712	-200.000	0.025	0.239
-364.698	206.456	-0.025	-0.039
-363.683	-114.524	-0.266	-0.051
-362.669	496.987	-0.036	-0.084
-361.654	106.941	0.321	-0.383
-360.639	-200.000	0.032	-0.306
-359.625	-15.758	-0.275	0.176
-358.610	-32.924	-0.088	-0.049
-357.596	12.906	-0.167	-0.129
-356.581	-200.000	0.039	-0.274
-355.566	-102.202	-0.180	-0.043
-354.552	216.207	-0.248	-0.396
-353.537	-14.525	-0.168	0.108
-352.523	-6.729	-0.192	-0.131
-351.508	-137.820	-0.212	0.024
-350.493	56.275	-0.111	-0.108
-349.479	-122.404	0.215	0.035
-348.464	-200.000	-0.043	0.365
-347.450	-200.000	-0.052	0.258
-346.435	234.768	-0.127	0.210
-345.420	-127.090	-0.120	0.018
-344.406	-46.012	-0.158	-0.078
-343.391	-128.479	0.316	0.045
-342.377	10.343	-0.138	0.105
-341.362	-15.814	-0.238	-0.152
-340.348	-121.007	0.231	0.039
-339.333	-105.056	-0.225	-0.052
-338.318	-20.355	0.227	-0.140
-337.304	-27.003	-0.244	0.143
-336.289	175.925	-0.029	0.042
-335.275	-140.568	-0.097	0.010
-334.260	-128.756	-0.203	0.029
-333.245	600.378	0.034	0.084
-332.231	-200.000	-0.064	-0.293
-331.216	800.000	-0.024	0.069
-330.202	104.409	0.090	-0.106
-329.187	-58.689	-0.232	0.101
-328.172	-113.824	-0.177	0.035
-327.158	136.723	0.292	0.382
-326.143	-200.000	-0.016	0.161
-325.129	450.478	-0.120	-0.264
-324.114	1.637	-0.065	0.047
-323.099	80.225	0.124	-0.134
-322.085	125.101	0.153	0.193
-321.070	-120.882	0.141	-0.024
-320.056	415.784	-0.182	-0.388
-319.041	0.349	0.190	0.136
-318.026	41.917	0.090	0.081
-317.012	-34.740	0.204	0.111
-315.997	-200.000	-0.025	-0.114
-314.983	56.412	0.042	0.041
-313.968	-200.000	-0.048	0.222
-312.953	-153.888	0.229	-0.016
-311.939	88.707	-0.204	-0.227
-310.924	-167.567	-0.300	-0.012
-309.910	-200.000	0.018	0.090
-308.895	98.374	-0.051	-0.059
-307.880	-200.000	-0.032	0.188
-306.866	-19.534	-0.332	-0.206
-305.851	-30.846	0.377	-0.213
-304.837	-105.101	0.053	-0.012
-303.822	61.984	0.251	0.250
-302.807	-65.629	-0.107	0.043
-301.793	-168.076	0.236	0.009
-300.778	56.489	0.067	-0.065
-299.764	-43.651	-0.441	-0.223
-298.749	-106.890	0.104	-0.023
-297.735	-200.000	0.003	0.161
-296.720	-14.223	0.176	0.114
-295.705	-200.000	-0.003	0.183
-294.691	529.493	0.029	0.068
-293.676	-77.111	0.077	0.027
-292.662	-156.491	0.137	-0.009
-291.647	-106.387	0.168	-0.038
-290.632	8.678	-0.336	-0.253
-289.618	-99.161	-0.164	0.042
-288.603	-200.000	0.015	-0.358
-287.589	36.482	-0.148	0.130
-286.574	-5.566	0.124	-0.085
-285.559	175.065	-0.252	-0.365
-284.545	-18.993	0.215	-0.133
-283.530	-161.612	-0.426	0.022
-282.516	-37.605	-0.242	-0.129
-281.501	-62.678	0.115	0.048
-280.486	-34.779	-0.244	0.134
-279.472	-108.174	0.125	-0.027
-278.457	407.915	-0.085	0.180
-277.443	-68.148	0.471	-0.183
-276.428	138.062	-0.106	0.139
-275.413	55.426	-0.265	-0.256
-274.399	6.299	0.122	0.091
-273.384	-58.734	-0.438	0.190
-272.370	800.000	0.077	-0.227
-271.355	-31.556	0.120	0.068
-270.340	-132.320	-0.163	0.021
-269.326	-57.900	-0.128	0.056
-268.311	800.000	0.026	0.099
-267.297	695.013	-0.059	0.155
-266.282	-53.897	0.365	-0.166
-265.267	-200.000	0.013	0.090
-264.253	606.161	0.156	0.390
-263.238	-61.949	-0.130	-0.054
-262.224	-11.619	0.346	0.227
-261.209	-38.773	0.239	0.126
-260.195	-53.353	0.045	-0.021
-259.180	-66.269	-0.067	-0.027
-258.165	91.506	0.104	-0.117
-257.151	10.614	-0.095	0.072
-256.136	175.342	-0.084	0.122
-255.122	-32.663	-0.169	-0.094
-254.107	-58.725	0.230	-0.100
-253.092	-108.110	0.414	-0.090
-252.078	-9.609	-0.113	0.075
-251.063	30.601	-0.093	-0.079
-250.049	-200.000	-0.002	-0.019
-249.034	93.835	-0.059	-0.067
-248.019	-144.284	0.117	-0.011
-247.005	-93.232	0.131	0.036
-245.990	-29.458	-0.153	-0.087
-244.976	451.057	-0.078	-0.171
-243.961	98.019	0.086	-0.099
-242.946	-155.965	-0.061	-0.004
-241.932	-82.784	-0.149	0.048
-240.917	-110.513	-0.211	-0.044
-239.903	13.340	0.095	0.073
-238.888	103.861	-0.135	0.159
-237.873	-200.000	-0.007	0.117
-236.859	-200.000	-0.043	0.307
-235.844	-128.301	0.007	-0.001
-234.830	116.359	-0.071	0.087
-233.815	-50.983	-0.166	0.078
-232.800	98.138	0.147	-0.169
-231.786	32.048	0.156	0.135
-230.771	-200.000	-0.250	0.001
-229.757	215.304	0.053	-0.084
-228.742	800.000	-0.020	0.085
-227.727	243.888	0.063	0.105
-226.713	208.619	0.109	-0.170
-225.698	-124.827	0.331	0.051
-224.684	-132.635	-0.426	0.054
-223.669	-11.121	0.210	-0.138
-222.655	-83.360	0.169	-0.054
-221.640	162.037	0.295	0.412
-220.625	-30.681	0.311	-0.175
-219.611	119.204	0.168	0.208
-218.596	-200.000	-0.008	-0.126
-217.582	9.445	0.074	0.056
-216.567	-200.000	0.055	0.330
-215.552	253.377	0.116	0.198
-214.538	310.668	0.217	-0.406
-213.523	800.000	0.053	-0.208
-212.509	-200.000	0.370	0.001
-211.494	800.000	0.026	-0.113
-210.479	-23.002	0.221	-0.133
-209.465	14.619	0.177	0.138
-208.450	269.281	-0.057	0.099
-207.436	-93.344	-0.251	0.069
-206.421	7.240	-0.181	-0.135
-205.406	-34.239	0.142	-0.078
-204.392	788.150	0.086	0.235
-203.377	8.947	0.101	0.076
-202.363	-200.000	0.034	0.176
-201.348	243.631	0.035	0.058
-200.333	-34.271	0.288	0.158
-199.319	800.000	0.032	0.094
-198.304	-200.000	0.065	0.302
-197.290	-200.000	0.050	0.223
-196.275	79.041	-0.097	0.103
-195.260	92.371	0.037	0.041
-194.246	-200.000	0.037	0.189
-193.231	800.000	-0.062	0.175
-192.217	-200.000	-0.040	0.331
-191.202	510.320	0.040	-0.093
-190.187	357.224	0.025	-0.050
-189.173	-200.000	-0.034	-0.156
-188.158	-200.000	0.001	0.045
-187.144	-103.433	0.089	-0.021
-186.129	-90.980	0.264	-0.076
-185.114	800.000	-0.019	0.075
-184.100	-200.000	0.011	0.087
-183.085	459.664	-0.144	-0.319
-182.071	800.000	0.088	-0.323
-181.056	88.689	-0.100	-0.111
-180.042	-200.000	0.028	0.272
-179.027	-11.088	0.219	0.144
-178.012	-1.231	-0.220	-0.155
-176.998	580.302	-0.077	-0.187
-175.983	-200.000	-0.020	0.278
-174.969	-110.299	-0.257	-0.053
-173.954	-200.000	-0.008	-0.176
-172.939	160.835	-0.071	-0.099
-171.925	243.990	-0.127	-0.211
-170.910	465.753	-0.062	0.139
-169.896	-109.061	-0.325	-0.069
-168.881	-146.727	0.099	0.009
-167.866	-28.187	-0.107	0.062
-166.852	-200.000	-0.042	0.270
-165.837	112.443	-0.065	-0.078
-164.823	115.210	-0.253	-0.307
-163.808	-108.315	0.496	0.107
-162.793	114.804	0.250	-0.303
-161.779	-200.000	-0.001	0.166
-160.764	-0.167	-0.127	-0.090
-159.750	-41.645	-0.072	0.037
-158.735	-70.246	0.201	0.076
-157.720	-200.000	-0.008	0.095
-156.706	-200.000	0.037	-0.203
-155.691	14.822	-0.069	0.054
-154.677	214.101	-0.285	-0.448
-153.662	183.701	0.044	-0.064
-152.647	-110.569	0.198	0.041
-151.633	441.755	-0.029	-0.062
-150.618	-61.850	0.147	0.061
-149.604	-7.054	0.211	0.143
-148.589	3.071	-0.212	0.153
-147.574	-124.662	0.127	-0.020
-146.560	-38.305	-0.046	0.024
-145.545	800.000	0.132	-0.412
-144.531	82.551	0.220	0.238
-143.516	-200.000	-0.076	0.352
-142.502	-96.259	0.265	-0.070
-141.487	800.000	-0.046	-0.199
-140.472	-21.797	0.071	0.043
-139.458	381.042	-0.056	-0.113
-138.443	-58.841	0.241	0.104
-137.429	-200.000	-0.032	0.222
-136.414	8.054	-0.298	0.222
-135.399	-153.600	-0.207	-0.014
-134.385	-200.000	-0.006	-0.093
-133.370	116.212	0.188	-0.229
-132.356	63.796	0.061	0.061
-131.341	258.448	-0.095	0.162
-130.326	-200.000	-0.046	-0.276
-129.312	-200.000	0.052	0.260
-128.297	30.784	0.235	-0.200
-127.283	456.311	-0.056	-0.123
-126.268	697.246	0.023	-0.061
-125.253	-200.000	0.010	0.078
-124.239	-85.596	0.115	-0.036
-123.224	23.189	0.252	0.205
-122.210	-200.000	0.025	-0.264
-121.195	-136.482	0.162	0.019
-120.180	145.487	-0.057	-0.076
-119.166	-200.000	-0.009	0.043
-118.151	800.000	-0.084	-0.333
-117.137	-4.049	0.195	0.135
-116.122	82.317	-0.071	0.077
-115.107	-110.297	0.087	-0.018
-114.093	-150.921	-0.070	-0.005
-113.078	-123.290	0.458	-0.073
-112.064	314.890	-0.096	-0.180
-111.049	-200.000	-0.029	-0.333
-110.034	540.483	-0.053	0.125
-109.020	55.627	0.157	0.151
-108.005	-59.884	0.362	0.154
-106.991	-200.000	0.009	0.281
-105.976	800.000	-0.031	-0.113
-104.962	-200.000	-0.003	0.116
-103.947	90.016	-0.028	-0.031
-102.932	800.000	0.080	0.232
-101.918	596.066	0.072	-0.177
-100.903	-28.238	0.067	0.039
-99.889	-30.218	-0.517	-0.291
-98.874	-70.153	0.335	0.127
-97.859	-40.903	0.063	-0.032
-96.845	-200.000	0.026	-0.146
-95.830	284.703	-0.081	0.144
-94.816	-200.000	-0.058	-0.263
-93.801	293.017	0.149	0.271
-92.786	398.630	-0.096	0.200
-91.772	446.224	0.029	0.063
-90.757	176.460	0.024	0.034
-89.743	26.734	0.286	-0.238
-88.728	-27.175	-0.120	-0.069
-87.713	131.906	-0.084	0.107
-86.699	71.566	0.192	0.198
-85.684	-166.149	-0.248	0.010
-84.670	-160.524	0.187	-0.010
-83.655	-200.000	0.034	-0.369
-82.640	228.553	-0.119	0.192
-81.626	-81.072	0.317	0.104
-80.611	-87.450	0.203	0.061
-79.597	-200.000	-0.061	-0.272
-78.582	-86.595	0.263	-0.080
-77.567	179.052	-0.116	-0.169
-76.553	-8.061	0.198	0.133
-75.538	-89.791	0.187	0.054
-74.524	38.823	0.205	0.182
-73.509	206.056	0.143	0.220
-72.494	-78.098	0.024	0.008
-71.480	-6.240	0.121	0.082
-70.465	111.312	0.151	-0.180
-69.451	-143.318	-0.177	0.017
-68.436	224.167	0.105	-0.168
-67.422	-131.521	0.093	-0.012
-66.407	-30.611	-0.415	-0.233
-65.392	25.938	0.090	-0.074
-64.378	28.070	-0.294	0.246
-63.363	71.570	0.082	0.085
-62.349	800.000	-0.046	-0.138
-61.334	9.555	-0.856	-0.643
-60.319	-102.945	0.641	0.151
-59.305	800.000	-0.178	-0.664
-58.290	344.008	0.588	1.143
-57.276	638.849	0.516	1.300
-56.261	-200.000	95.326	570.671
-55.246	621.136	1387.940	3459.845
-54.232	189.448	2584.941	3839.200
-53.217	109.316	2313.128	2743.902
-52.203	40.205	2065.942	1840.758
-51.188	35.585	1979.523	1722.387
-50.173	33.944	1961.782	1692.285
-49.159	48.758	2011.360	1868.917
-48.144	50.726	2029.836	1903.759
-47.130	36.182	1990.930	1737.418
-46.115	33.842	1980.008	1706.823
-45.100	33.762	1976.662	1703.154
-44.086	33.659	1974.874	1700.623
-43.071	33.656	1971.937	1698.001
-42.057	33.504	1970.337	1695.194
-41.042	33.523	1968.348	1693.587
-40.027	33.697	1966.286	1693.293
-39.013	33.690	1963.639	1690.883
-37.998	33.676	1962.455	1689.678
-36.984	33.757	1960.204	1688.390
-35.969	33.732	1958.799	1686.887
-34.954	33.759	1957.245	1685.727
-33.940	33.830	1955.263	1684.581
-32.925	33.869	1953.352	1683.216
-31.911	33.793	1952.047	1681.346
-30.896	33.751	1950.456	1679.541
-29.881	33.851	1949.015	1679.117
-28.867	33.825	1947.384	1677.417
-27.852	33.890	1945.309	1676.135
-26.838	33.893	1943.265	1674.331
-25.823	33.815	1941.490	1672.055
-24.809	33.845	1939.991	1670.954
-23.794	33.840	1938.204	1669.310
-22.779	33.849	1936.654	1667.988
-21.765	33.816	1935.227	1666.400
-20.750	33.838	1933.537	1665.072
-19.736	33.779	1932.369	1663.482
-18.721	33.842	1930.435	1662.308
-17.706	33.887	1928.523	1660.985
-16.692	33.868	1926.799	1659.270
-15.677	33.811	1925.473	1657.563
-14.663	33.858	1923.945	1656.592
-13.648	33.856	1922.738	1655.468
-12.633	33.919	1921.281	1654.700
-11.619	33.945	1919.881	1653.651
-10.604	33.830	1919.127	1651.942
-9.590	33.817	1917.548	1650.400
-8.575	33.801	1916.125	1648.969
-7.560	33.742	1915.226	1647.616
-6.546	33.773	1913.521	1646.356
-5.531	33.817	1912.242	1645.568
-4.517	33.911	1911.099	1645.336
-3.502	33.853	1909.597	1643.481
-2.487	33.776	1908.856	1642.104
-1.473	33.803	1908.028	1641.566
-0.458	33.877	1903.070	1637.874
0.556	33.954	1883.468	1608.943
1.571	29.527	1863.748	1554.768
2.586	25.379	1885.343	1537.226
3.600	24.232	1920.700	1555.909
4.615	23.524	1915.696	1545.550
5.629	18.120	1815.155	1419.563
6.644	9.291	1696.987	1258.208
7.659	5.272	1660.212	1200.013
8.673	4.877	1656.917	1194.495
9.688	4.889	1655.329	1193.338
10.702	4.833	1654.398	1192.131
11.717	4.832	1651.339	1189.812
12.731	5.340	1650.732	1193.152
13.746	10.938	1664.004	1245.616
14.761	18.417	1679.651	1314.822
15.775	20.473	1681.672	1332.072
16.790	19.506	1679.129	1322.536
17.804	18.499	1675.455	1311.824
18.819	17.533	1671.905	1301.544
19.834	16.751	1670.034	1293.997
20.848	16.544	1668.045	1290.765
21.863	16.300	1666.910	1287.914
22.877	16.132	1665.021	1285.055
23.892	15.905	1663.739	1282.229
24.907	15.847	1662.762	1280.920
25.921	15.777	1661.865	1279.586
26.936	15.852	1660.442	1278.946
27.950	15.917	1659.574	1278.654
28.965	15.802	1659.352	1277.498
29.980	15.911	1658.222	1277.343
30.994	16.011	1657.269	1277.257
32.009	16.133	1656.743	1277.656
33.023	16.125	1655.851	1276.799
34.038	16.150	1655.075	1276.272
35.053	16.172	1653.660	1275.235
36.067	16.043	1652.161	1272.998
37.082	16.087	1650.799	1272.167
38.096	16.014	1650.367	1271.165
39.111	16.048	1649.636	1270.745
40.126	16.052	1648.890	1270.089
41.140	16.005	1648.116	1269.027
42.155	15.979	1645.914	1267.027
43.169	15.829	1644.209	1264.474
44.184	15.760	1643.371	1263.199
45.199	15.723	1642.455	1262.108
46.213	15.744	1641.162	1261.156
47.228	15.653	1640.777	1260.069
48.242	15.893	1639.472	1260.752
49.257	15.911	1638.351	1259.916
50.271	15.970	1637.030	1259.228
51.286	15.953	1635.664	1257.941
52.301	15.859	1634.666	1256.358
53.315	15.923	1633.085	1255.505
54.330	15.943	1631.878	1254.622
55.344	15.851	1629.843	1252.256
56.359	15.736	1628.295	1250.101
57.374	15.815	1627.738	1250.155
58.388	15.877	1626.226	1249.342
59.403	15.811	1624.291	1247.256
60.417	15.707	1623.363	1245.661
61.432	15.700	1622.383	1244.751
62.447	15.679	1621.174	1243.551
63.461	15.722	1619.527	1242.501
64.476	15.654	1618.025	1240.733
65.490	15.560	1617.535	1239.558
66.505	15.610	1615.973	1238.616
67.520	15.606	1615.905	1238.430
68.534	15.604	1614.947	1237.570
69.549	15.683	1613.507	1236.935
70.563	15.698	1612.148	1235.895
71.578	15.629	1611.083	1234.464
72.593	15.545	1610.099	1232.981
73.607	15.470	1608.870	1231.381
74.622	15.554	1608.097	1231.296
75.636	15.466	1607.423	1230.029
76.651	15.573	1606.303	1229.847
77.666	15.592	1605.510	1229.268
78.680	15.509	1604.864	1228.058
79.695	15.455	1604.137	1226.998
80.709	15.608	1602.727	1226.928
81.724	15.611	1602.016	1226.297
82.739	15.712	1601.277	1226.362
83.753	15.750	1600.171	1225.678
84.768	15.853	1599.091	1225.495
85.782	15.974	1598.791	1226.039
86.797	16.031	1598.150	1225.849
87.812	16.007	1597.407	1225.003
88.826	15.973	1595.600	1223.260
89.841	15.879	1594.705	1221.779
90.855	15.973	1593.858	1221.704
91.870	15.992	1592.786	1220.914
92.884	16.046	1591.838	1220.470
93.899	16.064	1590.734	1219.650
94.914	16.054	1589.083	1218.197
95.928	16.106	1587.952	1217.602
96.943	16.091	1586.972	1216.634
97.957	16.039	1586.024	1215.423
98.972	16.069	1583.670	1213.730
99.987	15.999	1582.562	1212.268
101.001	16.062	1580.963	1211.386
102.016	15.938	1579.840	1209.532
103.030	15.978	1578.578	1208.746
104.045	16.019	1577.125	1207.820
105.060	15.910	1575.784	1205.905
106.074	15.974	1574.134	1204.993
107.089	15.853	1572.850	1203.040
108.103	15.702	1570.986	1200.431
109.118	15.662	1569.802	1199.134
110.133	15.656	1568.057	1197.649
111.147	15.617	1567.012	1196.467
112.162	15.664	1565.860	1195.820
113.176	15.697	1564.095	1194.602
114.191	15.745	1563.140	1194.103
115.206	15.741	1561.489	1192.711
116.220	15.825	1560.386	1192.356
117.235	15.744	1559.131	1190.719
118.249	15.738	1558.113	1189.795
119.264	15.756	1556.711	1188.747
120.279	15.729	1555.121	1187.235
121.293	15.721	1553.444	1185.793
122.308	15.695	1552.264	1184.601
123.322	15.633	1551.008	1183.107
124.337	15.609	1549.434	1181.630
125.352	15.640	1547.891	1180.566
126.366	15.624	1546.629	1179.389
127.381	15.561	1545.816	1178.221
128.395	15.497	1545.446	1177.386
129.410	15.665	1543.631	1177.075
130.424	15.524	1542.941	1175.461
131.439	15.619	1541.607	1175.006
132.454	15.647	1539.989	1173.860
133.468	15.763	1538.131	1173.152
134.483	15.722	1537.183	1172.036
135.497	15.762	1535.808	1171.167
136.512	15.700	1534.806	1169.863
137.527	15.814	1533.215	1169.342
138.541	15.793	1531.996	1168.160
139.556	15.924	1530.308	1167.681
140.570	15.887	1529.136	1166.428
141.585	15.960	1527.744	1165.764
142.600	15.916	1527.454	1165.139
143.614	15.922	1526.025	1163.988
144.629	16.119	1524.532	1164.102
145.643	16.133	1523.198	1163.080
146.658	16.121	1522.058	1162.021
147.673	16.118	1520.233	1160.507
148.687	16.042	1518.693	1158.707
149.702	16.013	1517.387	1157.410
150.716	15.972	1515.514	1155.595
151.731	15.919	1514.033	1154.002
152.746	15.877	1513.447	1153.164
153.760	15.852	1512.079	1151.850
154.775	15.944	1510.342	1151.052
155.789	15.963	1509.561	1150.485
156.804	16.075	1508.053	1150.002
157.819	16.143	1506.687	1149.317
158.833	16.103	1505.827	1148.291
159.848	16.116	1504.870	1147.549
160.862	16.145	1503.775	1146.805
161.877	16.224	1502.331	1146.142
162.892	16.124	1501.643	1144.835
163.906	15.968	1500.077	1142.480
164.921	15.925	1498.617	1140.981
165.935	16.026	1497.212	1140.492
166.950	15.999	1496.894	1139.963
167.964	16.018	1495.200	1138.702
168.979	16.141	1494.118	1138.606
169.994	16.088	1493.301	1137.528
171.008	16.079	1492.167	1136.505
172.023	16.103	1491.295	1135.902
173.037	16.134	1490.359	1135.296
174.052	16.210	1489.296	1134.895
175.067	16.263	1488.182	1134.304
176.081	16.183	1486.856	1132.653
177.096	16.106	1485.308	1130.860
178.110	16.015	1484.076	1129.207
179.125	16.133	1482.988	1129.074
180.140	16.090	1482.220	1128.101
181.154	16.120	1480.974	1127.254
182.169	16.247	1479.962	1127.231
183.183	16.262	1479.114	1126.584
184.198	16.245	1477.916	1125.460
185.213	16.299	1477.529	1125.429
186.227	16.401	1475.907	1124.767
187.242	16.369	1474.852	1123.656
188.256	16.286	1474.075	1122.407
189.271	16.399	1472.881	1122.150
190.286	16.452	1471.993	1121.730
191.300	16.472	1470.607	1120.704
192.315	16.253	1469.418	1118.250
193.329	16.077	1467.846	1115.790
194.344	16.054	1466.873	1114.798
195.359	16.117	1466.351	1114.723
196.373	16.129	1465.313	1113.910
197.388	16.235	1464.433	1113.842
198.402	16.380	1463.100	1113.684
199.417	16.518	1462.244	1113.848
200.432	16.594	1460.578	1112.981
201.446	16.612	1460.055	1112.597
202.461	16.666	1459.391	1112.347
203.475	16.690	1458.242	1111.536
204.490	16.776	1457.209	1111.210
205.504	16.640	1456.211	1109.461
206.519	16.692	1454.501	1108.400
207.534	16.645	1453.856	1107.506
208.548	16.497	1452.812	1105.643
209.563	16.593	1451.843	1105.431
210.577	16.564	1450.489	1104.114
211.592	16.496	1449.830	1103.073
212.607	16.707	1449.072	1103.772
213.621	16.766	1448.239	1103.426
214.636	16.857	1447.260	1103.176
215.650	16.745	1446.508	1101.777
216.665	16.735	1445.499	1100.842
217.680	16.818	1444.590	1100.596
218.694	16.872	1443.744	1100.203
219.709	16.904	1443.142	1099.853
220.723	17.014	1441.942	1099.556
221.738	16.890	1441.225	1098.109
222.753	16.859	1440.666	1097.382
223.767	16.808	1439.520	1096.088
224.782	16.856	1438.470	1095.498
225.796	16.986	1437.858	1095.778
226.811	16.958	1436.864	1094.737
227.826	17.041	1436.006	1094.527
228.840	16.973	1435.390	1093.523
229.855	16.891	1434.126	1091.934
230.869	16.838	1432.950	1090.602
231.884	16.907	1432.001	1090.222
232.899	16.891	1430.797	1089.110
233.913	16.861	1430.088	1088.283
234.928	16.766	1428.886	1086.662
235.942	16.793	1427.217	1085.470
236.957	16.805	1426.262	1084.720
237.972	16.765	1424.948	1083.371
238.986	16.819	1423.492	1082.513
240.001	16.858	1422.652	1082.028
241.015	16.852	1421.637	1081.118
242.030	16.763	1421.107	1080.055
243.045	16.920	1419.941	1080.072
244.059	16.991	1418.970	1079.691
245.074	16.993	1418.303	1079.101
246.088	16.975	1417.667	1078.408
247.103	17.028	1416.591	1077.831
248.117	17.046	1415.913	1077.333
249.132	17.134	1415.236	1077.278
250.147	17.268	1414.543	1077.507
251.161	17.437	1413.681	1077.823
252.176	17.488	1413.570	1077.966
253.190	17.473	1412.752	1077.156
254.205	17.518	1411.609	1076.472
255.220	17.636	1411.221	1076.827
256.234	17.604	1410.128	1075.692
257.249	17.636	1409.442	1075.278
258.263	17.516	1408.847	1073.971
259.278	17.498	1407.938	1073.074
260.293	17.475	1407.115	1072.205
261.307	17.608	1406.309	1072.335
262.322	17.612	1405.519	1071.657
263.336	17.755	1404.302	1071.537
264.351	17.774	1403.157	1070.688
265.366	17.733	1402.577	1069.892
266.380	17.779	1401.739	1069.447
267.395	17.765	1400.802	1068.549
268.409	17.793	1399.938	1067.972
269.424	17.715	1399.100	1066.749
270.439	17.669	1397.660	1065.272
271.453	17.775	1396.774	1065.164
272.468	17.821	1395.804	1064.616
273.482	17.710	1394.953	1063.178
274.497	17.580	1394.414	1061.866
275.512	17.632	1393.463	1061.370
276.526	17.638	1392.588	1060.646
277.541	17.679	1391.301	1059.830
278.555	17.621	1390.787	1058.982
279.570	17.721	1389.736	1058.709
280.585	17.724	1389.274	1058.282
281.599	17.836	1388.750	1058.485
282.614	17.974	1387.285	1058.130
283.628	17.795	1386.361	1056.223
284.643	17.804	1385.127	1055.245
285.657	17.839	1383.762	1054.329
286.672	17.821	1382.843	1053.423
287.687	17.861	1382.232	1053.109
288.701	17.829	1381.092	1051.952
289.716	17.786	1380.924	1051.465
290.730	17.807	1379.694	1050.565
291.745	17.868	1378.896	1050.242
292.760	17.833	1377.789	1049.087
293.774	17.917	1376.403	1048.455
294.789	17.945	1375.733	1048.024
295.803	18.005	1374.927	1047.687
296.818	18.100	1373.860	1047.365
297.833	18.005	1373.016	1046.042
298.847	17.899	1372.313	1044.767
299.862	17.867	1371.316	1043.723
300.876	17.926	1370.202	1043.140
301.891	17.985	1369.429	1042.823
302.906	17.966	1368.705	1042.063
303.920	18.060	1368.571	1042.442
304.935	18.163	1367.499	1042.160
305.949	18.254	1366.486	1041.851
306.964	18.230	1365.383	1040.772
307.979	18.411	1364.416	1041.039
308.993	18.228	1363.735	1039.319
310.008	18.224	1363.048	1038.676
311.022	18.229	1362.273	1038.025
312.037	18.267	1360.753	1037.006
313.052	18.270	1360.077	1036.417
314.066	18.328	1358.799	1035.702
315.081	18.218	1357.941	1034.292
316.095	18.188	1356.690	1033.063
317.110	18.039	1355.923	1031.489
318.125	18.178	1354.679	1031.293
319.139	18.227	1353.441	1030.553
320.154	18.184	1352.280	1029.322
321.168	18.212	1351.779	1029.014
322.183	18.140	1351.222	1028.069
323.197	18.172	1350.402	1027.544
324.212	18.251	1349.141	1026.972
325.227	18.226	1348.530	1026.264
326.241	18.241	1347.591	1025.547
327.256	18.332	1346.541	1025.200
328.270	18.262	1345.939	1024.236
329.285	18.261	1344.941	1023.380
330.300	18.243	1343.893	1022.382
331.314	18.315	1342.711	1021.821
332.329	18.303	1342.139	1021.224
333.343	18.296	1341.127	1020.324
334.358	18.269	1340.438	1019.549
335.373	18.413	1339.823	1019.850
336.387	18.348	1338.933	1018.695
337.402	18.422	1338.080	1018.393
338.416	18.442	1337.397	1017.901
339.431	18.507	1336.689	1017.661
340.446	18.532	1335.890	1017.107
341.460	18.528	1335.433	1016.646
342.475	18.482	1334.769	1015.782
343.489	18.679	1333.403	1015.819
344.504	18.716	1332.397	1015.181
345.519	18.849	1331.438	1015.143
346.533	18.765	1330.601	1013.921
347.548	18.836	1329.678	1013.549
348.562	18.807	1329.076	1012.827
349.577	18.878	1328.136	1012.440
350.592	18.823	1327.415	1011.474
351.606	18.730	1327.138	1010.631
352.621	18.605	1325.553	1008.598
353.635	18.652	1324.579	1008.043
354.650	18.638	1323.226	1006.841
355.665	18.696	1322.491	1006.535
356.679	18.656	1321.623	1005.550
357.694	18.730	1320.525	1005.057
358.708	18.724	1319.469	1004.131
359.723	18.782	1318.331	1003.517
360.738	18.758	1317.882	1002.942
361.752	18.815	1316.573	1002.191
362.767	18.752	1315.484	1000.904
363.781	18.869	1314.501	1000.752
364.796	18.886	1313.711	1000.160
365.810	18.794	1313.284	999.215
366.825	18.989	1312.453	999.623
367.840	19.120	1311.535	999.597
368.854	19.111	1311.097	999.121
369.869	19.165	1310.562	998.938
370.883	19.203	1310.154	998.758
371.898	19.117	1309.170	997.425
372.913	19.144	1308.271	996.810
373.927	18.980	1307.475	995.163
374.942	19.112	1306.360	994.990
375.956	19.186	1305.866	994.954
376.971	19.162	1305.070	994.123
377.986	19.044	1304.594	992.989
379.000	19.191	1303.323	992.781
380.015	19.197	1302.834	992.353
381.029	19.306	1301.985	992.247
382.044	19.379	1301.264	992.033
383.059	19.362	1300.407	991.190
384.073	19.422	1299.531	990.781
385.088	19.467	1299.054	990.587
386.102	19.356	1298.576	989.502
387.117	19.410	1297.409	988.831
388.132	19.401	1297.159	988.500
389.146	19.255	1295.671	986.446
390.161	19.291	1294.885	985.967
391.175	19.241	1294.639	985.403
392.190	19.249	1293.526	984.515
393.205	19.338	1292.557	984.199
394.219	19.421	1291.548	983.819
395.234	19.395	1290.527	982.805
396.248	19.363	1289.143	981.482
397.263	19.435	1287.697	980.703
398.278	19.393	1286.311	979.320
399.292	19.334	1285.310	978.141
400.307	19.318	1284.359	977.237
401.321	19.275	1283.276	976.082
402.336	19.150	1282.364	974.596
403.350	19.229	1281.567	974.350
404.365	19.198	1280.744	973.462
405.380	19.300	1279.679	973.148
406.394	19.336	1278.941	972.702
407.409	19.410	1277.880	972.226
408.423	19.463	1277.704	972.302
409.438	19.487	1277.385	972.108
410.453	19.609	1276.447	971.997
411.467	19.705	1275.421	971.670
412.482	19.700	1274.812	971.091
413.496	19.766	1274.578	971.199
414.511	19.842	1273.736	970.897
415.526	19.823	1273.110	970.230
416.540	19.909	1271.940	969.729
417.555	19.829	1271.466	968.835
418.569	19.824	1271.447	968.710
419.584	19.883	1270.601	968.306
420.599	19.853	1269.951	967.560
421.613	141.627	1430.821	1792.145
422.628	136.121	1454.259	1792.264
