DTS Sentinel unit serial number:	SN413079Multiplexer serial number:	ORYXHardware model number:	OX4-SRSoftware version number:	ORYX F/W v4.00 Oryx Data Collector v3.7.2.0data status	okinstallation	princeton_trtdifferential loss correction	single-endedforward channel	channel 4reverse channel	N/Adate	2019/09/12time	19:07:18forward acquisition time	15.00reverse acquisition time	0.00gamma	496.2192k internal	0.2308k external	0.2308temperature offset calibration	1.0141default loss term (dB/km)	0.3790temperature slope calibration	1.0000multiplexer offset coefficient	1.0000multiplexer slope coefficient	1.0000fibre end	0.00T internal ref (°C)	32.69T ext. ref 1 (°C)	3.13T ext. ref 2 (°C)	27.26length (m)	temperature (°C)	Stokes	anti-Stokes-747.200	164.229	0.511	-0.732
-746.185	-60.812	-0.419	0.180
-745.171	-200.000	-0.048	0.430
-744.156	800.000	0.472	1.365
-743.142	122.324	0.358	0.454
-742.127	192.962	0.325	-0.499
-741.112	-200.000	0.033	-0.412
-740.098	-134.202	0.513	0.064
-739.083	234.007	-0.062	0.103
-738.069	-115.320	-0.405	-0.078
-737.054	-200.000	0.018	0.508
-736.039	-139.001	-0.143	0.016
-735.025	800.000	-0.126	0.544
-734.010	-45.213	-0.300	-0.152
-732.996	-26.313	0.454	-0.270
-731.981	-12.380	0.124	-0.082
-730.966	-50.797	-0.700	-0.334
-729.952	-120.364	-0.690	-0.119
-728.937	46.261	-0.549	-0.517
-727.923	-200.000	0.081	0.510
-726.908	-200.000	-0.056	-0.612
-725.894	430.748	-0.444	-0.977
-724.879	-146.250	-0.747	0.067
-723.864	50.645	-0.415	-0.399
-722.850	165.332	-0.105	-0.151
-721.835	173.611	-0.143	-0.209
-720.821	-67.342	-0.881	-0.352
-719.806	800.000	-0.108	0.375
-718.791	800.000	0.117	-0.416
-717.777	-16.580	-0.047	-0.030
-716.762	401.739	0.392	-0.836
-715.748	-7.025	0.565	0.389
-714.733	135.788	-0.612	-0.809
-713.718	739.780	0.206	0.562
-712.704	-149.264	-0.311	0.025
-711.689	301.823	-0.211	0.395
-710.675	-93.987	-0.432	0.120
-709.660	440.350	0.146	-0.324
-708.645	-148.048	0.305	0.026
-707.631	114.615	-0.240	0.296
-706.616	800.000	-0.057	-0.175
-705.602	-49.627	0.271	0.131
-704.587	59.623	0.115	-0.115
-703.572	800.000	-0.197	-0.772
-702.558	-138.763	0.424	-0.047
-701.543	-200.000	-0.020	-1.075
-700.529	-142.756	-0.352	0.035
-699.514	133.771	0.057	-0.074
-698.499	-200.000	-0.029	-1.320
-697.485	-2.201	-0.854	-0.608
-696.470	-200.000	0.067	-0.962
-695.456	131.659	-0.724	-0.944
-694.441	45.098	0.191	0.178
-693.426	-89.496	-0.545	0.162
-692.412	-68.881	1.158	-0.454
-691.397	33.379	-0.663	-0.584
-690.383	33.544	-0.152	0.134
-689.368	-200.000	-0.008	0.265
-688.354	61.705	0.372	-0.375
-687.339	-200.000	0.088	-0.623
-686.324	-0.083	-0.519	-0.375
-685.310	-91.040	-0.262	-0.076
-684.295	-136.426	0.211	-0.025
-683.281	-54.530	-0.536	-0.246
-682.266	-152.882	-0.269	0.019
-681.251	-129.883	0.857	0.119
-680.237	-12.243	-0.283	0.188
-679.222	223.509	-0.155	-0.254
-678.208	800.000	0.092	-0.261
-677.193	-200.000	0.003	-0.247
-676.178	251.271	-0.248	-0.428
-675.164	-89.672	-0.940	0.279
-674.149	64.120	0.383	-0.390
-673.135	172.664	-0.174	0.254
-672.120	172.867	0.278	0.406
-671.105	-120.898	-0.457	0.078
-670.091	75.879	-0.187	0.201
-669.076	-86.068	-0.355	0.111
-668.062	-200.000	-0.002	-0.591
-667.047	-75.725	-0.134	-0.048
-666.032	106.396	-0.575	-0.691
-665.018	800.000	-0.182	-0.528
-664.003	-33.446	0.463	-0.259
-662.989	67.481	-0.763	0.789
-661.974	-82.384	-0.547	0.180
-660.959	693.600	0.123	-0.327
-659.945	118.523	-0.635	0.794
-658.930	-95.745	0.626	-0.169
-657.916	-179.007	-0.130	0.003
-656.901	-103.520	0.225	0.054
-655.886	-148.390	0.152	-0.013
-654.872	-57.843	0.788	-0.349
-653.857	25.705	-0.104	-0.088
-652.843	-90.035	-0.827	-0.244
-651.828	-173.732	0.441	-0.013
-650.814	79.242	0.683	0.741
-649.799	527.529	-0.082	-0.196
-648.784	-200.000	-0.022	0.240
-647.770	704.553	-0.234	0.624
-646.755	6.437	-0.725	0.546
-645.741	-5.948	1.188	-0.823
-644.726	50.219	-0.415	0.396
-643.711	-86.921	-0.204	0.063
-642.697	-108.763	-0.562	-0.122
-641.682	433.829	0.309	-0.680
-640.668	-37.093	-0.141	-0.076
-639.653	800.000	0.075	0.327
-638.638	800.000	-0.042	0.122
-637.624	-200.000	-0.110	-0.764
-636.609	-72.316	0.432	-0.162
-635.595	-7.935	0.487	0.332
-634.580	217.043	0.330	-0.532
-633.565	195.257	0.331	-0.508
-632.551	204.055	0.300	0.469
-631.536	-22.200	0.594	-0.365
-630.522	-200.000	0.107	0.519
-629.507	1.647	-0.717	-0.522
-628.492	800.000	0.119	0.399
-627.478	-200.000	0.066	0.889
-626.463	-200.000	0.055	0.385
-625.449	-49.641	0.815	-0.392
-624.434	308.642	-0.162	0.307
-623.419	209.190	0.261	0.414
-622.405	478.296	0.319	0.731
-621.390	-200.000	0.049	-0.409
-620.376	800.000	-0.197	-0.552
-619.361	92.271	0.644	0.733
-618.346	-159.364	0.770	-0.044
-617.332	225.133	0.266	-0.436
-616.317	800.000	-0.069	-0.223
-615.303	-123.121	-1.139	-0.185
-614.288	-104.298	0.464	0.109
-613.273	110.805	0.354	0.431
-612.259	140.876	-0.176	0.235
-611.244	-149.859	0.399	0.032
-610.230	339.755	-0.307	-0.606
-609.215	-53.528	0.464	-0.214
-608.201	553.737	-0.229	-0.558
-607.186	3.268	-0.255	0.187
-606.171	187.269	0.476	-0.717
-605.157	92.168	0.347	0.395
-604.142	121.964	-0.368	0.464
-603.128	800.000	-0.110	-0.332
-602.113	698.074	-0.149	-0.397
-601.098	800.000	0.327	-0.977
-600.084	-200.000	-0.068	-0.617
-599.069	-48.778	-0.230	0.112
-598.055	75.830	0.629	-0.672
-597.040	33.450	-0.612	-0.537
-596.025	-60.025	-0.483	-0.208
-595.011	-200.000	-0.097	-0.442
-593.996	-200.000	-0.234	-1.349
-592.982	88.024	0.456	0.511
-591.967	212.639	-0.396	0.631
-590.952	-109.395	-1.069	0.229
-589.938	-195.303	-0.333	-0.003
-588.923	-54.515	0.491	-0.225
-587.909	332.317	-0.507	-0.988
-586.894	-59.620	-0.503	0.218
-585.879	-134.217	-0.677	0.084
-584.865	382.738	-0.027	0.056
-583.850	621.481	0.205	0.522
-582.836	130.169	-0.363	-0.469
-581.821	46.085	-0.322	-0.301
-580.806	-200.000	0.044	-0.322
-579.792	-20.131	-0.290	-0.181
-578.777	800.000	-0.278	-1.035
-577.763	384.284	0.096	0.200
-576.748	32.042	0.846	-0.736
-575.733	-70.521	-0.731	-0.279
-574.719	-200.000	-0.073	-0.513
-573.704	-7.804	-0.284	-0.194
-572.690	-200.000	-0.079	0.616
-571.675	-102.412	-1.245	-0.301
-570.661	-139.476	-0.478	0.052
-569.646	17.404	-0.391	0.314
-568.631	800.000	-0.108	-0.453
-567.617	-200.000	0.007	-1.042
-566.602	74.050	-0.392	-0.415
-565.588	-72.406	0.521	0.195
-564.573	88.223	0.267	0.299
-563.558	0.720	-0.542	-0.391
-562.544	419.542	0.568	-1.226
-561.529	125.336	-0.114	0.146
-560.515	-72.955	-0.182	0.067
-559.500	-200.000	0.032	-0.575
-558.485	-7.967	0.497	-0.338
-557.471	-200.000	0.001	-0.389
-556.456	-200.000	-0.053	0.357
-555.442	-3.788	0.422	-0.295
-554.427	-47.494	0.333	0.163
-553.412	-150.494	-0.323	0.025
-552.398	118.937	-0.603	0.752
-551.383	-109.183	0.358	-0.077
-550.369	-200.000	-0.048	0.425
-549.354	-64.067	-0.625	0.257
-548.339	-70.466	0.496	0.190
-547.325	-57.548	-0.360	-0.159
-546.310	-74.219	0.564	0.206
-545.296	124.063	-0.210	-0.266
-544.281	800.000	-0.157	0.471
-543.266	-121.239	0.487	-0.082
-542.252	229.009	0.498	-0.819
-541.237	383.434	-0.339	-0.703
-540.223	-125.520	-0.551	-0.084
-539.208	587.248	-0.111	-0.275
-538.193	-9.772	-0.228	-0.153
-537.179	91.075	-0.307	-0.348
-536.164	299.067	0.122	0.227
-535.150	10.371	0.150	0.115
-534.135	-200.000	-0.082	-1.100
-533.121	800.000	0.144	0.527
-532.106	800.000	0.084	-0.258
-531.091	-200.000	0.095	-0.482
-530.077	-119.220	-0.803	-0.141
-529.062	117.315	0.210	0.260
-528.048	521.838	0.120	-0.283
-527.033	-41.292	0.290	-0.150
-526.018	103.092	-0.207	-0.245
-525.004	-51.532	0.757	0.356
-523.989	17.824	-0.316	0.254
-522.975	191.446	-0.170	-0.258
-521.960	116.529	-0.171	-0.212
-520.945	289.669	-0.324	-0.592
-519.931	-200.000	-0.095	-0.623
-518.916	264.158	-0.328	-0.575
-517.902	-109.455	0.479	0.102
-516.887	-31.543	-0.314	0.178
-515.872	-39.260	-0.734	-0.388
-514.858	-90.793	-0.226	0.066
-513.843	-66.527	1.029	0.411
-512.829	210.519	0.464	-0.734
-511.814	-69.899	0.260	0.100
-510.799	-50.087	0.851	-0.406
-509.785	-125.909	-0.510	0.077
-508.770	84.547	0.185	0.204
-507.756	16.325	-0.052	-0.041
-506.741	665.171	0.225	0.585
-505.726	-175.211	0.622	-0.017
-504.712	-5.509	-0.820	0.567
-503.697	-200.000	0.709	0.001
-502.683	800.000	-0.241	0.717
-501.668	-33.134	-1.072	0.598
-500.653	-67.218	-0.183	0.073
-499.639	232.883	0.191	-0.316
-498.624	-129.705	1.217	-0.169
-497.610	-164.920	-0.308	0.014
-496.595	523.137	-0.209	-0.495
-495.581	-14.672	-1.013	-0.655
-494.566	-140.286	0.379	0.040
-493.551	1.247	-0.545	0.394
-492.537	186.844	-0.200	0.300
-491.522	3.154	-0.230	-0.168
-490.508	-13.491	-0.185	-0.120
-489.493	79.275	-0.738	0.796
-488.478	-47.954	-0.454	0.221
-487.464	-36.733	0.397	0.215
-486.449	800.000	-0.048	-0.174
-485.435	-200.000	0.115	-0.578
-484.420	-75.510	0.726	0.260
-483.405	-101.280	0.041	0.010
-482.391	19.145	0.131	0.106
-481.376	-107.788	0.188	-0.041
-480.362	-94.897	-1.191	-0.324
-479.347	800.000	-0.276	1.072
-478.332	-200.000	-0.062	0.491
-477.318	163.907	0.467	0.662
-476.303	-45.134	0.351	-0.176
-475.289	-51.835	-0.580	-0.271
-474.274	800.000	0.036	0.154
-473.259	-200.000	-0.254	1.158
-472.245	388.755	0.231	0.482
-471.230	800.000	-0.125	0.389
-470.216	-200.000	-0.017	0.312
-469.201	-148.785	0.708	-0.058
-468.186	89.889	0.399	0.448
-467.172	-53.128	-0.954	-0.440
-466.157	-200.000	0.224	-1.282
-465.143	-179.968	0.408	0.009
-464.128	-200.000	0.058	0.820
-463.113	-60.057	0.376	-0.161
-462.099	800.000	-0.121	0.463
-461.084	-122.293	-0.633	0.104
-460.070	-200.000	-0.030	-0.622
-459.055	-127.083	-0.678	-0.100
-458.040	-200.000	0.028	0.237
-457.026	-200.000	0.124	0.623
-456.011	-109.821	-0.491	-0.104
-454.997	800.000	0.020	0.069
-453.982	238.276	0.268	0.447
-452.968	441.518	-0.158	-0.348
-451.953	-169.897	-0.391	-0.014
-450.938	-104.507	1.208	-0.280
-449.924	217.718	0.205	0.328
-448.909	-12.634	-0.320	-0.210
-447.895	800.000	0.093	-0.298
-446.880	800.000	0.167	0.718
-445.865	-147.492	-0.318	0.027
-444.851	-147.832	0.237	0.020
-443.836	1.345	-0.350	-0.253
-442.822	800.000	-0.064	0.247
-441.807	37.973	0.734	0.655
-440.792	211.066	-0.520	0.822
-439.778	183.958	-0.186	0.276
-438.763	-200.000	-0.050	-0.340
-437.749	-52.292	0.581	-0.270
-436.734	-200.000	-0.003	-0.203
-435.719	-155.523	-0.028	0.002
-434.705	-175.213	-0.415	-0.012
-433.690	-134.135	-0.816	0.101
-432.676	-17.903	-0.680	0.428
-431.661	196.778	0.163	0.249
-430.646	559.464	0.120	-0.292
-429.632	-0.435	0.635	-0.453
-428.617	185.055	0.428	-0.637
-427.603	204.868	-0.051	0.079
-426.588	-200.000	0.072	0.744
-425.573	800.000	-0.156	0.627
-424.559	-132.411	0.227	0.029
-423.544	-88.057	-0.653	0.197
-422.530	-200.000	-0.007	0.120
-421.515	-83.658	0.219	-0.070
-420.500	-127.609	0.384	0.056
-419.486	-200.000	-0.057	0.454
-418.471	515.800	-0.133	-0.311
-417.457	-200.000	0.017	-1.048
-416.442	-3.149	-0.248	0.173
-415.428	40.776	-0.041	-0.037
-414.413	-200.000	-0.121	0.656
-413.398	800.000	-0.062	-0.184
-412.384	636.146	-0.240	0.610
-411.369	175.433	-0.219	0.318
-410.355	-111.223	-0.404	-0.083
-409.340	133.990	-0.463	-0.602
-408.325	-62.021	-0.573	-0.240
-407.311	800.000	-0.286	-0.944
-406.296	226.611	-0.056	0.092
-405.282	-109.239	0.536	0.114
-404.267	-84.445	-0.623	-0.198
-403.252	-35.869	0.393	-0.213
-402.238	-79.535	0.612	0.207
-401.223	64.038	-0.074	-0.075
-400.209	800.000	-0.159	0.542
-399.194	-110.476	-0.559	0.116
-398.179	-125.167	-0.187	0.029
-397.165	-31.194	0.422	-0.238
-396.150	-200.000	0.004	-0.305
-395.136	-98.221	0.415	0.107
-394.121	-45.035	1.205	-0.601
-393.106	-175.976	-0.299	-0.008
-392.092	201.157	0.314	-0.484
-391.077	-144.304	-0.834	-0.078
-390.063	90.210	0.339	-0.380
-389.048	-200.000	-0.037	-0.434
-388.033	-65.532	0.795	-0.320
-387.019	-101.879	0.309	-0.075
-386.004	-200.000	0.359	0.001
-384.990	46.007	0.273	0.253
-383.975	-42.411	-0.222	-0.113
-382.960	-200.000	-0.014	-0.460
-381.946	135.122	-0.385	0.501
-380.931	371.372	0.224	-0.456
-379.917	476.549	0.056	-0.128
-378.902	-20.427	-0.124	-0.076
-377.888	-4.402	-0.512	-0.355
-376.873	31.520	0.731	0.630
-375.858	-200.000	0.046	-0.309
-374.844	205.898	0.230	0.359
-373.829	148.123	0.548	0.740
-372.815	44.642	-0.159	-0.147
-371.800	-79.548	0.237	0.080
-370.785	-59.667	0.550	0.236
-369.771	145.764	0.089	0.119
-368.756	333.067	0.167	0.323
-367.742	255.129	0.340	-0.583
-366.727	-113.833	-1.116	0.217
-365.712	-35.934	0.165	-0.089
-364.698	-90.380	0.695	0.202
-363.683	-23.884	0.197	-0.118
-362.669	498.330	-0.172	0.397
-361.654	72.390	-0.466	0.487
-360.639	471.789	0.220	-0.495
-359.625	-128.606	-0.882	0.125
-358.610	-62.848	0.442	-0.183
-357.596	-89.370	0.369	0.109
-356.581	205.619	-0.204	0.317
-355.566	74.742	-0.459	-0.483
-354.552	-19.048	-0.182	-0.113
-353.537	3.175	-0.180	-0.131
-352.523	55.236	0.295	-0.285
-351.508	-38.772	0.342	-0.181
-350.493	-181.670	0.866	0.017
-349.479	-70.586	-1.260	-0.477
-348.464	-13.802	0.403	-0.261
-347.450	379.933	0.264	0.541
-346.435	33.754	0.427	0.372
-345.420	800.000	-0.357	1.110
-344.406	-186.283	-1.017	0.015
-343.391	-24.368	0.123	-0.073
-342.377	176.179	-0.147	-0.213
-341.362	-19.205	0.306	0.190
-340.348	61.523	0.310	0.309
-339.333	-13.632	-0.427	-0.277
-338.318	-20.945	-0.446	-0.273
-337.304	800.000	-0.230	-0.964
-336.289	330.178	0.182	-0.350
-335.275	66.815	-0.302	0.307
-334.260	134.584	-0.247	-0.320
-333.245	-200.000	-0.118	0.621
-332.231	-71.077	0.605	0.228
-331.216	800.000	0.111	-0.347
-330.202	35.901	0.233	0.205
-329.187	-170.547	0.715	0.025
-328.172	41.115	0.273	-0.247
-327.158	464.975	0.301	-0.672
-326.143	800.000	-0.101	-0.304
-325.129	168.470	0.088	0.125
-324.114	-161.158	-0.520	-0.027
-323.099	-77.879	0.786	0.271
-322.085	-144.696	-0.429	-0.039
-321.070	-200.000	0.100	-0.684
-320.056	-120.807	0.582	0.098
-319.041	-108.923	-0.746	0.159
-318.026	155.712	0.094	-0.129
-317.012	85.723	0.264	0.290
-315.997	-144.387	-0.504	0.047
-314.983	595.209	-0.252	-0.622
-313.968	261.364	-0.482	-0.834
-312.953	-97.136	-0.553	-0.144
-311.939	-75.694	0.229	0.081
-310.924	-165.655	-0.780	0.034
-309.910	-130.563	1.023	-0.138
-308.895	800.000	-0.075	-0.252
-307.880	-37.597	-0.132	-0.070
-306.866	-135.022	0.254	0.031
-305.851	800.000	-0.134	-0.468
-304.837	800.000	-0.016	-0.043
-303.822	127.783	0.094	0.119
-302.807	800.000	0.143	0.472
-301.793	284.995	-0.200	0.361
-300.778	359.050	0.441	0.880
-299.764	-99.668	-0.177	-0.044
-298.749	-120.676	0.919	0.155
-297.735	47.443	-0.415	0.387
-296.720	45.148	-0.375	0.345
-295.705	-200.000	-0.005	0.605
-294.691	-15.553	-0.437	-0.278
-293.676	-86.135	-0.630	-0.194
-292.662	800.000	0.340	-1.336
-291.647	65.855	-0.371	0.375
-290.632	429.108	0.321	0.693
-289.618	800.000	-0.189	-0.752
-288.603	-164.862	0.282	0.013
-287.589	143.529	-0.340	0.452
-286.574	-200.000	-0.013	0.139
-285.559	204.933	0.398	0.617
-284.545	-119.079	-0.460	-0.080
-283.530	365.968	0.316	0.637
-282.516	171.735	0.350	-0.502
-281.501	-181.322	-0.088	-0.002
-280.486	-56.492	1.024	0.453
-279.472	149.220	0.589	-0.796
-278.457	423.943	0.178	-0.382
-277.443	-41.764	-0.731	0.375
-276.428	-51.208	-0.847	0.396
-275.413	8.912	0.434	-0.326
-274.399	-15.053	-0.484	0.309
-273.384	-126.420	0.611	-0.091
-272.370	-53.052	-0.424	0.195
-271.355	147.167	-0.383	0.514
-270.340	441.577	-0.183	-0.399
-269.326	-16.226	0.607	0.385
-268.311	-133.736	-1.085	-0.135
-267.297	-200.000	-0.042	-0.221
-266.282	-50.993	-0.402	0.188
-265.267	-200.000	0.003	0.791
-264.253	97.328	0.611	0.699
-263.238	54.577	0.797	0.767
-262.224	529.108	0.456	1.073
-261.209	-94.430	0.294	-0.080
-260.195	-40.175	0.446	0.231
-259.180	-79.244	0.048	0.016
-258.165	800.000	-0.128	0.506
-257.151	-200.000	-0.034	0.319
-256.136	-25.856	-0.401	-0.236
-255.122	-200.000	0.027	-0.249
-254.107	28.752	-0.421	0.356
-253.092	58.173	0.302	-0.295
-252.078	-3.606	-0.387	-0.268
-251.063	800.000	0.106	0.350
-250.049	658.724	-0.122	-0.314
-249.034	278.676	0.560	0.995
-248.019	-200.000	-0.099	1.082
-247.005	471.415	0.271	0.608
-245.990	-87.012	-0.352	-0.107
-244.976	-200.000	-0.003	0.521
-243.961	-200.000	0.012	-0.125
-242.946	-200.000	-0.037	-0.394
-241.932	-21.346	0.276	-0.168
-240.917	-83.552	-0.670	0.214
-239.903	-128.676	-0.747	-0.105
-238.888	-200.000	0.102	0.591
-237.873	59.467	-0.217	-0.213
-236.859	-78.407	0.934	0.319
-235.844	-130.945	0.785	-0.105
-234.830	-200.000	-0.083	0.408
-233.815	800.000	0.115	0.333
-232.800	-35.124	0.516	-0.280
-231.786	-175.255	0.724	0.020
-230.771	308.993	-0.407	0.758
-229.757	187.180	0.058	0.086
-228.742	-200.000	0.008	-0.949
-227.727	-72.397	0.749	0.276
-226.713	364.487	-0.252	-0.505
-225.698	-35.610	-0.915	-0.495
-224.684	-200.000	-0.136	-0.672
-223.669	-200.000	0.021	-0.937
-222.655	159.547	-0.093	-0.129
-221.640	2.478	-0.399	-0.287
-220.625	-200.000	-0.041	0.252
-219.611	-106.405	-0.652	0.145
-218.596	120.404	0.188	-0.232
-217.582	-142.274	-0.211	-0.021
-216.567	301.789	0.291	-0.535
-215.552	146.004	0.382	0.511
-214.538	158.888	-0.483	0.667
-213.523	43.276	0.349	-0.317
-212.509	-66.889	-0.478	0.188
-211.494	-136.574	0.317	0.037
-210.479	9.867	0.691	-0.522
-209.465	-22.242	0.458	-0.277
-208.450	774.662	0.035	-0.096
-207.436	800.000	-0.229	0.866
-206.421	-200.000	0.131	0.845
-205.406	734.084	-0.123	0.329
-204.392	172.047	0.425	0.609
-203.377	-119.516	-0.151	-0.026
-202.363	-200.000	0.007	-0.307
-201.348	233.540	0.338	0.553
-200.333	-86.001	0.443	-0.136
-199.319	-140.707	-0.371	0.038
-198.304	219.602	-0.323	-0.514
-197.290	800.000	0.073	-0.262
-196.275	-77.183	1.006	-0.348
-195.260	-200.000	-0.021	-0.329
-194.246	212.224	0.176	0.276
-193.231	-184.952	-0.146	0.002
-192.217	361.782	-0.208	-0.415
-191.202	-88.396	0.923	0.274
-190.187	-200.000	-0.141	-0.655
-189.173	-200.000	0.042	-0.203
-188.158	130.238	0.409	0.521
-187.144	-94.328	0.714	0.194
-186.129	-200.000	-0.145	-1.101
-185.114	-129.491	0.392	-0.054
-184.100	17.624	-0.619	0.490
-183.085	-200.000	-0.070	0.309
-182.071	-96.873	0.363	-0.095
-181.056	-186.592	0.541	0.008
-180.042	-153.931	0.373	0.025
-179.027	-13.341	-0.110	0.071
-178.012	-200.000	-0.043	-0.521
-176.998	800.000	-0.068	-0.258
-175.983	229.432	-0.404	0.656
-174.969	76.715	0.540	0.569
-173.954	208.901	-0.579	0.900
-172.939	-66.492	0.420	0.166
-171.925	-200.000	-0.036	0.254
-170.910	26.511	-0.556	0.462
-169.896	82.804	-0.321	-0.346
-168.881	-77.847	-0.091	-0.031
-167.866	-200.000	-0.185	1.007
-166.852	-20.266	-0.369	0.226
-165.837	-200.000	-0.100	0.519
-164.823	-200.000	-0.045	0.357
-163.808	185.064	0.108	0.159
-162.793	-15.264	-0.311	0.197
-161.779	-81.629	0.646	0.211
-160.764	800.000	0.146	-0.470
-159.750	89.524	-0.469	0.519
-158.735	-53.823	0.204	0.093
-157.720	-35.732	0.558	0.300
-156.706	-19.232	0.248	0.153
-155.691	-58.016	0.270	0.117
-154.677	40.335	-0.531	-0.474
-153.662	-78.642	0.099	0.034
-152.647	-112.001	0.489	-0.098
-151.633	-22.118	-0.620	-0.374
-150.618	13.101	-0.512	0.394
-149.604	-200.000	0.051	-0.237
-148.589	150.372	-0.348	-0.469
-147.574	-110.790	0.245	0.050
-146.560	-200.000	-0.008	0.269
-145.545	467.673	-0.298	-0.663
-144.531	-44.278	0.676	0.336
-143.516	54.882	-0.560	-0.537
-142.502	-4.650	0.837	0.574
-141.487	-200.000	0.009	-0.637
-140.472	-200.000	-0.140	-0.889
-139.458	37.922	0.469	0.414
-138.443	-200.000	-0.168	1.004
-137.429	284.378	-0.335	-0.598
-136.414	800.000	0.067	-0.272
-135.399	14.669	-0.286	0.221
-134.385	-130.070	-0.414	-0.056
-133.370	-33.604	-0.227	0.124
-132.356	-135.128	0.757	-0.090
-131.341	-41.794	-0.160	0.082
-130.326	-200.000	-0.107	0.710
-129.312	-200.000	-0.095	0.468
-128.297	42.764	-0.594	0.536
-127.283	-93.491	0.588	-0.161
-126.268	-200.000	0.176	0.809
-125.253	294.257	0.398	0.721
-124.239	293.192	-0.121	-0.218
-123.224	-73.769	-0.527	0.190
-122.210	-26.352	-0.731	0.425
-121.195	37.910	-0.372	-0.328
-120.180	472.636	0.212	-0.474
-119.166	-56.183	0.490	-0.216
-118.151	77.904	0.500	-0.529
-117.137	84.150	-0.552	-0.599
-116.122	-200.000	0.009	0.321
-115.107	139.253	-0.397	0.518
-114.093	111.332	0.296	-0.354
-113.078	-17.565	0.876	0.546
-112.064	16.619	0.213	-0.167
-111.049	24.377	0.889	-0.728
-110.034	326.632	0.431	0.818
-109.020	-168.723	-0.078	0.003
-108.005	312.358	0.131	0.244
-106.991	106.921	0.392	-0.462
-105.976	-200.000	-0.088	0.417
-104.962	214.831	-0.205	-0.322
-103.947	-137.878	-0.019	0.002
-102.932	97.951	0.222	-0.254
-101.918	182.269	0.244	-0.356
-100.903	-200.000	-0.018	0.460
-99.889	-117.470	-0.332	-0.060
-98.874	-200.000	0.096	0.484
-97.859	-160.788	0.476	-0.025
-96.845	-23.890	-0.748	-0.443
-95.830	800.000	-0.158	0.641
-94.816	-200.000	-0.128	0.642
-93.801	71.242	-0.157	0.162
-92.786	222.005	0.292	-0.465
-91.772	-100.600	1.007	0.246
-90.757	125.185	-0.390	0.488
-89.743	-200.000	0.004	0.336
-88.728	413.004	-0.163	-0.343
-87.713	-46.390	-0.862	0.419
-86.699	-5.620	-0.465	-0.316
-85.684	400.395	0.084	-0.174
-84.670	-200.000	0.137	-0.760
-83.655	-200.000	-0.024	-0.829
-82.640	800.000	0.161	-0.619
-81.626	2.034	-0.551	-0.394
-80.611	-85.525	0.325	-0.100
-79.597	-78.465	-0.854	0.290
-78.582	-156.054	-0.283	-0.018
-77.567	-167.719	-0.674	-0.026
-76.553	132.177	-0.371	0.473
-75.538	552.852	0.268	0.638
-74.524	-119.254	-0.644	-0.111
-73.509	120.320	0.424	0.521
-72.494	122.706	0.192	-0.237
-71.480	-88.473	0.397	-0.117
-70.465	-171.650	0.656	-0.021
-69.451	800.000	-0.169	-0.713
-68.436	-200.000	-0.062	-0.375
-67.422	-122.832	0.456	-0.073
-66.407	253.073	0.227	-0.383
-65.392	-25.005	0.279	0.164
-64.378	-135.639	-0.438	-0.051
-63.363	235.926	-0.101	0.165
-62.349	3.692	0.425	-0.307
-61.334	55.549	-1.365	-1.308
-60.319	-134.354	0.686	-0.083
-59.305	-200.000	-0.118	-1.027
-58.290	79.414	0.731	0.776
-57.276	72.562	1.398	1.443
-56.261	-200.000	95.521	592.002
-55.246	660.015	1358.199	3459.093
-54.232	200.538	2525.045	3839.182
-53.217	109.407	2280.027	2700.948
-52.203	39.280	2046.192	1811.596
-51.188	34.488	1961.387	1694.017
-50.173	32.915	1944.042	1665.107
-49.159	48.412	1995.742	1848.238
-48.144	49.060	2014.029	1870.898
-47.130	34.997	1974.780	1709.864
-46.115	32.556	1965.072	1679.655
-45.100	32.728	1961.059	1677.688
-44.086	32.573	1959.292	1674.733
-43.071	32.563	1957.181	1672.772
-42.057	32.590	1954.297	1670.475
-41.042	32.633	1952.309	1669.095
-40.027	32.715	1950.496	1668.205
-39.013	32.662	1948.526	1665.987
-37.998	32.803	1945.569	1664.632
-36.984	32.563	1945.893	1662.727
-35.969	32.491	1944.079	1660.480
-34.954	32.633	1941.814	1659.730
-33.940	32.653	1940.209	1658.464
-32.925	32.749	1938.335	1657.644
-31.911	32.895	1937.614	1658.237
-30.896	32.919	1934.878	1656.045
-29.881	32.498	1934.499	1651.963
-28.867	32.579	1933.446	1651.706
-27.852	32.682	1930.092	1649.675
-26.838	32.653	1928.058	1647.616
-25.823	32.665	1926.525	1646.348
-24.809	32.437	1926.667	1644.415
-23.794	32.642	1923.196	1643.176
-22.779	32.646	1922.357	1642.430
-21.765	32.688	1919.720	1640.470
-20.750	32.705	1918.444	1639.467
-19.736	32.785	1916.889	1638.766
-18.721	32.574	1916.016	1636.125
-17.706	32.695	1914.512	1635.822
-16.692	32.794	1912.224	1634.663
-15.677	32.597	1911.524	1632.291
-14.663	32.768	1908.648	1631.247
-13.648	32.831	1908.014	1631.187
-12.633	32.836	1906.106	1629.539
-11.619	32.676	1906.283	1628.241
-10.604	32.704	1904.777	1627.132
-9.590	32.693	1902.217	1624.780
-8.575	32.768	1901.320	1624.601
-7.560	32.762	1898.305	1621.908
-6.546	32.751	1898.838	1622.209
-5.531	32.814	1897.820	1621.810
-4.517	32.770	1895.774	1619.618
-3.502	32.783	1894.726	1618.776
-2.487	32.712	1894.008	1617.483
-1.473	32.733	1891.968	1615.858
-0.458	32.826	1887.690	1612.942
0.556	33.535	1869.637	1583.601
1.571	29.285	1849.531	1531.219
2.586	25.330	1871.380	1515.858
3.600	24.113	1905.704	1533.048
4.615	23.510	1900.334	1523.418
5.629	18.108	1800.883	1399.466
6.644	8.478	1682.306	1233.231
7.659	3.397	1646.736	1168.597
8.673	3.060	1642.028	1162.607
9.688	3.334	1640.391	1163.412
10.702	3.072	1639.791	1160.907
11.717	3.054	1636.667	1158.454
12.731	3.609	1634.712	1161.145
13.746	9.971	1651.519	1221.204
14.761	19.898	1672.078	1311.922
15.775	24.620	1679.726	1353.668
16.790	25.359	1679.599	1359.045
17.804	24.806	1679.371	1354.553
18.819	24.578	1679.081	1352.469
19.834	24.839	1676.246	1352.044
20.848	24.825	1676.041	1351.651
21.863	24.901	1674.962	1351.234
22.877	24.904	1674.251	1350.562
23.892	25.033	1674.168	1351.348
24.907	24.848	1672.813	1348.740
25.921	25.004	1671.669	1348.873
26.936	24.971	1671.563	1348.423
27.950	25.044	1669.607	1347.275
28.965	25.087	1668.760	1346.795
29.980	25.102	1667.918	1346.109
30.994	25.083	1667.212	1345.277
32.009	25.224	1666.427	1345.581
33.023	25.198	1665.075	1344.176
34.038	25.028	1664.576	1342.379
35.053	25.214	1662.895	1342.298
36.067	25.045	1662.219	1340.374
37.082	25.117	1661.080	1339.868
38.096	24.956	1660.725	1338.262
39.111	25.101	1659.930	1338.591
40.126	25.092	1659.183	1337.801
41.140	24.924	1658.370	1335.775
42.155	24.738	1657.511	1333.576
43.169	24.854	1654.983	1332.289
44.184	24.587	1654.990	1330.188
45.199	24.472	1653.705	1328.184
46.213	24.553	1652.645	1327.815
47.228	24.820	1651.342	1328.630
48.242	24.803	1650.368	1327.603
49.257	25.213	1648.560	1329.073
50.271	25.018	1648.139	1327.166
51.286	24.896	1647.291	1325.463
52.301	24.948	1647.298	1325.740
53.315	25.014	1644.677	1324.003
54.330	24.933	1643.925	1322.677
55.344	24.772	1642.498	1320.225
56.359	24.966	1640.097	1319.612
57.374	24.956	1639.982	1319.325
58.388	24.959	1638.731	1318.224
59.403	24.918	1637.321	1316.672
60.417	24.883	1636.306	1315.482
61.432	25.085	1633.761	1314.806
62.447	24.580	1634.594	1311.647
63.461	24.838	1633.404	1312.471
64.476	24.850	1631.842	1311.191
65.490	24.722	1631.198	1309.620
66.505	24.661	1629.943	1308.046
67.520	24.596	1629.397	1307.015
68.534	24.705	1628.580	1307.046
69.549	24.701	1627.190	1305.783
70.563	24.504	1626.127	1303.374
71.578	24.830	1623.583	1303.596
72.593	24.756	1623.510	1302.885
73.607	24.645	1622.333	1301.017
74.622	24.774	1621.449	1301.130
75.636	24.644	1620.122	1299.007
76.651	24.589	1619.915	1298.324
77.666	24.924	1619.270	1300.124
78.680	24.640	1618.520	1297.351
79.695	24.914	1616.688	1297.754
80.709	25.026	1615.379	1297.394
81.724	24.723	1616.785	1296.216
82.739	25.025	1615.277	1297.080
83.753	24.839	1615.376	1295.693
84.768	24.910	1614.065	1295.045
85.782	25.164	1613.525	1296.333
86.797	25.233	1612.519	1295.908
87.812	25.072	1612.226	1294.393
88.826	25.207	1610.981	1294.254
89.841	25.104	1609.829	1292.474
90.855	25.203	1608.469	1291.979
91.870	25.053	1608.021	1290.428
92.884	25.098	1606.415	1289.343
93.899	25.244	1606.030	1289.974
94.914	25.421	1604.306	1289.744
95.928	25.258	1604.708	1288.785
96.943	25.252	1603.281	1287.479
97.957	25.338	1601.065	1286.201
98.972	25.131	1600.006	1283.756
99.987	25.118	1598.878	1282.643
101.001	25.450	1596.310	1282.841
102.016	25.136	1596.208	1280.403
103.030	25.321	1593.484	1279.421
104.045	25.293	1593.463	1279.095
105.060	25.175	1591.972	1276.943
106.074	24.974	1590.826	1274.484
107.089	24.875	1590.038	1273.031
108.103	24.856	1588.298	1271.393
109.118	24.881	1585.919	1269.553
110.133	24.713	1585.157	1267.638
111.147	24.492	1583.989	1265.031
112.162	24.531	1582.526	1264.024
113.176	24.683	1581.253	1263.971
114.191	24.899	1581.041	1265.216
115.206	24.876	1579.449	1263.671
116.220	24.786	1578.538	1262.192
117.235	24.817	1577.491	1261.459
118.249	24.796	1576.328	1260.269
119.264	24.765	1574.038	1258.115
120.279	24.601	1572.700	1255.777
121.293	24.600	1572.788	1255.731
122.308	24.762	1571.013	1255.342
123.322	24.797	1569.720	1254.439
124.337	24.598	1568.168	1251.697
125.352	24.750	1566.057	1250.962
126.366	24.594	1565.877	1249.615
127.381	24.782	1565.752	1250.721
128.395	24.742	1565.075	1249.790
129.410	24.844	1564.005	1249.535
130.424	24.399	1561.799	1244.560
131.439	24.394	1560.548	1243.417
132.454	24.388	1560.090	1242.905
133.468	24.569	1558.965	1243.155
134.483	24.839	1558.100	1244.236
135.497	25.011	1556.782	1244.266
136.512	24.555	1556.987	1241.150
137.527	24.843	1554.805	1241.302
138.541	24.846	1553.663	1240.298
139.556	24.951	1552.097	1239.670
140.570	24.740	1551.309	1237.472
141.585	25.066	1550.049	1238.608
142.600	25.216	1549.597	1239.171
143.614	25.352	1548.182	1238.868
144.629	25.161	1548.044	1237.332
145.643	25.368	1545.982	1237.003
146.658	25.201	1545.779	1235.579
147.673	25.220	1543.576	1233.838
148.687	25.124	1541.821	1231.665
149.702	24.989	1542.699	1231.334
150.716	25.056	1540.361	1229.819
151.731	24.838	1538.306	1226.571
152.746	24.562	1536.481	1223.122
153.760	24.579	1535.552	1222.390
154.775	24.752	1534.896	1222.941
155.789	24.923	1534.427	1223.631
156.804	25.180	1533.338	1224.403
157.819	25.302	1531.693	1223.817
158.833	25.061	1531.043	1221.548
159.848	24.602	1529.602	1217.165
160.862	25.249	1528.183	1220.329
161.877	25.403	1526.854	1220.205
162.892	25.146	1526.703	1218.232
163.906	24.856	1526.300	1215.830
164.921	24.872	1524.599	1214.478
165.935	24.776	1523.187	1212.592
166.950	24.889	1523.028	1213.124
167.964	24.751	1521.448	1210.826
168.979	24.963	1520.741	1211.588
169.994	25.064	1520.068	1211.628
171.008	25.178	1518.760	1211.246
172.023	24.875	1516.887	1207.602
173.037	25.051	1516.297	1208.214
174.052	24.983	1516.464	1207.783
175.067	25.422	1514.388	1208.980
176.081	25.239	1513.485	1206.920
177.096	25.105	1512.380	1205.031
178.110	24.654	1511.606	1201.273
179.125	24.804	1511.147	1201.813
180.140	24.928	1508.957	1200.797
181.154	24.924	1508.451	1200.263
182.169	24.907	1507.825	1199.542
183.183	24.866	1507.227	1198.686
184.198	24.904	1506.247	1198.055
185.213	25.227	1504.435	1198.667
186.227	25.397	1504.718	1199.921
187.242	25.128	1504.317	1197.700
188.256	25.202	1503.089	1197.106
189.271	25.316	1501.889	1196.808
190.286	25.297	1501.398	1196.184
191.300	25.257	1500.109	1194.782
192.315	24.927	1498.710	1191.369
193.329	24.855	1497.650	1189.946
194.344	25.287	1496.152	1191.514
195.359	25.198	1495.899	1190.619
196.373	24.850	1494.991	1187.483
197.388	24.656	1492.945	1184.463
198.402	24.294	1491.979	1181.196
199.417	24.484	1492.181	1182.511
200.432	25.022	1490.860	1184.915
201.446	25.323	1490.844	1186.792
202.461	25.093	1489.897	1184.410
203.475	25.159	1487.647	1182.956
204.490	25.440	1487.570	1184.644
205.504	25.147	1486.113	1181.447
206.519	24.792	1485.990	1178.907
207.534	24.725	1485.484	1177.957
208.548	24.678	1483.484	1175.955
209.563	24.790	1482.313	1175.659
210.577	24.456	1482.113	1173.202
211.592	24.763	1479.749	1173.244
212.607	24.478	1480.496	1171.859
213.621	25.037	1480.379	1175.336
214.636	25.406	1478.981	1176.534
215.650	25.165	1477.661	1173.806
216.665	24.918	1477.410	1171.882
217.680	25.019	1477.376	1172.415
218.694	24.990	1476.854	1171.705
219.709	25.300	1475.414	1172.488
220.723	25.288	1473.774	1171.002
221.738	24.940	1473.143	1168.124
222.753	25.161	1471.448	1168.118
223.767	25.059	1471.818	1167.644
224.782	24.670	1470.243	1163.763
225.796	24.962	1469.376	1164.870
226.811	25.344	1468.792	1166.787
227.826	25.389	1468.632	1166.852
228.840	25.223	1467.657	1164.892
229.855	25.140	1466.390	1163.247
230.869	25.100	1465.286	1162.011
231.884	24.933	1465.635	1161.102
232.899	24.879	1464.148	1159.469
233.913	24.930	1461.044	1157.235
234.928	24.716	1460.405	1155.249
235.942	24.728	1460.170	1155.034
236.957	24.994	1457.942	1154.886
237.972	24.743	1458.334	1153.474
238.986	24.507	1456.435	1150.350
240.001	24.351	1456.090	1148.971
241.015	24.739	1455.279	1150.728
242.030	24.741	1453.819	1149.486
243.045	24.816	1452.288	1148.656
244.059	24.778	1451.690	1147.836
245.074	24.861	1452.247	1148.708
246.088	25.029	1451.419	1149.025
247.103	25.247	1448.992	1148.398
248.117	25.307	1449.502	1149.085
249.132	25.268	1449.031	1148.359
250.147	25.454	1448.630	1149.131
251.161	25.617	1448.344	1149.849
252.176	25.874	1447.104	1150.402
253.190	25.939	1446.532	1150.256
254.205	25.627	1446.029	1147.767
255.220	25.737	1445.057	1147.597
256.234	25.781	1444.713	1147.501
257.249	25.761	1444.551	1147.140
258.263	25.889	1443.200	1146.786
259.278	25.869	1441.577	1145.267
260.293	25.866	1440.222	1144.069
261.307	25.646	1440.411	1142.719
262.322	25.959	1439.989	1144.274
263.336	25.933	1439.544	1143.649
264.351	25.768	1438.147	1141.398
265.366	25.793	1436.990	1140.531
266.380	25.613	1436.068	1138.565
267.395	25.776	1435.616	1139.132
268.409	25.771	1434.012	1137.726
269.424	25.875	1433.818	1138.131
270.439	25.626	1431.865	1134.912
271.453	25.591	1431.864	1134.591
272.468	25.902	1428.862	1134.063
273.482	25.524	1429.506	1132.097
274.497	25.510	1427.679	1130.463
275.512	25.280	1428.797	1129.796
276.526	25.359	1427.246	1128.971
277.541	25.641	1425.989	1129.649
278.555	25.473	1425.652	1128.227
279.570	25.548	1423.710	1127.057
280.585	25.612	1424.631	1128.090
281.599	25.754	1423.568	1128.040
282.614	25.891	1423.359	1128.628
283.628	25.677	1420.749	1125.122
284.643	25.516	1420.207	1123.587
285.657	25.319	1418.877	1121.208
286.672	25.481	1418.254	1121.624
287.687	25.527	1417.021	1120.836
288.701	25.481	1416.578	1120.099
289.716	25.477	1415.466	1119.100
290.730	25.740	1414.209	1119.641
291.745	25.749	1414.512	1119.840
292.760	25.588	1414.239	1118.522
293.774	25.699	1412.244	1117.531
294.789	25.710	1410.397	1116.043
295.803	25.767	1410.663	1116.508
296.818	25.952	1410.414	1117.360
297.833	25.876	1408.355	1115.160
298.847	25.640	1407.841	1113.191
299.862	25.685	1407.203	1112.864
300.876	25.573	1406.398	1111.442
301.891	25.498	1404.990	1109.765
302.906	25.459	1404.129	1108.749
303.920	25.712	1403.708	1109.880
304.935	25.883	1403.944	1111.018
305.949	26.005	1403.480	1111.305
306.964	26.047	1402.739	1110.878
307.979	25.768	1401.983	1108.464
308.993	26.148	1400.740	1109.723
310.008	25.906	1399.939	1107.503
311.022	25.754	1398.273	1105.151
312.037	25.781	1398.528	1105.420
313.052	26.182	1397.036	1106.600
314.066	25.952	1395.279	1103.707
315.081	25.739	1394.382	1101.594
316.095	25.524	1393.830	1099.745
317.110	25.308	1391.929	1096.832
318.125	25.427	1390.384	1096.240
319.139	25.533	1389.992	1096.484
320.154	25.245	1390.027	1094.653
321.168	25.546	1389.076	1095.643
322.183	25.342	1388.248	1093.654
323.197	25.371	1386.629	1092.456
324.212	25.663	1384.834	1092.720
325.227	25.811	1384.619	1093.351
326.241	25.652	1384.612	1092.283
327.256	25.717	1383.689	1091.855
328.270	25.599	1383.457	1090.856
329.285	25.536	1382.261	1089.434
330.300	25.476	1381.373	1088.277
331.314	25.715	1379.121	1087.850
332.329	25.660	1379.486	1087.707
333.343	25.643	1379.182	1087.272
334.358	25.457	1377.214	1084.497
335.373	25.744	1377.291	1086.200
336.387	25.790	1376.080	1085.421
337.402	25.846	1376.371	1085.893
338.416	25.912	1375.431	1085.453
339.431	25.959	1375.031	1085.326
340.446	25.970	1375.121	1085.366
341.460	26.028	1373.388	1084.249
342.475	26.248	1373.561	1085.615
343.489	26.512	1372.183	1086.015
344.504	26.314	1370.968	1083.768
345.519	26.216	1370.954	1083.073
346.533	26.363	1369.396	1082.629
347.548	26.290	1368.935	1081.733
348.562	26.441	1367.382	1081.311
349.577	26.164	1367.848	1079.924
350.592	26.178	1365.923	1078.394
351.606	25.964	1365.496	1076.681
352.621	25.643	1364.151	1073.615
353.635	25.782	1362.398	1072.967
354.650	25.799	1361.712	1072.433
355.665	25.575	1361.288	1070.671
356.679	25.427	1360.447	1069.031
357.694	25.779	1359.240	1070.081
358.708	25.921	1358.177	1069.998
359.723	26.093	1356.581	1069.662
360.738	26.105	1355.517	1068.799
361.752	25.910	1355.523	1067.555
362.767	26.068	1353.377	1066.704
363.781	26.021	1352.738	1065.827
364.796	26.034	1352.294	1065.460
365.810	26.023	1351.536	1064.703
366.825	26.326	1351.230	1066.156
367.840	26.533	1350.393	1066.621
368.854	26.449	1349.321	1065.188
369.869	26.537	1350.028	1066.170
370.883	26.658	1348.663	1065.709
371.898	26.165	1349.296	1063.210
372.913	26.515	1347.451	1063.722
373.927	26.267	1346.401	1061.343
374.942	26.111	1345.617	1059.713
375.956	26.455	1344.782	1060.981
376.971	26.571	1343.761	1060.762
377.986	26.465	1343.061	1059.494
379.000	26.326	1342.693	1058.297
380.015	26.458	1341.720	1058.209
381.029	26.550	1341.136	1058.194
382.044	26.404	1341.413	1057.464
383.059	26.747	1339.713	1058.031
384.073	26.692	1338.771	1056.871
385.088	26.564	1338.736	1056.005
386.102	26.587	1337.950	1055.429
387.117	26.558	1338.099	1055.282
388.132	26.571	1335.932	1053.557
389.146	26.117	1335.319	1050.338
390.161	26.083	1335.189	1049.943
391.175	26.264	1333.505	1049.581
392.190	26.038	1332.680	1047.522
393.205	26.125	1332.913	1048.120
394.219	26.282	1331.925	1048.159
395.234	26.499	1330.688	1048.354
396.248	26.545	1329.392	1047.503
397.263	26.352	1327.806	1045.049
398.278	26.181	1326.577	1042.997
399.292	26.264	1324.789	1041.978
400.307	26.343	1324.375	1042.015
401.321	26.355	1323.619	1041.398
402.336	26.321	1322.237	1040.027
403.350	26.051	1321.433	1037.746
404.365	25.705	1320.982	1035.309
405.380	26.053	1319.870	1036.348
406.394	26.393	1318.436	1037.078
407.409	26.451	1318.758	1037.576
408.423	26.441	1317.166	1036.174
409.438	26.657	1316.594	1036.868
410.453	26.702	1316.426	1036.903
411.467	26.600	1317.180	1036.820
412.482	26.529	1316.417	1035.720
413.496	26.609	1315.050	1035.012
414.511	26.714	1314.668	1035.221
415.526	26.756	1314.136	1034.946
416.540	26.685	1313.383	1033.860
417.555	26.966	1312.714	1034.845
418.569	26.907	1311.091	1033.136
419.584	26.675	1311.181	1031.791
420.599	26.633	1310.395	1030.843
421.613	142.852	1435.078	1792.501
422.628	138.556	1453.204	1792.532
