DTS Sentinel unit serial number:	SN413079Multiplexer serial number:	ORYXHardware model number:	OX4-SRSoftware version number:	ORYX F/W v4.00 Oryx Data Collector v3.7.2.0data status	okinstallation	princeton_trtdifferential loss correction	single-endedforward channel	channel 4reverse channel	N/Adate	2019/09/12time	08:31:11forward acquisition time	60.00reverse acquisition time	0.00gamma	496.2192k internal	0.2301k external	0.2301temperature offset calibration	1.0063default loss term (dB/km)	0.3790temperature slope calibration	1.0000multiplexer offset coefficient	1.0000multiplexer slope coefficient	1.0000fibre end	0.00T internal ref (°C)	33.67T ext. ref 1 (°C)	1.71T ext. ref 2 (°C)	29.80length (m)	temperature (°C)	Stokes	anti-Stokes-747.200	-138.359	0.241	-0.027
-746.185	-200.000	-0.034	0.256
-745.171	-169.500	0.180	0.007
-744.156	260.266	-0.132	0.233
-743.142	-105.644	0.086	0.020
-742.127	356.719	0.098	0.199
-741.112	800.000	-0.022	0.089
-740.098	-80.170	0.313	-0.107
-739.083	-78.403	-0.140	-0.049
-738.069	378.692	0.067	0.140
-737.054	-65.323	-0.248	0.102
-736.039	800.000	0.058	-0.244
-735.025	0.286	0.211	0.154
-734.010	-112.088	-0.304	0.062
-732.996	467.839	-0.047	-0.107
-731.981	-129.156	-0.093	-0.013
-730.966	231.216	-0.097	-0.162
-729.952	381.120	0.137	-0.285
-728.937	-200.000	-0.031	-0.301
-727.923	722.632	-0.138	-0.375
-726.908	-200.000	-0.067	-0.312
-725.894	800.000	-0.040	-0.164
-724.879	440.124	-0.113	-0.250
-723.864	706.152	0.079	-0.213
-722.850	146.731	-0.211	0.289
-721.835	-46.623	0.342	-0.171
-720.821	-200.000	-0.001	0.026
-719.806	379.899	-0.137	-0.285
-718.791	-200.000	0.072	0.369
-717.777	387.765	-0.034	-0.072
-716.762	-200.000	-0.040	-0.202
-715.748	800.000	0.026	-0.089
-714.733	-200.000	0.019	-0.097
-713.718	-123.577	-0.045	0.007
-712.704	-200.000	-0.028	0.126
-711.689	-83.414	0.325	-0.106
-710.675	-113.157	0.241	-0.048
-709.660	-8.634	0.121	-0.082
-708.645	-109.174	-0.388	-0.084
-707.631	-29.545	0.114	-0.066
-706.616	-100.894	-0.325	0.081
-705.602	202.085	-0.050	0.078
-704.587	-200.000	-0.068	0.000
-703.572	3.701	0.229	-0.170
-702.558	-200.000	0.070	0.330
-701.543	180.754	0.141	0.210
-700.529	-128.455	-0.279	-0.040
-699.514	800.000	0.069	-0.211
-698.499	387.468	0.076	-0.160
-697.485	426.769	-0.009	0.021
-696.470	-36.974	0.130	0.071
-695.456	286.639	0.047	-0.086
-694.441	-42.726	0.219	0.113
-693.426	-54.386	-0.265	-0.122
-692.412	-16.285	0.119	0.077
-691.397	-59.552	0.146	0.064
-690.383	-200.000	-0.015	0.470
-689.368	-93.477	0.109	0.031
-688.354	-104.128	-0.398	-0.094
-687.339	-159.761	0.382	0.021
-686.324	-23.027	0.070	0.043
-685.310	-112.711	-0.128	-0.026
-684.295	-200.000	0.012	-0.182
-683.281	536.006	0.049	0.118
-682.266	-200.000	0.050	0.530
-681.251	-93.347	0.157	-0.044
-680.237	-200.000	-0.015	0.103
-679.222	-60.609	0.073	-0.032
-678.208	8.827	0.166	0.127
-677.193	-200.000	-0.003	-0.079
-676.178	194.160	0.216	0.333
-675.164	-27.176	-0.283	0.168
-674.149	26.870	0.124	0.106
-673.135	196.730	-0.073	-0.113
-672.120	-111.530	-0.172	0.035
-671.105	238.137	0.103	-0.173
-670.091	431.321	0.075	0.164
-669.076	39.260	-0.078	0.071
-668.062	2.926	0.058	0.043
-667.047	800.000	-0.032	0.096
-666.032	294.874	0.248	-0.460
-665.018	-159.238	0.165	-0.009
-664.003	-6.017	0.086	0.060
-662.989	-150.307	-0.330	-0.026
-661.974	112.305	0.092	0.113
-660.959	390.767	0.214	-0.452
-659.945	800.000	0.036	-0.127
-658.930	268.931	0.146	-0.260
-657.916	-4.959	0.101	-0.071
-656.901	-21.584	0.238	0.147
-655.886	-200.000	-0.029	-0.232
-654.872	44.184	-0.191	-0.178
-653.857	-94.310	-0.206	0.057
-652.843	-153.676	0.224	-0.016
-651.828	102.364	-0.131	-0.156
-650.814	-200.000	0.001	-0.199
-649.799	-66.327	-0.279	0.113
-648.784	-169.938	-0.137	-0.005
-647.770	-136.215	-0.182	-0.022
-646.755	-200.000	0.011	0.053
-645.741	-121.046	0.232	-0.040
-644.726	233.291	0.101	0.169
-643.711	-177.817	-0.177	0.004
-642.697	382.757	-0.065	-0.135
-641.682	-41.981	-0.169	-0.088
-640.668	76.733	0.109	0.117
-639.653	109.779	-0.256	0.312
-638.638	-34.105	-0.401	0.224
-637.624	-73.924	0.065	-0.024
-636.609	128.770	0.202	-0.262
-635.595	-107.761	0.082	-0.018
-634.580	127.322	-0.072	0.093
-633.565	144.249	0.162	0.219
-632.551	800.000	-0.092	0.359
-631.536	85.140	-0.143	0.159
-630.522	-137.310	-0.154	-0.018
-629.507	48.330	0.083	-0.079
-628.492	-115.234	-0.121	-0.023
-627.478	-108.385	0.496	-0.108
-626.463	-115.491	0.236	0.045
-625.449	-28.756	-0.064	-0.037
-624.434	48.941	0.148	0.141
-623.419	-78.528	0.418	-0.145
-622.405	48.935	0.116	0.111
-621.390	50.858	0.086	0.083
-620.376	-163.596	-0.400	-0.019
-619.361	-196.548	-0.343	-0.002
-618.346	800.000	-0.078	-0.286
-617.332	800.000	-0.010	0.037
-616.317	-11.168	0.019	-0.013
-615.303	-141.647	0.170	0.017
-614.288	286.330	0.075	-0.138
-613.273	251.446	-0.170	-0.293
-612.259	338.907	-0.034	0.068
-611.244	-110.538	0.089	-0.019
-610.230	-79.007	-0.241	0.083
-609.215	-131.194	0.309	-0.042
-608.201	226.651	-0.116	0.191
-607.186	-45.125	-0.080	-0.040
-606.171	-8.377	-0.066	-0.045
-605.157	710.184	-0.010	-0.027
-604.142	-49.440	-0.196	0.095
-603.128	800.000	-0.034	0.121
-602.113	-147.989	-0.143	-0.012
-601.098	121.703	0.171	0.216
-600.084	131.928	-0.147	0.191
-599.069	94.805	-0.182	0.210
-598.055	141.175	-0.074	-0.099
-597.040	-141.066	0.244	-0.025
-596.025	-200.000	0.022	-0.159
-595.011	-71.794	0.143	0.054
-593.996	-87.392	0.551	-0.169
-592.982	-200.000	-0.404	0.001
-591.967	-28.246	-0.269	0.158
-590.952	288.680	-0.098	-0.180
-589.938	132.766	0.073	-0.095
-588.923	800.000	0.068	0.218
-587.909	-70.590	-0.303	0.116
-586.894	212.580	0.060	0.096
-585.879	-48.483	-0.042	-0.021
-584.865	800.000	0.038	0.147
-583.850	71.197	0.119	0.125
-582.836	-54.207	-0.173	0.079
-581.821	22.647	-0.241	-0.200
-580.806	-200.000	-0.028	-0.238
-579.792	-200.000	0.036	0.261
-578.777	77.653	0.097	0.105
-577.763	-87.096	-0.092	-0.028
-576.748	-122.621	0.304	-0.050
-575.733	10.950	0.035	0.027
-574.719	-200.000	-0.034	-0.249
-573.704	100.135	-0.131	0.154
-572.690	19.403	-0.157	0.128
-571.675	800.000	0.029	-0.107
-570.661	130.173	-0.128	0.166
-569.646	-200.000	-0.070	0.482
-568.631	-200.000	-0.007	0.145
-567.617	800.000	-0.102	-0.363
-566.602	419.465	0.045	-0.099
-565.588	-200.000	0.047	-0.222
-564.573	-200.000	0.011	-0.092
-563.558	-148.404	-0.351	-0.029
-562.544	-13.024	0.043	-0.028
-561.529	-133.085	0.180	0.023
-560.515	800.000	-0.169	0.477
-559.500	355.026	-0.085	0.172
-558.485	-152.474	0.303	0.022
-557.471	226.710	-0.250	-0.410
-556.456	35.965	-0.290	0.258
-555.442	-115.664	0.196	0.037
-554.427	-0.856	0.212	-0.152
-553.412	-169.581	0.062	0.002
-552.398	800.000	-0.029	0.104
-551.383	-58.209	0.125	-0.055
-550.369	-88.070	-0.156	-0.047
-549.354	-30.056	-0.232	-0.134
-548.339	48.577	0.251	-0.238
-547.325	-7.753	-0.146	0.100
-546.310	-54.817	-0.138	-0.063
-545.296	-200.000	-0.044	0.272
-544.281	322.427	0.154	0.296
-543.266	-39.867	0.211	0.111
-542.252	108.745	-0.242	0.292
-541.237	-71.347	0.192	0.073
-540.223	-200.000	-0.039	-0.362
-539.208	-84.934	-0.184	-0.058
-538.193	-200.000	0.162	-0.000
-537.179	181.317	-0.182	-0.270
-536.164	7.697	-0.269	-0.204
-535.150	-102.011	-0.298	0.073
-534.135	611.279	-0.042	0.105
-533.121	-126.145	-0.091	0.014
-532.106	-200.000	0.049	0.308
-531.091	-200.000	0.049	-0.293
-530.077	-88.347	-0.128	0.039
-529.062	124.289	0.292	0.371
-528.048	-32.911	0.160	0.090
-527.033	-2.506	0.143	-0.101
-526.018	-200.000	-0.022	-0.239
-525.004	-63.596	0.128	-0.053
-523.989	-146.423	-0.203	-0.018
-522.975	41.328	0.154	0.141
-521.960	-200.000	0.024	-0.248
-520.945	-133.808	0.052	-0.007
-519.931	630.343	-0.074	0.190
-518.916	-200.000	-0.032	-0.340
-517.902	-200.000	0.008	0.163
-516.887	-112.478	-0.091	-0.018
-515.872	12.237	-0.212	-0.165
-514.858	43.568	0.336	0.310
-513.843	800.000	0.076	-0.316
-512.829	56.552	0.131	-0.129
-511.814	-50.103	0.204	-0.097
-510.799	-170.845	-0.379	0.013
-509.785	-200.000	-0.008	-0.070
-508.770	800.000	-0.054	-0.171
-507.756	-128.901	0.135	-0.019
-506.741	-80.408	0.060	-0.020
-505.726	78.098	-0.032	-0.034
-504.712	540.751	-0.042	0.101
-503.697	-200.000	0.038	-0.343
-502.683	-73.552	0.128	-0.047
-501.668	-170.027	-0.219	0.008
-500.653	69.728	0.166	0.173
-499.639	685.246	0.123	0.323
-498.624	-163.733	-0.183	-0.009
-497.610	438.829	-0.116	-0.256
-496.595	-18.049	-0.062	-0.039
-495.581	-200.000	-0.003	0.122
-494.566	-200.000	-0.030	0.165
-493.551	137.528	0.093	-0.123
-492.537	321.927	-0.037	0.071
-491.522	-37.389	0.017	-0.009
-490.508	-140.350	-0.115	0.012
-489.493	2.743	0.339	0.248
-488.478	-105.582	-0.153	-0.035
-487.464	-114.867	-0.133	0.026
-486.449	-33.317	0.067	0.038
-485.435	-54.336	-0.112	0.051
-484.420	80.247	-0.312	-0.339
-483.405	29.315	-0.171	-0.146
-482.391	208.727	-0.115	-0.181
-481.376	117.193	-0.098	-0.122
-480.362	19.787	0.114	-0.093
-479.347	-27.794	0.192	0.113
-478.332	585.761	0.081	-0.202
-477.318	127.150	-0.013	-0.017
-476.303	-10.370	0.132	-0.088
-475.289	-174.426	-0.209	-0.006
-474.274	-126.746	-0.097	-0.014
-473.259	129.893	0.079	0.102
-472.245	800.000	0.047	0.187
-471.230	-200.000	0.001	-0.121
-470.216	-76.699	0.142	0.050
-469.201	121.889	-0.051	-0.065
-468.186	-200.000	0.034	-0.278
-467.172	-200.000	-0.039	0.275
-466.157	-62.914	0.116	0.048
-465.143	744.165	0.089	-0.242
-464.128	-200.000	0.045	-0.462
-463.113	39.180	-0.130	0.117
-462.099	-200.000	-0.054	-0.261
-461.084	-133.756	0.135	-0.017
-460.070	800.000	-0.065	-0.286
-459.055	-172.927	0.143	0.004
-458.040	106.897	-0.126	0.151
-457.026	302.744	0.061	-0.113
-456.011	79.068	-0.120	-0.130
-454.997	54.304	0.175	-0.170
-453.982	-55.337	-0.139	-0.063
-452.968	-93.498	0.082	0.023
-451.953	22.278	-0.185	-0.152
-450.938	262.769	-0.046	-0.080
-449.924	-156.618	-0.269	-0.017
-448.909	-200.000	0.021	0.205
-447.895	-165.048	0.207	-0.009
-446.880	238.869	0.115	0.192
-445.865	-160.621	-0.308	0.017
-444.851	-28.545	0.142	-0.083
-443.836	800.000	0.164	-0.475
-442.822	-11.966	-0.293	-0.194
-441.807	106.124	0.150	-0.179
-440.792	15.701	-0.496	-0.393
-439.778	32.800	-0.339	0.296
-438.763	-200.000	0.036	0.324
-437.749	116.040	-0.120	0.148
-436.734	-200.000	-0.016	0.112
-435.719	166.020	0.082	0.117
-434.705	-57.159	0.392	-0.174
-433.690	-124.381	0.126	0.020
-432.676	-20.406	0.092	-0.057
-431.661	250.997	-0.046	0.078
-430.646	310.373	-0.139	-0.261
-429.632	554.306	-0.092	-0.222
-428.617	-108.277	0.432	-0.094
-427.603	-128.779	-0.182	-0.026
-426.588	800.000	-0.027	-0.094
-425.573	-200.000	-0.008	0.155
-424.559	-82.433	0.144	-0.047
-423.544	-75.472	-0.030	-0.011
-422.530	27.745	-0.228	0.193
-421.515	90.632	0.008	0.009
-420.500	-60.783	0.205	0.087
-419.486	-200.000	0.056	0.447
-418.471	7.167	-0.269	0.202
-417.457	146.077	0.103	0.139
-416.442	-36.692	-0.106	-0.057
-415.428	-200.000	-0.008	-0.073
-414.413	-186.605	0.164	-0.002
-413.398	51.236	-0.239	0.228
-412.384	-115.529	0.384	0.073
-411.369	60.992	0.139	0.139
-410.355	-22.318	-0.264	0.161
-409.340	-90.639	-0.537	0.156
-408.325	314.453	-0.099	0.187
-407.311	-130.214	0.130	0.018
-406.296	-200.000	0.018	0.255
-405.282	-42.732	0.224	0.115
-404.267	-115.751	0.079	0.015
-403.252	665.021	-0.107	0.279
-402.238	-114.311	-0.341	-0.066
-401.223	-200.000	-0.020	0.192
-400.209	-200.000	-0.016	0.079
-399.194	-47.767	0.206	0.100
-398.179	79.444	-0.212	-0.229
-397.165	-200.000	0.013	0.153
-396.150	-200.000	0.035	-0.245
-395.136	-52.012	-0.158	0.074
-394.121	-65.459	-0.071	0.029
-393.106	-87.602	-0.140	0.042
-392.092	70.649	-0.223	-0.232
-391.077	564.858	0.074	0.181
-390.063	175.978	-0.160	0.234
-389.048	236.066	0.091	0.151
-388.033	348.975	0.118	-0.234
-387.019	-89.342	-0.363	0.108
-386.004	-200.000	-0.041	0.186
-384.990	-104.970	0.211	-0.049
-383.975	-106.198	0.092	0.021
-382.960	-117.003	-0.280	-0.051
-381.946	-192.151	-0.197	-0.002
-380.931	-131.169	0.180	0.024
-379.917	-200.000	-0.046	0.256
-378.902	4.240	0.281	0.207
-377.888	11.897	-0.186	0.144
-376.873	8.154	0.136	0.103
-375.858	-127.233	0.130	0.019
-374.844	314.515	-0.096	0.182
-373.829	409.861	-0.065	0.139
-372.815	-109.739	0.401	0.085
-371.800	224.488	-0.139	0.226
-370.785	475.752	0.140	-0.317
-369.771	800.000	0.074	0.262
-368.756	-200.000	0.008	0.108
-367.742	800.000	-0.080	-0.264
-366.727	-109.065	-0.059	-0.013
-365.712	402.073	-0.044	-0.092
-364.698	800.000	-0.023	-0.090
-363.683	55.153	0.202	-0.196
-362.669	-53.091	-0.033	-0.015
-361.654	592.011	0.118	-0.292
-360.639	-90.142	0.127	0.037
-359.625	439.843	0.094	-0.207
-358.610	9.263	0.042	-0.032
-357.596	-39.707	-0.320	0.168
-356.581	-164.105	-0.139	0.006
-355.566	800.000	0.024	-0.102
-354.552	-200.000	-0.029	-0.150
-353.537	-200.000	0.006	0.132
-352.523	-46.666	0.125	-0.062
-351.508	-145.637	0.179	0.016
-350.493	173.923	0.148	0.214
-349.479	-64.951	0.284	0.115
-348.464	113.150	-0.098	-0.119
-347.450	222.158	0.039	-0.063
-346.435	-200.000	-0.005	0.056
-345.420	-200.000	0.013	0.144
-344.406	82.937	0.121	-0.132
-343.391	-109.997	-0.236	-0.050
-342.377	-142.349	-0.236	0.023
-341.362	-200.000	-0.042	0.502
-340.348	-133.893	0.189	0.023
-339.333	89.607	0.194	0.217
-338.318	800.000	0.060	0.258
-337.304	160.936	-0.094	0.132
-336.289	-113.267	0.335	0.066
-335.275	-170.950	-0.196	0.007
-334.260	-3.270	0.194	-0.135
-333.245	-81.630	0.118	-0.039
-332.231	-194.601	0.233	0.002
-331.216	133.271	0.019	-0.024
-330.202	-65.643	0.258	0.104
-329.187	-167.425	-0.136	-0.005
-328.172	800.000	-0.112	-0.362
-327.158	-200.000	0.003	-0.261
-326.143	-64.067	0.094	-0.038
-325.129	47.300	-0.162	0.151
-324.114	-139.686	0.273	-0.029
-323.099	-62.727	-0.370	0.154
-322.085	73.985	0.339	0.356
-321.070	41.284	0.114	0.103
-320.056	54.747	0.038	0.037
-319.041	-19.779	0.139	0.086
-318.026	682.002	0.128	0.334
-317.012	-94.672	-0.244	0.066
-315.997	-200.000	0.059	0.284
-314.983	-200.000	-0.033	0.162
-313.968	-200.000	-0.024	-0.185
-312.953	-77.874	-0.103	-0.036
-311.939	-145.910	0.118	0.010
-310.924	10.861	0.287	0.220
-309.910	-33.690	-0.252	0.139
-308.895	800.000	0.052	0.195
-307.880	389.694	-0.164	-0.341
-306.866	-60.253	0.138	0.059
-305.851	54.706	0.037	-0.036
-304.837	800.000	-0.018	-0.063
-303.822	-49.281	-0.203	0.097
-302.807	106.383	-0.271	-0.322
-301.793	-32.055	0.190	-0.107
-300.778	-168.037	-0.170	-0.007
-299.764	-30.948	0.321	-0.182
-298.749	27.369	0.039	-0.033
-297.735	27.876	-0.180	0.152
-296.720	800.000	-0.064	0.254
-295.705	548.767	0.089	0.213
-294.691	241.196	-0.144	-0.240
-293.676	-138.115	0.174	-0.019
-292.662	-200.000	-0.034	0.390
-291.647	-200.000	0.072	-0.378
-290.632	-104.227	0.201	-0.047
-289.618	28.547	0.109	-0.092
-288.603	33.460	-0.225	0.196
-287.589	-200.000	0.030	0.273
-286.574	-200.000	0.004	0.145
-285.559	19.150	0.036	-0.029
-284.545	-160.822	0.452	0.024
-283.530	-21.267	0.149	0.091
-282.516	-5.093	0.175	0.121
-281.501	-165.569	0.281	-0.012
-280.486	152.513	0.060	-0.082
-279.472	270.639	-0.024	0.042
-278.457	-17.278	-0.257	-0.162
-277.443	-200.000	0.006	-0.390
-276.428	-13.545	-0.081	-0.053
-275.413	28.069	-0.130	0.110
-274.399	-172.122	0.146	-0.005
-273.384	35.738	0.286	-0.252
-272.370	800.000	0.016	0.053
-271.355	217.577	-0.230	-0.367
-270.340	-31.428	0.161	-0.091
-269.326	255.964	-0.105	-0.181
-268.311	-200.000	0.005	0.153
-267.297	284.934	0.026	-0.048
-266.282	-166.335	0.267	-0.011
-265.267	-157.406	-0.112	0.007
-264.253	18.222	0.363	0.290
-263.238	-130.728	-0.090	-0.012
-262.224	-150.251	0.168	-0.013
-261.209	-74.154	0.362	0.131
-260.195	-96.847	0.364	-0.096
-259.180	210.051	0.290	-0.455
-258.165	-103.668	-0.196	-0.046
-257.151	-96.089	0.240	-0.064
-256.136	-200.000	-0.004	-0.112
-255.122	71.857	0.136	-0.141
-254.107	-74.691	-0.065	-0.023
-253.092	146.503	0.107	-0.144
-252.078	-39.216	0.207	0.109
-251.063	-119.034	0.197	0.034
-250.049	54.639	0.168	0.162
-249.034	-39.993	0.025	-0.013
-248.019	-200.000	0.000	-0.157
-247.005	-137.210	0.356	0.041
-245.990	-105.489	0.283	0.064
-244.976	800.000	0.050	0.175
-243.961	-200.000	0.004	-0.116
-242.946	-146.226	-0.190	0.017
-241.932	220.434	-0.067	-0.107
-240.917	291.637	0.091	0.166
-239.903	-200.000	-0.019	0.178
-238.888	-29.073	-0.360	0.206
-237.873	-10.234	0.089	0.059
-236.859	-39.299	-0.425	0.223
-235.844	-137.915	-0.207	0.023
-234.830	800.000	-0.145	0.442
-233.815	5.031	-0.070	-0.051
-232.800	-21.934	-0.231	-0.140
-231.786	-200.000	-0.030	0.415
-230.771	-91.726	0.117	-0.033
-229.757	250.742	-0.052	0.088
-228.742	800.000	0.098	-0.377
-227.727	260.659	-0.116	0.200
-226.713	22.535	0.214	-0.175
-225.698	800.000	0.109	-0.385
-224.684	-200.000	-0.020	-0.164
-223.669	318.464	-0.109	-0.206
-222.655	-38.951	0.286	0.151
-221.640	-77.229	0.151	0.053
-220.625	71.540	0.122	-0.127
-219.611	111.374	0.143	0.172
-218.596	-169.616	-0.382	-0.014
-217.582	-59.335	0.519	-0.223
-216.567	231.999	0.062	-0.102
-215.552	-109.816	-0.168	-0.035
-214.538	-49.001	-0.149	-0.071
-213.523	-95.686	-0.224	-0.060
-212.509	-15.282	-0.408	-0.260
-211.494	49.707	0.212	-0.200
-210.479	-11.140	0.154	0.101
-209.465	-59.675	0.155	-0.067
-208.450	-100.532	-0.084	0.021
-207.436	200.146	0.021	-0.032
-206.421	-98.487	0.156	-0.040
-205.406	-200.000	0.027	-0.122
-204.392	248.149	-0.180	-0.304
-203.377	415.640	-0.033	-0.070
-202.363	800.000	0.045	-0.173
-201.348	59.406	-0.128	-0.126
-200.333	66.012	-0.089	-0.090
-199.319	150.533	-0.152	0.206
-198.304	-81.824	-0.263	0.086
-197.290	136.085	-0.165	-0.215
-196.275	-185.810	0.353	-0.005
-195.260	-176.059	0.091	0.002
-194.246	-200.000	0.166	-0.001
-193.231	-200.000	0.034	-0.339
-192.217	800.000	-0.075	0.251
-191.202	-200.000	-0.009	0.112
-190.187	696.783	-0.138	0.362
-189.173	-36.842	-0.077	-0.041
-188.158	84.241	-0.139	0.151
-187.144	800.000	0.050	-0.207
-186.129	-200.000	0.044	-0.230
-185.114	800.000	0.071	-0.272
-184.100	-200.000	0.095	0.419
-183.085	391.082	-0.026	-0.055
-182.071	800.000	0.074	-0.248
-181.056	-136.257	-0.227	0.026
-180.042	800.000	-0.033	-0.097
-179.027	3.049	-0.052	0.038
-178.012	-4.854	-0.212	-0.146
-176.998	-200.000	0.008	-0.090
-175.983	-105.895	-0.155	-0.035
-174.969	313.588	-0.026	0.049
-173.954	-69.123	-0.397	0.152
-172.939	42.926	-0.296	-0.269
-171.925	-4.235	0.105	-0.073
-170.910	800.000	0.093	-0.390
-169.896	-20.830	-0.187	0.115
-168.881	51.858	0.058	-0.055
-167.866	-127.916	0.347	-0.050
-166.852	800.000	0.091	-0.336
-165.837	-200.000	-0.030	0.252
-164.823	6.763	-0.233	-0.173
-163.808	25.891	0.089	0.074
-162.793	-200.000	0.066	-0.389
-161.779	-200.000	-0.026	0.133
-160.764	-26.668	-0.160	-0.093
-159.750	153.688	-0.153	-0.209
-158.735	800.000	0.046	0.156
-157.720	53.419	-0.151	0.144
-156.706	-74.284	-0.088	0.032
-155.691	552.246	0.156	-0.374
-154.677	-100.202	0.208	0.052
-153.662	-104.166	0.263	0.061
-152.647	-165.657	-0.271	-0.012
-151.633	-80.406	0.321	-0.107
-150.618	783.153	-0.050	-0.136
-149.604	-0.277	0.492	-0.349
-148.589	14.305	-0.165	-0.128
-147.574	6.620	-0.259	0.192
-146.560	53.041	0.369	0.351
-145.545	-110.755	0.280	0.057
-144.531	109.552	-0.167	0.199
-143.516	-200.000	0.062	0.382
-142.502	-200.000	0.023	0.345
-141.487	-200.000	-0.004	-0.241
-140.472	800.000	-0.066	0.217
-139.458	800.000	-0.072	0.200
-138.443	20.319	-0.195	0.157
-137.429	-107.329	0.260	-0.057
-136.414	11.046	0.030	-0.023
-135.399	-116.026	0.181	-0.034
-134.385	74.651	0.183	-0.191
-133.370	386.472	-0.076	0.156
-132.356	152.814	-0.144	-0.196
-131.341	-4.485	0.265	-0.182
-130.326	56.880	-0.138	-0.134
-129.312	-200.000	-0.012	-0.215
-128.297	-182.744	-0.254	-0.005
-127.283	101.113	0.082	0.095
-126.268	-157.462	-0.124	-0.007
-125.253	-12.930	0.192	-0.124
-124.239	-200.000	0.012	-0.205
-123.224	-71.337	0.258	-0.096
-122.210	-20.313	-0.202	-0.124
-121.195	621.456	-0.105	-0.263
-120.180	800.000	-0.173	-0.535
-119.166	-23.905	0.201	-0.120
-118.151	66.512	0.123	0.125
-117.137	731.185	0.147	0.391
-116.122	111.599	0.080	0.095
-115.107	-38.970	0.264	-0.138
-114.093	-108.807	0.415	0.088
-113.078	109.940	0.163	-0.195
-112.064	-200.000	-0.032	0.168
-111.049	-127.696	-0.246	0.035
-110.034	-150.725	0.049	0.004
-109.020	159.835	0.082	-0.114
-108.005	613.402	0.059	-0.146
-106.991	265.139	0.204	-0.354
-105.976	146.555	-0.040	-0.054
-104.962	800.000	-0.046	0.130
-103.947	-200.000	0.032	-0.206
-102.932	-200.000	0.055	-0.263
-101.918	190.287	-0.103	-0.154
-100.903	-152.003	0.214	0.015
-99.889	740.040	-0.073	-0.194
-98.874	800.000	0.092	-0.258
-97.859	-93.843	-0.258	-0.071
-96.845	-88.158	0.157	-0.047
-95.830	-91.811	-0.180	0.051
-94.816	-5.220	-0.355	-0.243
-93.801	188.842	0.113	0.168
-92.786	92.663	0.271	-0.303
-91.772	-57.207	-0.528	0.231
-90.757	-45.504	0.257	0.127
-89.743	-32.942	-0.091	-0.050
-88.728	-200.000	-0.009	-0.039
-87.713	-200.000	-0.057	-0.288
-86.699	250.683	-0.148	-0.249
-85.684	-65.459	-0.185	-0.074
-84.670	199.830	0.022	0.034
-83.655	157.574	-0.209	0.288
-82.640	650.199	0.084	-0.214
-81.626	-10.435	-0.187	0.123
-80.611	165.475	0.121	0.170
-79.597	4.453	0.271	0.197
-78.582	-152.207	0.199	0.014
-77.567	71.246	-0.087	-0.090
-76.553	800.000	-0.070	0.293
-75.538	-156.706	-0.124	0.008
-74.524	-57.875	0.221	-0.096
-73.509	-59.559	0.051	-0.022
-72.494	538.785	-0.058	0.137
-71.480	143.024	-0.073	-0.097
-70.465	-95.145	-0.299	0.080
-69.451	800.000	0.096	0.268
-68.436	355.258	0.090	0.178
-67.422	-11.419	-0.158	-0.103
-66.407	-41.211	-0.388	-0.198
-65.392	133.276	0.117	-0.151
-64.378	-177.900	-0.109	0.003
-63.363	800.000	0.047	0.137
-62.349	-107.560	-0.204	-0.044
-61.334	7.040	-0.907	-0.671
-60.319	-2.733	0.456	0.316
-59.305	-200.000	-0.069	-1.274
-58.290	62.216	0.790	0.782
-57.276	275.107	0.880	1.548
-56.261	-200.000	98.714	590.829
-55.246	524.186	1416.838	3305.921
-54.232	146.033	2627.978	3497.442
-53.217	102.622	2334.700	2709.883
-52.203	40.132	2080.065	1855.173
-51.188	35.373	1992.399	1734.026
-50.173	33.779	1974.373	1703.976
-49.159	48.948	2026.660	1887.399
-48.144	51.243	2046.027	1926.239
-47.130	36.106	2003.454	1750.025
-46.115	33.774	1991.653	1718.567
-45.100	33.563	1989.710	1714.918
-44.086	33.534	1986.920	1712.181
-43.071	33.540	1984.026	1709.676
-42.057	33.410	1982.096	1706.769
-41.042	33.485	1980.291	1705.823
-40.027	33.415	1978.860	1703.894
-39.013	33.520	1976.394	1702.645
-37.998	33.580	1974.007	1701.059
-36.984	33.520	1972.618	1699.262
-35.969	33.653	1970.302	1698.383
-34.954	33.571	1969.071	1696.526
-33.940	33.632	1967.654	1695.782
-32.925	33.667	1965.767	1694.401
-31.911	33.703	1963.793	1692.953
-30.896	33.649	1962.259	1691.084
-29.881	33.699	1961.060	1690.431
-28.867	33.752	1959.616	1689.589
-27.852	33.718	1957.883	1687.727
-26.838	33.745	1955.837	1686.136
-25.823	33.685	1953.963	1683.914
-24.809	33.649	1952.188	1682.006
-23.794	33.602	1950.998	1680.497
-22.779	33.735	1948.531	1679.479
-21.765	33.608	1947.512	1677.410
-20.750	33.678	1945.756	1676.447
-19.736	33.700	1944.022	1675.082
-18.721	33.706	1942.275	1673.565
-17.706	33.709	1940.907	1672.350
-16.692	33.721	1938.730	1670.507
-15.677	33.737	1937.252	1669.307
-14.663	33.767	1935.577	1668.064
-13.648	33.748	1934.794	1667.161
-12.633	33.740	1933.824	1666.187
-11.619	33.746	1932.668	1665.171
-10.604	33.736	1931.372	1663.906
-9.590	33.692	1930.077	1662.334
-8.575	33.673	1928.244	1660.527
-7.560	33.680	1927.076	1659.519
-6.546	33.702	1926.122	1658.819
-5.531	33.665	1925.178	1657.619
-4.517	33.718	1923.477	1656.554
-3.502	33.737	1922.003	1655.379
-2.487	33.670	1921.092	1653.949
-1.473	33.744	1919.486	1653.141
-0.458	33.814	1915.447	1650.206
0.556	33.536	1896.658	1623.771
1.571	29.695	1877.516	1574.599
2.586	25.993	1900.282	1561.563
3.600	25.090	1936.601	1583.292
4.615	24.257	1931.982	1572.036
5.629	17.942	1826.740	1433.436
6.644	7.209	1703.364	1252.068
7.659	2.142	1665.084	1184.595
8.673	1.765	1661.353	1178.918
9.688	1.780	1659.464	1177.585
10.702	1.750	1658.080	1176.270
11.717	1.556	1655.004	1172.488
12.731	1.848	1653.921	1173.871
13.746	8.718	1671.346	1239.460
14.761	19.659	1695.979	1343.124
15.775	25.411	1705.790	1395.603
16.790	26.346	1707.199	1403.900
17.804	26.502	1706.895	1404.735
18.819	26.572	1705.959	1404.386
19.834	26.677	1705.431	1404.642
20.848	26.881	1704.675	1405.473
21.863	26.982	1703.770	1405.389
22.877	26.967	1702.819	1404.363
23.892	27.037	1702.168	1404.243
24.907	26.969	1701.056	1402.672
25.921	26.980	1700.215	1401.942
26.936	26.986	1698.951	1400.819
27.950	27.023	1698.054	1400.240
28.965	26.919	1697.683	1399.009
29.980	27.011	1696.765	1398.839
30.994	27.031	1695.235	1397.607
32.009	26.967	1694.161	1396.110
33.023	26.867	1693.823	1394.937
34.038	26.996	1692.227	1394.492
35.053	26.938	1691.236	1393.104
36.067	27.009	1689.992	1392.502
37.082	27.011	1689.143	1391.691
38.096	27.042	1688.620	1391.374
39.111	26.977	1687.775	1390.061
40.126	26.909	1687.205	1388.947
41.140	26.939	1686.581	1388.542
42.155	26.936	1685.308	1387.343
43.169	26.960	1684.257	1386.543
44.184	27.013	1683.157	1385.918
45.199	26.999	1681.976	1384.719
46.213	26.964	1680.651	1383.232
47.228	26.928	1679.766	1382.111
48.242	26.967	1678.301	1381.082
49.257	26.996	1677.359	1380.403
50.271	27.006	1676.037	1379.268
51.286	26.879	1675.216	1377.507
52.301	27.000	1673.541	1376.926
53.315	26.967	1672.150	1375.408
54.330	26.924	1670.969	1373.987
55.344	27.004	1669.237	1373.053
56.359	26.916	1668.470	1371.633
57.374	27.022	1667.258	1371.315
58.388	26.985	1666.102	1369.962
59.403	27.003	1665.258	1369.284
60.417	26.991	1664.072	1368.099
61.432	26.962	1663.007	1366.880
62.447	26.973	1662.200	1366.178
63.461	26.979	1660.908	1365.042
64.476	26.973	1660.334	1364.403
65.490	26.894	1659.463	1362.974
66.505	27.024	1658.233	1362.821
67.520	27.004	1656.596	1361.203
68.534	26.985	1656.075	1360.513
69.549	26.981	1655.483	1359.878
70.563	26.990	1653.508	1358.200
71.578	26.959	1652.757	1357.236
72.593	27.039	1651.797	1356.924
73.607	27.047	1650.975	1356.190
74.622	27.007	1650.174	1355.110
75.636	27.022	1649.026	1354.158
76.651	26.993	1648.284	1353.212
77.666	26.994	1647.640	1352.572
78.680	26.959	1646.943	1351.624
79.695	27.047	1645.601	1351.057
80.709	27.038	1644.551	1350.008
81.724	27.034	1644.242	1349.603
82.739	26.971	1643.453	1348.366
83.753	27.051	1642.065	1347.704
84.768	27.011	1641.171	1346.553
85.782	26.900	1640.589	1345.134
86.797	26.984	1639.279	1344.565
87.812	26.994	1638.955	1344.255
88.826	27.020	1637.028	1342.749
89.841	27.055	1636.050	1342.084
90.855	27.071	1635.444	1341.585
91.870	26.983	1634.394	1339.954
92.884	27.048	1633.586	1339.655
93.899	27.065	1632.832	1339.042
94.914	27.115	1631.066	1337.844
95.928	27.069	1630.258	1336.724
96.943	26.990	1628.854	1334.873
97.957	27.059	1627.735	1334.350
98.972	27.047	1626.637	1333.241
99.987	27.090	1625.224	1332.276
101.001	27.082	1623.358	1330.574
102.016	26.996	1622.244	1328.913
103.030	27.043	1620.626	1327.817
104.045	26.976	1620.158	1326.820
105.060	27.001	1618.728	1325.718
106.074	26.988	1617.437	1324.446
107.089	27.096	1615.949	1323.897
108.103	27.108	1614.884	1323.000
109.118	27.068	1613.973	1321.840
110.133	26.949	1612.834	1319.925
111.147	27.102	1611.371	1319.728
112.162	27.092	1610.220	1318.595
113.176	27.167	1609.313	1318.275
114.191	27.165	1608.247	1317.271
115.206	27.089	1607.103	1315.670
116.220	27.159	1605.746	1314.951
117.235	27.000	1605.162	1313.203
118.249	27.077	1603.781	1312.513
119.264	27.020	1602.622	1311.037
120.279	26.990	1601.530	1309.812
121.293	27.114	1600.430	1309.690
122.308	27.032	1599.393	1308.132
123.322	27.192	1597.842	1307.904
124.337	27.095	1596.896	1306.312
125.352	27.152	1596.002	1305.879
126.366	27.164	1595.425	1305.378
127.381	27.108	1594.624	1304.201
128.395	27.246	1593.373	1304.057
129.410	27.105	1592.814	1302.473
130.424	27.112	1591.369	1301.227
131.439	27.257	1589.768	1300.836
132.454	27.153	1588.773	1299.163
133.468	27.181	1587.679	1298.356
134.483	27.065	1586.373	1296.347
135.497	27.116	1585.045	1295.507
136.512	27.126	1584.019	1294.626
137.527	27.173	1582.833	1293.876
138.541	27.066	1581.655	1292.037
139.556	27.189	1580.696	1292.015
140.570	27.247	1579.046	1290.963
141.585	27.258	1578.084	1290.138
142.600	27.153	1576.995	1288.390
143.614	27.155	1575.963	1287.450
144.629	27.176	1574.750	1286.494
145.643	27.204	1573.460	1285.526
146.658	27.151	1571.928	1283.781
147.673	27.094	1571.038	1282.541
148.687	27.096	1570.588	1282.076
149.702	27.229	1569.043	1281.635
150.716	27.073	1567.610	1279.252
151.731	27.183	1566.203	1278.767
152.746	27.102	1565.949	1277.873
153.760	27.140	1564.527	1276.868
154.775	27.194	1563.542	1276.335
155.789	27.185	1562.608	1275.395
156.804	27.211	1561.493	1274.553
157.819	27.212	1560.446	1273.590
158.833	27.197	1559.338	1272.472
159.848	27.162	1558.703	1271.597
160.862	27.149	1558.295	1271.061
161.877	27.251	1556.483	1270.181
162.892	27.201	1556.043	1269.364
163.906	27.372	1554.868	1269.480
164.921	27.234	1553.903	1267.620
165.935	27.257	1553.373	1267.232
166.950	27.330	1551.872	1266.410
167.964	27.304	1551.200	1265.563
168.979	27.262	1550.303	1264.433
169.994	27.337	1549.162	1263.910
171.008	27.274	1548.236	1262.606
172.023	27.379	1547.006	1262.216
173.037	27.315	1546.478	1261.228
174.052	27.335	1545.239	1260.249
175.067	27.262	1544.880	1259.335
176.081	27.230	1543.358	1257.765
177.096	27.315	1542.213	1257.305
178.110	27.316	1541.308	1256.463
179.125	27.282	1540.259	1255.262
180.140	27.391	1538.887	1254.789
181.154	27.353	1538.561	1254.148
182.169	27.441	1537.783	1254.009
183.183	27.299	1536.919	1252.213
184.198	27.339	1535.821	1251.487
185.213	27.350	1535.057	1250.825
186.227	27.337	1534.123	1249.869
187.242	27.422	1533.290	1249.659
188.256	27.425	1532.528	1248.952
189.271	27.390	1531.816	1248.022
190.286	27.406	1530.585	1247.013
191.300	27.539	1529.985	1247.327
192.315	27.464	1528.941	1245.849
193.329	27.430	1528.229	1244.926
194.344	27.375	1527.283	1243.670
195.359	27.419	1526.417	1243.157
196.373	27.498	1525.354	1242.723
197.388	27.506	1524.280	1241.794
198.402	27.354	1523.818	1240.266
199.417	27.248	1523.145	1238.890
200.432	27.398	1521.907	1238.794
201.446	27.414	1521.418	1238.397
202.461	27.458	1520.428	1237.781
203.475	27.391	1519.686	1236.607
204.490	27.470	1518.265	1235.877
205.504	27.369	1517.829	1234.729
206.519	27.321	1517.282	1233.851
207.534	27.471	1515.992	1233.708
208.548	27.587	1515.006	1233.584
209.563	27.447	1514.522	1232.129
210.577	27.506	1513.679	1231.733
211.592	27.444	1513.143	1230.771
212.607	27.382	1512.342	1229.590
213.621	27.496	1511.397	1229.484
214.636	27.554	1510.656	1229.164
215.650	27.526	1509.608	1228.017
216.665	27.541	1508.762	1227.318
217.680	27.499	1508.141	1226.425
218.694	27.486	1507.402	1225.625
219.709	27.504	1506.920	1225.246
220.723	27.574	1505.531	1224.477
221.738	27.563	1504.795	1223.698
222.753	27.470	1504.142	1222.431
223.767	27.500	1502.830	1221.462
224.782	27.384	1502.282	1220.130
225.796	27.463	1501.817	1220.176
226.811	27.593	1500.696	1220.023
227.826	27.595	1499.824	1219.218
228.840	27.625	1499.343	1218.926
229.855	27.560	1498.432	1217.640
230.869	27.556	1497.915	1217.085
231.884	27.566	1496.786	1216.129
232.899	27.541	1495.766	1215.023
233.913	27.600	1494.502	1214.286
234.928	27.677	1492.896	1213.386
235.942	27.597	1492.364	1212.313
236.957	27.722	1491.218	1212.104
237.972	27.761	1490.286	1211.500
238.986	27.691	1489.468	1210.259
240.001	27.731	1488.564	1209.681
241.015	27.741	1487.185	1208.524
242.030	27.818	1486.273	1208.185
243.045	27.835	1485.586	1207.632
244.059	27.763	1484.868	1206.469
245.074	27.792	1484.116	1205.938
246.088	27.818	1483.619	1205.603
247.103	27.804	1482.736	1204.681
248.117	27.878	1481.889	1204.375
249.132	27.737	1481.456	1202.988
250.147	27.780	1480.691	1202.547
251.161	27.843	1479.628	1201.990
252.176	27.841	1479.166	1201.493
253.190	27.860	1478.336	1200.837
254.205	27.903	1477.293	1200.171
255.220	27.938	1476.786	1199.879
256.234	27.886	1475.858	1198.681
257.249	27.861	1475.165	1197.846
258.263	27.854	1474.156	1196.874
259.278	27.897	1473.270	1196.333
260.293	27.941	1472.092	1195.555
261.307	27.981	1471.949	1195.595
262.322	27.973	1471.144	1194.783
263.336	27.977	1470.201	1193.942
264.351	27.974	1469.098	1192.915
265.366	27.948	1468.629	1192.259
266.380	27.959	1467.499	1191.311
267.395	27.944	1466.702	1190.461
268.409	27.974	1466.149	1190.102
269.424	27.945	1465.067	1188.927
270.439	27.899	1464.140	1187.774
271.453	27.946	1463.341	1187.324
272.468	27.985	1462.556	1186.834
273.482	27.956	1462.345	1186.369
274.497	27.974	1461.012	1185.303
275.512	27.985	1460.308	1184.699
276.526	28.012	1459.604	1184.195
277.541	28.049	1458.957	1183.807
278.555	28.015	1457.777	1182.525
279.570	27.986	1457.215	1181.774
280.585	28.082	1456.112	1181.396
281.599	28.062	1455.193	1180.418
282.614	28.061	1454.400	1179.665
283.628	28.004	1453.721	1178.643
284.643	28.024	1452.790	1177.911
285.657	28.064	1451.769	1177.239
286.672	28.083	1450.637	1176.334
287.687	27.987	1450.416	1175.435
288.701	28.135	1448.758	1174.937
289.716	28.129	1448.582	1174.651
290.730	28.144	1448.183	1174.324
291.745	28.134	1447.035	1173.225
292.760	28.163	1446.343	1172.742
293.774	28.194	1445.299	1171.994
294.789	28.096	1444.422	1170.552
295.803	28.162	1443.847	1170.403
296.818	28.195	1443.040	1169.855
297.833	28.241	1441.978	1169.182
298.847	28.297	1440.869	1168.539
299.862	28.177	1440.488	1167.364
300.876	28.270	1439.247	1166.846
301.891	28.264	1438.424	1166.041
302.906	28.203	1438.123	1165.305
303.920	28.252	1437.745	1165.206
304.935	28.280	1436.812	1164.522
305.949	28.325	1435.975	1164.025
306.964	28.371	1435.118	1163.520
307.979	28.344	1433.834	1162.204
308.993	28.330	1433.095	1161.419
310.008	28.326	1432.401	1160.723
311.022	28.355	1431.558	1160.126
312.037	28.442	1430.538	1159.745
313.052	28.332	1429.842	1158.384
314.066	28.326	1428.903	1157.483
315.081	28.480	1427.456	1157.180
316.095	28.376	1427.116	1156.142
317.110	28.341	1426.097	1154.993
318.125	28.317	1425.509	1154.266
319.139	28.444	1424.675	1154.292
320.154	28.359	1424.027	1153.125
321.168	28.490	1422.654	1152.739
322.183	28.474	1421.503	1151.603
323.197	28.429	1421.332	1151.080
324.212	28.521	1419.867	1150.368
325.227	28.381	1420.053	1149.539
326.241	28.526	1418.525	1149.105
327.256	28.618	1417.639	1148.867
328.270	28.466	1417.137	1147.407
329.285	28.576	1416.368	1147.365
330.300	28.555	1415.265	1146.242
331.314	28.502	1414.671	1145.329
332.329	28.585	1413.952	1145.166
333.343	28.611	1413.011	1144.461
334.358	28.677	1412.363	1144.245
335.373	28.663	1411.809	1143.609
336.387	28.570	1411.039	1142.305
337.402	28.598	1410.465	1141.916
338.416	28.676	1409.732	1141.708
339.431	28.685	1409.213	1141.241
340.446	28.672	1408.776	1140.706
341.460	28.665	1407.782	1139.754
342.475	28.721	1406.309	1138.805
343.489	28.653	1406.039	1138.070
344.504	28.711	1405.029	1137.508
345.519	28.669	1404.134	1136.422
346.533	28.753	1402.836	1135.789
347.548	28.771	1402.505	1135.537
348.562	28.808	1401.296	1134.684
349.577	28.733	1401.079	1133.943
350.592	28.652	1400.538	1132.904
351.606	28.824	1398.896	1132.541
352.621	28.692	1398.085	1130.969
353.635	28.774	1397.318	1130.751
354.650	28.698	1396.638	1129.637
355.665	28.856	1395.638	1129.698
356.679	28.853	1394.610	1128.743
357.694	28.910	1393.691	1128.253
358.708	28.854	1392.908	1127.178
359.723	28.868	1391.355	1125.903
360.738	28.725	1390.691	1124.392
361.752	28.773	1389.871	1123.922
362.767	28.895	1388.065	1123.109
363.781	28.884	1387.326	1122.346
364.796	28.875	1386.863	1121.814
365.810	28.960	1386.277	1121.758
366.825	28.981	1385.199	1120.915
367.840	29.013	1384.942	1120.807
368.854	29.037	1383.804	1119.930
369.869	29.178	1383.248	1120.241
370.883	29.058	1383.111	1119.299
371.898	28.973	1382.429	1118.129
372.913	29.040	1381.756	1117.898
373.927	29.046	1380.833	1117.085
374.942	29.031	1379.766	1116.035
375.956	29.108	1379.321	1116.041
376.971	29.073	1378.765	1115.283
377.986	29.155	1377.675	1114.798
379.000	29.110	1377.002	1113.883
380.015	29.028	1376.508	1112.885
381.029	29.076	1375.756	1112.471
382.044	29.100	1375.294	1112.144
383.059	29.045	1374.717	1111.247
384.073	29.117	1373.604	1110.685
385.088	29.118	1373.225	1110.284
386.102	29.126	1372.413	1109.578
387.117	29.191	1371.725	1109.315
388.132	29.152	1371.387	1108.709
389.146	29.123	1370.443	1107.674
390.161	29.203	1369.652	1107.418
391.175	29.407	1368.585	1107.683
392.190	29.187	1368.581	1106.256
393.205	29.150	1367.790	1105.300
394.219	29.218	1366.934	1104.915
395.234	29.309	1365.268	1104.015
396.248	29.316	1364.697	1103.503
397.263	29.257	1363.546	1102.118
398.278	29.364	1362.252	1101.613
399.292	29.374	1361.309	1100.816
400.307	29.431	1360.243	1100.198
401.321	29.503	1359.365	1099.814
402.336	29.465	1358.462	1098.762
403.350	29.369	1357.920	1097.655
404.365	29.370	1357.135	1096.931
405.380	29.325	1356.377	1095.953
406.394	29.304	1355.798	1095.263
407.409	29.453	1355.100	1095.487
408.423	29.408	1354.468	1094.612
409.438	29.448	1353.808	1094.221
410.453	29.583	1352.559	1093.912
411.467	29.553	1352.203	1093.352
412.482	29.585	1351.503	1092.875
413.496	29.455	1351.099	1091.682
414.511	29.546	1350.086	1091.308
415.526	29.508	1349.284	1090.338
416.540	29.537	1348.359	1089.667
417.555	29.638	1347.482	1089.453
418.569	29.679	1347.174	1089.353
419.584	29.605	1346.925	1088.620
420.599	29.630	1346.552	1088.368
421.613	92.623	1352.414	1449.442
422.628	92.506	1353.227	1449.554
