DTS Sentinel unit serial number:	SN413079Multiplexer serial number:	ORYXHardware model number:	OX4-SRSoftware version number:	ORYX F/W v4.00 Oryx Data Collector v3.7.2.0data status	okinstallation	princeton_trtdifferential loss correction	single-endedforward channel	channel 4reverse channel	N/Adate	2019/09/17time	03:33:35forward acquisition time	60.00reverse acquisition time	0.00gamma	496.2192k internal	0.2311k external	0.2311temperature offset calibration	0.9974default loss term (dB/km)	0.3790temperature slope calibration	1.0000multiplexer offset coefficient	1.0000multiplexer slope coefficient	1.0000fibre end	0.00T internal ref (°C)	30.00T ext. ref 1 (°C)	0.14T ext. ref 2 (°C)	24.62length (m)	temperature (°C)	Stokes	anti-Stokes-747.200	800.000	0.090	0.292
-746.185	-200.000	-0.007	-0.149
-745.171	75.779	-0.139	-0.149
-744.156	124.608	0.123	-0.157
-743.142	594.709	0.054	0.135
-742.127	44.113	-0.216	0.201
-741.112	-101.555	-0.124	-0.031
-740.098	-35.805	0.208	-0.115
-739.083	189.630	0.127	-0.193
-738.069	-200.000	-0.032	0.147
-737.054	562.330	-0.095	0.234
-736.039	54.425	-0.269	-0.263
-735.025	125.951	0.403	0.517
-734.010	162.715	0.048	-0.068
-732.996	-200.000	-0.016	-0.171
-731.981	800.000	-0.074	0.224
-730.966	-200.000	-0.002	0.294
-729.952	-200.000	0.052	0.333
-728.937	9.431	0.231	-0.177
-727.923	6.750	-0.411	0.310
-726.908	-200.000	0.028	0.166
-725.894	-98.215	-0.189	0.049
-724.879	90.109	-0.123	0.139
-723.864	233.815	-0.227	-0.380
-722.850	-107.161	-0.139	0.031
-721.835	-200.000	-0.028	0.207
-720.821	-109.437	0.209	0.045
-719.806	-44.457	0.146	-0.074
-718.791	-18.318	-0.049	0.031
-717.777	-85.599	-0.361	0.114
-716.762	800.000	0.045	0.141
-715.748	82.316	-0.148	0.163
-714.733	-66.461	-0.136	-0.055
-713.718	-124.454	-0.259	0.041
-712.704	-200.000	0.017	0.216
-711.689	-9.230	-0.111	-0.075
-710.675	112.375	0.144	0.176
-709.660	247.467	-0.166	0.285
-708.645	-22.840	-0.130	0.079
-707.631	-200.000	0.048	-0.256
-706.616	800.000	0.024	0.094
-705.602	294.904	-0.102	-0.189
-704.587	800.000	-0.031	0.128
-703.572	-135.580	0.283	0.034
-702.558	-200.000	0.028	-0.182
-701.543	-200.000	0.058	-0.272
-700.529	-77.364	0.170	-0.060
-699.514	-45.970	0.083	-0.041
-698.499	20.656	0.239	-0.196
-697.485	46.919	-0.291	-0.274
-696.470	177.510	-0.213	-0.315
-695.456	130.405	-0.091	-0.118
-694.441	110.269	0.373	-0.454
-693.426	-49.235	0.192	0.093
-692.412	-78.313	-0.124	-0.043
-691.397	-137.228	0.139	0.016
-690.383	215.625	-0.112	0.180
-689.368	-154.269	-0.122	-0.008
-688.354	-79.648	0.369	0.126
-687.339	-102.888	0.385	0.093
-686.324	-200.000	0.016	0.260
-685.310	-1.774	0.237	0.169
-684.295	18.245	-0.229	0.185
-683.281	-200.000	-0.005	-0.223
-682.266	-200.000	0.010	-0.223
-681.251	-3.896	0.238	-0.167
-680.237	167.470	0.088	0.127
-679.222	-56.049	0.165	0.074
-678.208	-200.000	-0.014	0.154
-677.193	-91.695	0.232	0.067
-676.178	549.550	0.046	-0.112
-675.164	72.542	-0.117	0.124
-674.149	502.611	0.014	-0.033
-673.135	107.628	0.225	-0.271
-672.120	-45.553	-0.252	-0.127
-671.105	-200.000	-0.005	0.080
-670.091	-200.000	-0.029	0.276
-669.076	375.609	0.158	0.326
-668.062	-200.000	-0.039	0.365
-667.047	-31.677	0.233	-0.132
-666.032	-200.000	0.030	0.305
-665.018	-96.431	0.099	-0.027
-664.003	-69.865	0.167	-0.064
-662.989	-85.085	-0.245	-0.078
-661.974	-35.092	0.100	0.055
-660.959	482.944	0.025	-0.058
-659.945	-43.578	0.148	-0.076
-658.930	23.360	-0.183	0.152
-657.916	-104.082	-0.151	-0.036
-656.901	-200.000	-0.057	-0.275
-655.886	800.000	0.096	0.373
-654.872	695.839	-0.130	0.345
-653.857	-108.932	-0.236	-0.051
-652.843	-200.000	-0.024	0.206
-651.828	-152.925	-0.145	-0.010
-650.814	-40.127	-0.138	0.073
-649.799	75.953	-0.141	-0.151
-648.784	-75.535	-0.245	0.088
-647.770	800.000	-0.050	0.217
-646.755	773.734	-0.074	-0.203
-645.741	-200.000	0.024	0.159
-644.726	800.000	0.035	-0.098
-643.711	-200.000	-0.068	0.492
-642.697	-102.224	-0.162	-0.039
-641.682	-190.577	-0.475	-0.005
-640.668	-11.150	-0.180	-0.120
-639.653	800.000	0.086	-0.297
-638.638	-200.000	-0.010	0.157
-637.624	-32.019	0.081	0.046
-636.609	123.525	0.117	0.148
-635.595	76.907	-0.179	-0.192
-634.580	-150.792	0.230	-0.018
-633.565	800.000	-0.022	0.085
-632.551	-110.168	0.131	-0.028
-631.536	-200.000	0.003	-0.212
-630.522	-27.303	-0.129	-0.076
-629.507	800.000	0.018	0.070
-628.492	-200.000	0.021	0.127
-627.478	800.000	0.042	0.134
-626.463	800.000	-0.133	-0.549
-625.449	202.710	0.053	-0.083
-624.434	238.377	0.027	0.045
-623.419	28.228	0.071	-0.060
-622.405	116.972	-0.220	0.273
-621.390	535.416	-0.097	-0.233
-620.376	64.399	-0.045	-0.046
-619.361	800.000	0.134	-0.383
-618.346	35.885	0.207	-0.184
-617.332	89.059	0.082	-0.092
-616.317	19.407	0.180	-0.146
-615.303	-91.257	0.101	-0.029
-614.288	640.520	-0.036	-0.093
-613.273	-127.427	-0.171	0.025
-612.259	100.309	-0.250	-0.292
-611.244	-200.000	0.057	-0.312
-610.230	-114.749	-0.350	-0.067
-609.215	519.334	0.131	0.311
-608.201	800.000	-0.091	0.318
-607.186	800.000	-0.028	-0.090
-606.171	-200.000	-0.023	0.106
-605.157	329.942	0.129	-0.250
-604.142	-200.000	-0.003	0.047
-603.128	-110.529	-0.381	0.080
-602.113	-104.341	0.276	0.065
-601.098	214.967	0.163	0.260
-600.084	73.026	0.145	0.153
-599.069	78.604	0.025	-0.027
-598.055	800.000	0.077	-0.268
-597.040	800.000	0.051	-0.202
-596.025	48.775	0.084	-0.080
-595.011	-72.309	-0.279	-0.104
-593.996	-73.140	-0.042	-0.016
-592.982	-55.742	0.275	0.124
-591.967	-200.000	-0.043	-0.275
-590.952	-3.524	-0.078	0.055
-589.938	-31.128	-0.202	0.115
-588.923	121.672	0.399	-0.502
-587.909	-17.445	0.216	0.137
-586.894	-82.660	0.397	-0.130
-585.879	-135.388	0.407	0.049
-584.865	644.310	-0.097	-0.251
-583.850	-22.021	0.135	-0.083
-582.836	-125.412	-0.153	-0.024
-581.821	-17.695	-0.156	-0.099
-580.806	-172.231	-0.091	-0.003
-579.792	601.110	-0.065	-0.162
-578.777	51.413	-0.150	-0.144
-577.763	800.000	-0.056	0.244
-576.748	-137.960	0.221	-0.025
-575.733	-151.001	-0.179	-0.014
-574.719	15.491	0.247	-0.196
-573.704	536.732	0.014	-0.033
-572.690	800.000	0.029	-0.101
-571.675	-83.550	0.345	-0.111
-570.661	-2.646	-0.527	0.372
-569.646	753.208	-0.087	0.237
-568.631	-32.614	-0.359	-0.202
-567.617	123.103	-0.194	-0.245
-566.602	290.495	0.100	-0.183
-565.588	-51.927	-0.201	0.094
-564.573	36.964	-0.083	-0.074
-563.558	173.209	0.118	-0.172
-562.544	163.304	0.167	0.237
-561.529	-145.957	-0.267	0.024
-560.515	-200.000	0.021	0.239
-559.500	-83.040	0.138	-0.045
-558.485	-140.586	-0.196	0.020
-557.471	255.319	-0.072	-0.125
-556.456	-200.000	0.047	0.332
-555.442	-33.522	-0.271	0.151
-554.427	-141.208	-0.274	-0.028
-553.412	800.000	0.038	0.106
-552.398	800.000	-0.058	0.199
-551.383	-115.213	-0.089	0.017
-550.369	-200.000	0.008	-0.351
-549.354	-200.000	0.050	-0.308
-548.339	-98.127	0.092	-0.024
-547.325	800.000	0.074	-0.280
-546.310	-200.000	-0.085	-0.440
-545.296	800.000	-0.071	-0.207
-544.281	-4.315	0.100	0.070
-543.266	-43.573	-0.218	0.111
-542.252	-71.691	-0.135	0.051
-541.237	-176.033	-0.239	-0.006
-540.223	-96.601	-0.275	-0.073
-539.208	67.488	0.098	0.101
-538.193	157.903	-0.138	-0.193
-537.179	-121.382	0.384	-0.064
-536.164	-200.000	-0.064	-0.282
-535.150	-25.477	0.258	-0.154
-534.135	-9.395	-0.237	-0.159
-533.121	73.794	0.390	-0.411
-532.106	-76.098	-0.167	-0.059
-531.091	800.000	-0.027	0.081
-530.077	41.623	-0.050	-0.045
-529.062	268.551	-0.103	0.182
-528.048	322.873	0.040	0.077
-527.033	-200.000	0.033	-0.295
-526.018	610.319	0.064	0.161
-525.004	183.262	-0.018	0.026
-523.989	-200.000	0.029	0.423
-522.975	-146.074	-0.058	-0.005
-521.960	-8.623	0.254	0.172
-520.945	-200.000	0.028	-0.125
-519.931	-136.168	0.180	-0.021
-518.916	130.667	0.165	-0.213
-517.902	296.616	-0.140	0.257
-516.887	-102.799	-0.230	-0.055
-515.872	-200.000	-0.024	-0.124
-514.858	671.024	-0.163	0.426
-513.843	800.000	0.110	-0.380
-512.829	-73.626	0.227	-0.083
-511.814	271.815	-0.164	-0.291
-510.799	800.000	-0.015	-0.044
-509.785	197.496	0.136	-0.210
-508.770	-86.076	-0.255	-0.079
-507.756	-105.227	0.109	0.025
-506.741	100.975	0.192	0.224
-505.726	-94.843	0.162	-0.044
-504.712	655.586	0.150	-0.388
-503.697	-94.410	-0.307	-0.084
-502.683	-106.362	-0.063	-0.014
-501.668	244.847	-0.180	0.304
-500.653	-8.236	0.128	-0.086
-499.639	-200.000	0.025	-0.139
-498.624	451.802	-0.179	-0.399
-497.610	119.307	0.068	0.084
-496.595	-54.619	-0.218	0.099
-495.581	409.080	-0.150	-0.320
-494.566	73.368	0.119	0.125
-493.551	-158.757	0.097	-0.006
-492.537	60.395	0.216	0.215
-491.522	-200.000	0.005	-0.251
-490.508	-64.355	-0.248	0.102
-489.493	54.799	-0.081	-0.079
-488.478	-101.223	0.133	0.033
-487.464	-200.000	-0.018	0.246
-486.449	-200.000	0.010	0.234
-485.435	46.750	0.080	-0.075
-484.420	800.000	-0.033	0.115
-483.405	-175.784	0.291	-0.008
-482.391	-181.228	-0.253	-0.005
-481.376	-49.593	-0.269	-0.129
-480.362	-200.000	0.129	0.640
-479.347	-176.074	0.156	-0.004
-478.332	-23.339	-0.319	-0.193
-477.318	347.361	0.112	0.221
-476.303	30.265	0.157	-0.134
-475.289	728.388	0.036	0.097
-474.274	-147.717	0.114	-0.010
-473.259	-82.569	-0.237	-0.077
-472.245	79.842	-0.055	-0.059
-471.230	68.912	0.254	-0.262
-470.216	800.000	-0.033	-0.139
-469.201	800.000	-0.099	0.348
-468.186	800.000	-0.058	0.187
-467.172	-38.411	-0.050	-0.027
-466.157	-125.316	0.091	-0.014
-465.143	-139.977	0.205	-0.022
-464.128	-166.180	0.199	-0.008
-463.113	-85.921	0.156	0.048
-462.099	-151.468	-0.254	0.019
-461.084	-30.217	0.226	-0.129
-460.070	92.023	0.211	0.239
-459.055	-200.000	-0.003	-0.023
-458.040	800.000	-0.064	0.213
-457.026	56.607	-0.275	0.268
-456.011	150.764	0.241	-0.328
-454.997	-57.671	0.152	-0.067
-453.982	-41.416	0.043	-0.022
-452.968	-94.635	-0.204	0.056
-451.953	49.775	-0.260	0.246
-450.938	84.061	0.164	-0.179
-449.924	800.000	0.047	-0.167
-448.909	-200.000	0.022	-0.202
-447.895	-127.978	-0.152	0.022
-446.880	330.962	-0.105	-0.202
-445.865	-76.727	-0.234	0.082
-444.851	338.780	-0.054	-0.106
-443.836	-200.000	0.010	0.134
-442.822	-123.908	-0.282	-0.045
-441.807	-15.585	0.085	-0.054
-440.792	-200.000	0.039	-0.249
-439.778	120.687	0.010	0.012
-438.763	278.748	-0.139	-0.249
-437.749	30.929	0.245	-0.211
-436.734	-77.398	-0.201	0.070
-435.719	-157.379	-0.221	0.013
-434.705	80.485	0.127	0.137
-433.690	-160.271	-0.134	-0.007
-432.676	122.360	0.086	0.107
-431.661	-171.017	0.239	-0.008
-430.646	-108.937	-0.179	-0.038
-429.632	-121.428	0.333	-0.056
-428.617	-200.000	-0.101	-0.524
-427.603	-83.692	-0.059	0.019
-426.588	-200.000	-0.036	-0.182
-425.573	-126.995	0.224	0.033
-424.559	-22.219	-0.175	-0.106
-423.544	222.446	0.130	0.210
-422.530	800.000	-0.081	0.231
-421.515	137.169	0.098	-0.129
-420.500	227.715	0.172	-0.281
-419.486	-200.000	-0.034	-0.224
-418.471	270.727	0.013	-0.023
-417.457	-15.854	0.297	-0.190
-416.442	-200.000	-0.023	-0.118
-415.428	446.809	-0.163	0.359
-414.413	37.446	-0.084	0.075
-413.398	53.111	0.187	-0.180
-412.384	-148.942	-0.163	-0.013
-411.369	800.000	0.051	0.211
-410.355	94.117	-0.155	-0.177
-409.340	6.566	-0.412	-0.307
-408.325	-102.026	0.284	-0.069
-407.311	29.551	-0.268	0.229
-406.296	800.000	0.082	-0.257
-405.282	-200.000	-0.012	0.163
-404.267	-200.000	0.024	-0.243
-403.252	-152.778	-0.102	-0.007
-402.238	224.253	0.174	0.282
-401.223	-200.000	-0.019	0.090
-400.209	138.637	0.333	0.438
-399.194	317.664	0.115	0.218
-398.179	800.000	-0.028	-0.118
-397.165	-54.159	-0.125	0.057
-396.150	-178.595	-0.335	0.008
-395.136	-39.924	-0.057	-0.030
-394.121	-28.743	0.248	0.143
-393.106	-200.000	0.007	-0.093
-392.092	-200.000	0.007	-0.205
-391.077	-200.000	-0.031	-0.208
-390.063	707.623	-0.096	-0.254
-389.048	474.222	0.192	-0.435
-388.033	-130.428	0.327	0.044
-387.019	-122.018	-0.106	-0.017
-386.004	-200.000	0.003	-0.100
-384.990	-74.979	0.221	-0.079
-383.975	448.211	-0.120	0.264
-382.960	-149.222	0.219	0.017
-381.946	202.441	-0.111	0.172
-380.931	-200.000	0.006	-0.082
-379.917	-200.000	-0.021	0.116
-378.902	-10.036	-0.135	-0.090
-377.888	70.800	-0.188	0.195
-376.873	267.624	-0.097	0.171
-375.858	-85.230	0.149	0.047
-374.844	-200.000	-0.025	0.194
-373.829	271.485	-0.012	-0.021
-372.815	-18.109	0.139	-0.087
-371.800	351.706	-0.038	-0.076
-370.785	-90.435	0.351	-0.102
-369.771	36.380	-0.176	-0.155
-368.756	-47.455	0.111	0.054
-367.742	-195.731	-0.229	0.002
-366.727	11.883	0.026	-0.020
-365.712	-200.000	0.074	0.600
-364.698	13.883	-0.109	-0.085
-363.683	331.391	-0.083	-0.159
-362.669	-200.000	-0.081	0.439
-361.654	88.214	0.216	-0.240
-360.639	-200.000	-0.006	-0.138
-359.625	49.134	-0.371	0.349
-358.610	-65.895	-0.398	-0.159
-357.596	269.520	0.144	-0.253
-356.581	42.802	-0.264	-0.241
-355.566	800.000	-0.042	-0.146
-354.552	215.909	0.118	0.187
-353.537	196.803	0.103	0.157
-352.523	170.771	-0.137	-0.196
-351.508	38.770	-0.123	-0.110
-350.493	-200.000	0.046	0.311
-349.479	-200.000	0.034	-0.231
-348.464	53.179	-0.152	0.145
-347.450	-135.288	-0.254	0.030
-346.435	-97.464	-0.186	-0.048
-345.420	131.283	0.129	0.166
-344.406	-87.714	0.106	0.032
-343.391	-200.000	0.030	0.291
-342.377	45.450	-0.261	0.241
-341.362	-120.340	-0.157	-0.027
-340.348	-168.474	0.229	-0.009
-339.333	710.621	-0.042	0.110
-338.318	708.509	-0.075	-0.198
-337.304	23.524	0.166	0.137
-336.289	-200.000	-0.021	0.199
-335.275	-8.774	0.224	0.150
-334.260	-107.112	-0.358	-0.079
-333.245	-55.059	-0.004	-0.002
-332.231	-27.377	0.365	0.212
-331.216	-110.791	0.298	0.061
-330.202	-200.000	0.009	-0.614
-329.187	-200.000	0.052	0.301
-328.172	527.540	0.075	0.176
-327.158	-200.000	0.102	-0.454
-326.143	380.824	0.162	-0.331
-325.129	-200.000	0.104	0.573
-324.114	-200.000	0.026	0.277
-323.099	-92.370	-0.351	-0.099
-322.085	80.446	0.112	-0.120
-321.070	-94.923	0.158	-0.043
-320.056	-143.211	-0.060	-0.006
-319.041	-200.000	-0.036	-0.159
-318.026	87.987	0.118	0.131
-317.012	48.643	0.094	0.088
-315.997	173.631	0.076	0.110
-314.983	310.908	0.138	-0.257
-313.968	-130.995	-0.109	0.015
-312.953	-200.000	0.001	0.245
-311.939	66.000	-0.098	0.099
-310.924	-113.740	-0.302	-0.059
-309.910	-183.706	0.321	0.005
-308.895	-119.536	0.257	0.044
-307.880	-72.978	-0.197	-0.072
-306.866	-106.519	-0.197	-0.044
-305.851	-123.987	0.081	0.013
-304.837	152.426	0.088	-0.120
-303.822	93.445	0.113	0.128
-302.807	-200.000	-0.030	-0.322
-301.793	231.534	-0.084	-0.138
-300.778	-8.679	-0.082	0.055
-299.764	800.000	0.050	-0.196
-298.749	-200.000	0.034	0.255
-297.735	-24.009	-0.149	-0.089
-296.720	-130.417	0.155	0.021
-295.705	-76.786	-0.184	0.064
-294.691	-200.000	-0.035	0.473
-293.676	9.595	0.224	-0.169
-292.662	21.702	0.463	0.376
-291.647	0.273	-0.173	-0.123
-290.632	-200.000	0.020	-0.168
-289.618	-36.714	0.055	0.029
-288.603	-147.241	0.298	-0.025
-287.589	-1.693	0.161	0.113
-286.574	-122.826	-0.023	-0.004
-285.559	-200.000	-0.028	-0.201
-284.545	-200.000	-0.014	-0.240
-283.530	-115.198	-0.186	-0.035
-282.516	97.794	-0.073	0.083
-281.501	50.023	-0.154	0.145
-280.486	-69.375	-0.026	-0.010
-279.472	-43.312	-0.091	0.046
-278.457	-103.408	-0.046	0.011
-277.443	232.725	0.088	-0.144
-276.428	-200.000	0.041	0.183
-275.413	-200.000	0.000	-0.082
-274.399	56.097	-0.297	0.288
-273.384	74.482	0.130	-0.136
-272.370	800.000	0.020	-0.056
-271.355	12.332	-0.133	0.102
-270.340	679.708	0.022	-0.056
-269.326	231.195	-0.063	0.102
-268.311	-36.986	0.171	0.091
-267.297	-26.720	-0.320	0.187
-266.282	103.655	0.220	0.258
-265.267	559.556	-0.108	0.260
-264.253	-142.562	-0.069	0.007
-263.238	559.732	-0.162	0.391
-262.224	8.559	-0.189	-0.142
-261.209	187.580	-0.157	0.233
-260.195	-52.862	0.274	0.126
-259.180	364.463	-0.201	-0.402
-258.165	49.137	-0.138	-0.129
-257.151	30.615	0.197	-0.167
-256.136	-9.984	-0.145	-0.096
-255.122	99.896	-0.109	-0.126
-254.107	188.116	0.077	-0.114
-253.092	800.000	0.043	-0.124
-252.078	-200.000	0.015	0.203
-251.063	-67.074	0.176	-0.069
-250.049	159.835	0.133	-0.184
-249.034	68.072	-0.158	0.161
-248.019	-74.768	0.364	-0.130
-247.005	-156.499	0.313	-0.019
-245.990	56.246	0.107	-0.104
-244.976	-200.000	-0.023	0.323
-243.961	-200.000	0.040	0.204
-242.946	119.994	0.189	0.233
-241.932	-47.492	-0.310	0.150
-240.917	39.488	-0.100	-0.089
-239.903	-57.156	-0.414	0.181
-238.888	11.663	0.284	-0.217
-237.873	574.985	0.048	-0.116
-236.859	800.000	0.079	0.237
-235.844	-102.307	-0.256	-0.061
-234.830	-200.000	-0.030	-0.465
-233.815	-104.821	0.191	0.044
-232.800	-200.000	-0.015	-0.089
-231.786	118.567	-0.015	0.019
-230.771	-18.914	0.193	0.120
-229.757	-200.000	-0.046	0.308
-228.742	-38.483	0.116	-0.061
-227.727	-200.000	-0.002	0.210
-226.713	632.714	0.038	-0.096
-225.698	800.000	-0.038	0.134
-224.684	27.344	0.275	0.230
-223.669	294.435	-0.045	0.082
-222.655	83.604	0.161	-0.174
-221.640	160.815	0.183	0.254
-220.625	-153.693	0.184	0.013
-219.611	-126.508	-0.101	-0.015
-218.596	-24.242	-0.246	-0.146
-217.582	66.444	-0.164	0.165
-216.567	342.852	0.080	-0.156
-215.552	-68.316	-0.356	0.138
-214.538	18.381	0.317	0.252
-213.523	66.219	0.100	0.101
-212.509	-77.674	0.247	-0.085
-211.494	21.208	-0.088	0.071
-210.479	-176.358	0.338	0.009
-209.465	430.548	-0.088	-0.189
-208.450	800.000	0.028	0.107
-207.436	49.773	0.333	-0.312
-206.421	800.000	-0.045	0.190
-205.406	-200.000	-0.021	0.114
-204.392	800.000	-0.024	-0.088
-203.377	333.748	0.088	0.170
-202.363	800.000	-0.037	-0.131
-201.348	-200.000	0.031	0.151
-200.333	51.501	-0.034	-0.032
-199.319	-200.000	-0.002	0.016
-198.304	131.488	-0.105	-0.135
-197.290	147.127	-0.167	-0.224
-196.275	-200.000	0.050	0.330
-195.260	-2.157	-0.270	0.188
-194.246	13.365	0.200	0.154
-193.231	-77.853	0.228	0.078
-192.217	-27.291	-0.220	0.127
-191.202	-200.000	0.033	0.240
-190.187	-152.729	0.235	0.017
-189.173	-36.405	0.327	-0.175
-188.158	129.891	-0.065	0.083
-187.144	-122.832	-0.239	-0.038
-186.129	-109.555	-0.407	-0.085
-185.114	-97.030	0.386	-0.100
-184.100	36.498	-0.079	0.069
-183.085	143.889	0.049	0.064
-182.071	-200.000	0.025	-0.184
-181.056	-200.000	0.015	0.260
-180.042	-60.632	-0.189	0.080
-179.027	-200.000	-0.002	0.041
-178.012	678.551	-0.047	0.121
-176.998	110.911	-0.111	0.132
-175.983	-200.000	-0.034	0.153
-174.969	20.028	-0.161	0.129
-173.954	-200.000	0.025	0.125
-172.939	154.089	0.031	-0.043
-171.925	800.000	0.037	0.152
-170.910	-1.376	-0.272	-0.191
-169.896	-200.000	-0.066	0.362
-168.881	-90.395	-0.201	0.058
-167.866	472.468	-0.035	-0.078
-166.852	-141.561	0.177	-0.018
-165.837	-200.000	0.094	0.442
-164.823	194.102	0.259	0.390
-163.808	-81.462	-0.203	-0.066
-162.793	232.187	0.179	0.292
-161.779	-154.037	0.044	-0.003
-160.764	-200.000	0.030	-0.324
-159.750	129.782	0.086	-0.109
-158.735	-124.570	0.259	0.040
-157.720	110.220	0.103	-0.122
-156.706	-6.645	0.295	0.199
-155.691	146.429	-0.201	0.268
-154.677	45.015	0.211	-0.193
-153.662	-200.000	-0.033	0.342
-152.647	-200.000	0.064	0.305
-151.633	26.447	-0.036	0.030
-150.618	-14.625	0.078	-0.049
-149.604	-123.085	0.430	0.068
-148.589	-195.735	0.459	0.003
-147.574	-200.000	0.055	-0.270
-146.560	-133.273	-0.286	0.036
-145.545	204.527	-0.272	0.418
-144.531	-51.943	-0.048	0.022
-143.516	-200.000	0.033	0.268
-142.502	25.018	0.137	0.112
-141.487	-124.270	0.333	0.052
-140.472	90.828	0.151	0.168
-139.458	26.367	-0.094	0.078
-138.443	-174.737	-0.165	0.005
-137.429	-53.144	0.187	0.085
-136.414	-2.795	-0.017	-0.012
-135.399	-200.000	0.028	-0.343
-134.385	192.324	-0.056	-0.084
-133.370	289.798	-0.081	0.146
-132.356	-200.000	-0.025	0.260
-131.341	-34.807	-0.036	0.020
-130.326	-46.889	0.069	0.033
-129.312	-109.338	-0.250	0.052
-128.297	154.404	0.064	0.086
-127.283	-200.000	-0.027	-0.234
-126.268	-149.441	0.341	-0.027
-125.253	800.000	-0.042	0.174
-124.239	-49.487	0.291	0.138
-123.224	-200.000	-0.008	-0.305
-122.210	-200.000	-0.031	-0.201
-121.195	-149.669	0.086	-0.007
-120.180	138.368	0.095	0.123
-119.166	250.156	0.093	0.156
-118.151	-38.369	0.075	0.039
-117.137	-40.656	0.244	0.125
-116.122	86.151	0.156	0.170
-115.107	62.774	-0.186	-0.184
-114.093	640.924	-0.085	-0.215
-113.078	-200.000	0.078	-0.403
-112.064	-120.351	0.128	-0.022
-111.049	800.000	0.084	-0.248
-110.034	-200.000	0.008	-0.312
-109.020	-71.633	-0.137	0.051
-108.005	-200.000	0.013	-0.068
-106.991	-50.296	-0.099	-0.046
-105.976	-14.813	0.117	-0.074
-104.962	-98.640	0.243	-0.061
-103.947	-144.631	0.057	-0.005
-102.932	-114.437	0.265	0.050
-101.918	37.296	-0.287	-0.251
-100.903	800.000	0.026	-0.084
-99.889	-200.000	-0.007	-0.209
-98.874	-200.000	-0.082	-0.672
-97.859	800.000	0.111	-0.360
-96.845	-200.000	-0.010	-0.169
-95.830	-79.006	0.238	0.080
-94.816	-48.987	-0.289	-0.137
-93.801	540.260	-0.096	-0.227
-92.786	-111.682	0.318	-0.064
-91.772	288.074	-0.101	-0.181
-90.757	-158.237	0.341	0.020
-89.743	-200.000	-0.008	0.131
-88.728	159.724	-0.099	-0.137
-87.713	316.003	0.109	0.203
-86.699	41.416	0.112	0.100
-85.684	-87.632	0.175	0.052
-84.670	109.993	0.181	-0.215
-83.655	179.893	-0.080	-0.116
-82.640	-69.404	-0.376	-0.143
-81.626	82.795	-0.242	-0.260
-80.611	85.326	-0.064	0.070
-79.597	-105.513	-0.386	0.087
-78.582	83.991	0.205	-0.221
-77.567	-105.238	-0.415	-0.094
-76.553	-200.000	-0.045	-0.195
-75.538	443.929	0.065	-0.142
-74.524	3.058	0.057	0.041
-73.509	800.000	-0.047	0.150
-72.494	-102.435	0.079	-0.019
-71.480	-107.610	0.148	0.032
-70.465	395.260	-0.169	-0.348
-69.451	144.219	0.132	0.174
-68.436	-118.053	0.160	-0.028
-67.422	-29.764	0.146	-0.082
-66.407	-107.668	0.103	0.022
-65.392	-172.711	0.498	0.015
-64.378	163.491	-0.200	-0.279
-63.363	-116.148	-0.325	0.060
-62.349	59.245	0.079	-0.077
-61.334	35.837	-1.192	-1.036
-60.319	139.674	0.539	0.701
-59.305	-200.000	-0.172	-0.875
-58.290	317.913	0.616	1.151
-57.276	543.958	0.577	1.362
-56.261	-200.000	105.799	576.697
-55.246	454.854	1456.350	3189.395
-54.232	146.526	2649.134	3515.994
-53.217	97.578	2324.855	2639.510
-52.203	36.402	2077.223	1810.136
-51.188	31.776	1992.570	1694.586
-50.173	30.251	1975.683	1666.469
-49.159	45.072	2030.876	1848.539
-48.144	45.950	2047.852	1871.925
-47.130	32.257	2007.010	1710.972
-46.115	30.051	1996.097	1681.605
-45.100	29.902	1993.499	1677.997
-44.086	29.910	1991.165	1676.039
-43.071	29.898	1988.073	1673.264
-42.057	29.856	1986.533	1671.526
-41.042	29.914	1984.329	1670.120
-40.027	29.964	1981.824	1668.403
-39.013	29.935	1980.477	1666.939
-37.998	29.894	1977.770	1664.222
-36.984	29.951	1976.506	1663.604
-35.969	29.943	1974.443	1661.735
-34.954	29.967	1972.770	1660.479
-33.940	29.963	1972.040	1659.755
-32.925	29.994	1969.674	1657.980
-31.911	30.059	1968.048	1657.124
-30.896	29.951	1966.756	1655.008
-29.881	30.028	1965.395	1654.486
-28.867	29.993	1963.814	1652.778
-27.852	30.091	1962.018	1652.070
-26.838	30.067	1959.790	1649.913
-25.823	30.049	1957.895	1648.091
-24.809	30.069	1956.528	1647.057
-23.794	29.981	1954.734	1644.699
-22.779	29.970	1952.580	1642.728
-21.765	29.990	1951.008	1641.516
-20.750	30.006	1949.411	1640.246
-19.736	30.028	1948.129	1639.299
-18.721	30.094	1946.544	1638.487
-17.706	29.924	1945.274	1635.844
-16.692	30.087	1942.780	1635.121
-15.677	30.082	1941.436	1633.882
-14.663	29.977	1940.486	1632.095
-13.648	30.042	1938.191	1630.670
-12.633	30.101	1937.147	1630.245
-11.619	30.055	1936.007	1628.817
-10.604	29.971	1935.037	1627.198
-9.590	29.911	1934.265	1625.955
-8.575	29.994	1932.185	1624.877
-7.560	30.043	1930.305	1623.657
-6.546	30.039	1929.123	1622.568
-5.531	29.998	1928.154	1621.327
-4.517	30.007	1926.956	1620.335
-3.502	30.008	1925.729	1619.240
-2.487	30.048	1923.938	1618.020
-1.473	30.027	1923.544	1617.449
-0.458	30.201	1917.941	1614.187
0.556	28.049	1899.084	1586.216
1.571	23.896	1880.341	1534.665
2.586	20.080	1903.949	1520.382
3.600	19.067	1939.505	1539.578
4.615	18.946	1934.910	1534.717
5.629	14.943	1833.346	1420.106
6.644	6.015	1711.705	1254.714
7.659	0.688	1673.842	1185.155
8.673	0.237	1670.651	1179.254
9.688	0.131	1669.547	1177.543
10.702	0.107	1668.452	1176.481
11.717	0.076	1664.392	1173.270
12.731	0.563	1663.937	1176.645
13.746	7.133	1679.131	1238.822
14.761	15.307	1694.610	1314.452
15.775	17.724	1697.520	1335.550
16.790	16.968	1694.208	1326.915
17.804	15.811	1691.503	1315.635
18.819	14.897	1687.483	1305.257
19.834	14.369	1684.854	1298.993
20.848	13.990	1684.223	1295.439
21.863	13.888	1681.914	1292.756
22.877	13.456	1681.081	1288.639
23.892	13.266	1679.512	1285.846
24.907	13.232	1678.185	1284.447
25.921	13.272	1676.755	1283.551
26.936	13.193	1675.860	1282.138
27.950	13.195	1675.679	1281.901
28.965	13.202	1675.072	1281.383
29.980	13.364	1673.365	1281.212
30.994	13.348	1672.699	1280.468
32.009	13.387	1671.685	1279.879
33.023	13.393	1671.248	1279.479
34.038	13.477	1670.239	1279.240
35.053	13.451	1669.305	1278.211
36.067	13.390	1668.192	1276.776
37.082	13.276	1667.021	1274.887
38.096	13.352	1666.355	1274.854
39.111	13.483	1665.022	1274.727
40.126	13.369	1664.948	1273.685
41.140	13.337	1664.247	1272.785
42.155	13.224	1662.503	1270.470
43.169	13.231	1661.332	1269.520
44.184	13.222	1659.454	1267.901
45.199	13.161	1658.933	1266.926
46.213	13.180	1657.426	1265.805
47.228	13.190	1655.983	1264.666
48.242	13.249	1654.700	1264.025
49.257	13.311	1653.805	1263.706
50.271	13.272	1652.818	1262.542
51.286	13.248	1651.448	1261.198
52.301	13.273	1650.458	1260.526
53.315	13.308	1649.064	1259.612
54.330	13.372	1647.017	1258.423
55.344	13.367	1645.387	1257.032
56.359	13.268	1644.090	1255.178
57.374	13.328	1642.977	1254.674
58.388	13.198	1642.182	1252.972
59.403	13.221	1640.496	1251.748
60.417	13.147	1639.097	1250.004
61.432	13.150	1638.087	1249.151
62.447	13.144	1637.019	1248.181
63.461	13.058	1636.402	1246.951
64.476	13.021	1635.017	1245.502
65.490	13.133	1633.552	1245.119
66.505	13.054	1632.386	1243.524
67.520	13.123	1631.043	1242.916
68.534	13.096	1630.410	1242.118
69.549	13.125	1629.384	1241.445
70.563	13.199	1627.407	1240.382
71.578	13.202	1626.430	1239.550
72.593	13.159	1625.182	1238.172
73.607	13.101	1624.626	1237.204
74.622	13.038	1623.154	1235.498
75.636	12.982	1622.088	1234.161
76.651	13.105	1621.140	1234.245
77.666	13.083	1620.446	1233.449
78.680	13.061	1619.272	1232.278
79.695	13.102	1618.290	1231.732
80.709	13.074	1617.332	1230.682
81.724	13.112	1616.408	1230.157
82.739	13.189	1615.542	1229.961
83.753	13.185	1614.827	1229.272
84.768	13.222	1613.983	1228.800
85.782	13.255	1613.087	1228.252
86.797	13.375	1612.116	1228.296
87.812	13.436	1610.709	1227.565
88.826	13.307	1609.935	1225.915
89.841	13.236	1608.973	1224.548
90.855	13.227	1607.662	1223.373
91.870	13.316	1606.464	1223.011
92.884	13.294	1605.617	1222.099
93.899	13.326	1604.596	1221.451
94.914	13.340	1602.966	1220.203
95.928	13.376	1602.169	1219.754
96.943	13.489	1600.477	1219.189
97.957	13.381	1599.457	1217.508
98.972	13.388	1597.315	1215.825
99.987	13.296	1596.895	1214.720
101.001	13.428	1594.860	1214.033
102.016	13.246	1593.886	1211.852
103.030	13.325	1591.633	1210.606
104.045	13.324	1590.610	1209.717
105.060	13.309	1589.380	1208.562
106.074	13.273	1587.681	1206.904
107.089	13.271	1586.493	1205.878
108.103	13.166	1584.900	1203.792
109.118	13.155	1583.668	1202.672
110.133	13.183	1581.903	1201.428
111.147	13.167	1580.568	1200.189
112.162	13.151	1579.481	1199.143
113.176	13.247	1577.667	1198.356
114.191	13.180	1576.909	1197.194
115.206	13.231	1575.767	1196.585
116.220	13.276	1573.945	1195.420
117.235	13.180	1573.218	1194.071
118.249	13.239	1572.435	1193.796
119.264	13.184	1570.704	1191.981
120.279	13.114	1569.574	1190.510
121.293	13.216	1567.796	1189.794
122.308	13.098	1566.715	1188.018
123.322	13.172	1564.764	1186.965
124.337	13.233	1562.930	1185.908
125.352	13.170	1561.643	1184.376
126.366	13.117	1560.732	1183.195
127.381	13.139	1559.608	1182.401
128.395	13.143	1559.016	1181.874
129.410	13.156	1557.274	1180.540
130.424	13.087	1556.401	1179.286
131.439	13.095	1555.051	1178.211
132.454	13.165	1553.779	1177.643
133.468	13.252	1552.027	1176.835
134.483	13.236	1550.325	1175.322
135.497	13.350	1548.635	1174.749
136.512	13.234	1547.819	1173.203
137.527	13.384	1545.542	1172.438
138.541	13.273	1544.998	1171.129
139.556	13.309	1544.097	1170.601
140.570	13.330	1542.173	1169.186
141.585	13.394	1540.808	1168.497
142.600	13.352	1539.860	1167.382
143.614	13.360	1538.471	1166.279
144.629	13.445	1537.325	1165.909
145.643	13.568	1535.666	1165.410
146.658	13.523	1534.336	1163.983
147.673	13.532	1532.762	1162.752
148.687	13.421	1531.513	1160.918
149.702	13.436	1530.148	1159.891
150.716	13.406	1528.538	1158.357
151.731	13.417	1526.849	1157.050
152.746	13.282	1526.254	1155.557
153.760	13.364	1524.236	1154.494
154.775	13.391	1523.047	1153.678
155.789	13.515	1521.585	1153.335
156.804	13.481	1521.139	1152.656
157.819	13.525	1519.779	1151.833
158.833	13.607	1518.265	1151.151
159.848	13.645	1517.225	1150.525
160.862	13.669	1516.279	1149.874
161.877	13.654	1514.728	1148.493
162.892	13.648	1513.544	1147.449
163.906	13.614	1512.098	1146.016
164.921	13.498	1511.253	1144.473
165.935	13.480	1510.365	1143.575
166.950	13.488	1509.114	1142.587
167.964	13.481	1508.034	1141.614
168.979	13.511	1506.969	1140.917
169.994	13.578	1505.984	1140.530
171.008	13.518	1504.908	1139.199
172.023	13.520	1503.608	1138.128
173.037	13.632	1502.475	1137.943
174.052	13.679	1501.182	1137.186
175.067	13.669	1500.269	1136.320
176.081	13.660	1498.775	1135.027
177.096	13.562	1497.682	1133.430
178.110	13.557	1496.682	1132.538
179.125	13.613	1495.348	1131.809
180.140	13.610	1494.471	1131.027
181.154	13.611	1493.421	1130.139
182.169	13.607	1492.412	1129.246
183.183	13.731	1490.429	1128.495
184.198	13.760	1489.741	1128.070
185.213	13.766	1488.662	1127.191
186.227	13.777	1487.820	1126.530
187.242	13.809	1486.955	1125.991
188.256	13.925	1485.442	1125.534
189.271	13.804	1484.474	1123.879
190.286	13.886	1483.183	1123.358
191.300	13.887	1482.546	1122.783
192.315	13.763	1481.237	1120.852
193.329	13.553	1480.705	1118.933
194.344	13.649	1478.664	1117.939
195.359	13.660	1478.003	1117.418
196.373	13.799	1477.065	1117.545
197.388	13.866	1475.828	1116.963
198.402	13.901	1474.452	1116.053
199.417	13.872	1473.748	1115.233
200.432	13.992	1472.317	1114.855
201.446	13.977	1471.626	1114.134
202.461	14.039	1470.614	1113.681
203.475	14.114	1469.234	1113.039
204.490	14.130	1467.967	1112.085
205.504	14.075	1467.011	1110.901
206.519	14.121	1466.076	1110.399
207.534	14.032	1464.811	1108.747
208.548	14.025	1464.082	1108.053
209.563	14.024	1462.593	1106.821
210.577	13.982	1461.855	1105.887
211.592	14.039	1460.603	1105.221
212.607	14.088	1460.054	1105.030
213.621	14.164	1459.443	1104.978
214.636	14.175	1458.359	1104.128
215.650	14.197	1457.195	1103.301
216.665	14.172	1456.223	1102.297
217.680	14.233	1456.263	1102.639
218.694	14.317	1454.793	1101.978
219.709	14.327	1454.320	1101.593
220.723	14.382	1452.663	1100.605
221.738	14.311	1452.391	1099.828
222.753	14.362	1450.867	1098.918
223.767	14.208	1450.456	1097.491
224.782	14.243	1449.591	1096.969
225.796	14.300	1448.644	1096.532
226.811	14.416	1447.797	1096.557
227.826	14.432	1446.671	1095.711
228.840	14.387	1445.941	1094.765
229.855	14.376	1445.028	1093.906
230.869	14.369	1443.855	1092.872
231.884	14.418	1442.514	1092.081
232.899	14.369	1441.874	1091.185
233.913	14.277	1440.876	1089.729
234.928	14.316	1439.552	1088.884
235.942	14.338	1437.970	1087.740
236.957	14.311	1437.270	1086.932
237.972	14.194	1436.508	1085.497
238.986	14.419	1434.705	1085.505
240.001	14.393	1433.778	1084.541
241.015	14.313	1433.208	1083.494
242.030	14.438	1431.903	1083.223
243.045	14.518	1430.549	1082.624
244.059	14.503	1429.533	1081.660
245.074	14.464	1429.383	1081.196
246.088	14.544	1428.509	1080.957
247.103	14.473	1427.626	1079.735
248.117	14.617	1426.922	1080.040
249.132	14.644	1426.076	1079.479
250.147	14.689	1425.136	1078.964
251.161	14.790	1424.590	1079.106
252.176	14.708	1424.062	1078.078
253.190	14.786	1423.737	1078.239
254.205	14.885	1422.718	1078.015
255.220	14.793	1422.003	1076.786
256.234	14.924	1420.558	1076.440
257.249	14.933	1419.922	1075.916
258.263	14.928	1418.760	1074.912
259.278	14.959	1418.021	1074.453
260.293	14.959	1417.128	1073.680
261.307	14.994	1416.084	1073.023
262.322	15.098	1415.447	1073.111
263.336	14.966	1415.200	1071.981
264.351	15.030	1413.982	1071.373
265.366	15.058	1412.974	1070.696
266.380	15.039	1411.910	1069.670
267.395	14.983	1411.440	1068.863
268.409	15.003	1410.313	1068.043
269.424	15.057	1409.532	1067.703
270.439	15.077	1408.291	1066.796
271.453	15.060	1407.206	1065.772
272.468	15.155	1406.050	1065.406
273.482	15.099	1405.429	1064.486
274.497	15.048	1405.056	1063.785
275.512	15.154	1403.707	1063.339
276.526	15.114	1402.762	1062.275
277.541	15.092	1402.008	1061.471
278.555	15.124	1400.936	1060.770
279.570	15.139	1400.087	1060.129
280.585	15.143	1399.148	1059.347
281.599	15.323	1398.027	1059.541
282.614	15.193	1397.928	1058.551
283.628	15.274	1396.660	1058.009
284.643	15.170	1395.513	1056.390
285.657	15.264	1393.850	1055.630
286.672	15.313	1393.207	1055.359
287.687	15.196	1392.621	1054.087
288.701	15.371	1391.020	1053.883
289.716	15.322	1390.682	1053.222
290.730	15.287	1390.086	1052.462
291.745	15.330	1388.524	1051.453
292.760	15.380	1387.945	1051.235
293.774	15.360	1386.998	1050.297
294.789	15.301	1386.105	1049.159
295.803	15.376	1385.076	1048.761
296.818	15.430	1384.353	1048.458
297.833	15.392	1383.005	1047.107
298.847	15.328	1382.341	1046.110
299.862	15.410	1380.965	1045.489
300.876	15.413	1380.130	1044.780
301.891	15.384	1379.749	1044.220
302.906	15.465	1378.856	1043.952
303.920	15.581	1377.928	1043.884
304.935	15.598	1376.935	1043.140
305.949	15.573	1375.964	1042.162
306.964	15.628	1376.018	1042.451
307.979	15.697	1374.001	1041.255
308.993	15.563	1373.750	1040.146
310.008	15.655	1372.034	1039.324
311.022	15.706	1371.158	1038.882
312.037	15.729	1370.119	1038.144
313.052	15.725	1369.489	1037.548
314.066	15.678	1368.932	1036.747
315.081	15.655	1367.774	1035.638
316.095	15.676	1366.284	1034.543
317.110	15.589	1365.439	1033.281
318.125	15.631	1364.636	1032.839
319.139	15.576	1364.043	1031.959
320.154	15.688	1362.928	1031.711
321.168	15.665	1361.765	1030.597
322.183	15.690	1360.871	1029.986
323.197	15.672	1359.646	1028.857
324.212	15.728	1358.876	1028.524
325.227	15.659	1358.625	1027.820
326.241	15.733	1357.364	1027.232
327.256	15.787	1356.378	1026.722
328.270	15.788	1355.552	1026.013
329.285	15.834	1354.727	1025.579
330.300	15.780	1354.148	1024.722
331.314	15.799	1353.060	1023.920
332.329	15.795	1352.248	1023.194
333.343	15.763	1351.796	1022.567
334.358	15.793	1350.805	1021.906
335.373	15.793	1350.019	1021.224
336.387	15.825	1348.920	1020.492
337.402	15.949	1347.789	1020.302
338.416	15.985	1347.327	1020.080
339.431	16.020	1346.635	1019.673
340.446	16.072	1345.826	1019.286
341.460	16.058	1344.886	1018.397
342.475	16.069	1344.114	1017.789
343.489	16.064	1343.682	1017.345
344.504	16.170	1342.385	1016.910
345.519	16.149	1341.337	1015.901
346.533	16.223	1340.334	1015.496
347.548	16.240	1339.389	1014.791
348.562	16.314	1338.694	1014.622
349.577	16.202	1338.091	1013.403
350.592	16.281	1337.223	1013.126
351.606	16.280	1336.347	1012.370
352.621	16.164	1335.306	1010.796
353.635	16.143	1334.496	1009.970
354.650	16.208	1333.060	1009.182
355.665	16.214	1332.439	1008.659
356.679	16.283	1331.356	1008.161
357.694	16.256	1329.993	1006.876
358.708	16.332	1328.961	1006.463
359.723	16.187	1328.324	1005.025
360.738	16.276	1327.099	1004.542
361.752	16.342	1325.999	1004.007
362.767	16.370	1324.875	1003.235
363.781	16.320	1324.302	1002.417
364.796	16.264	1323.922	1001.711
365.810	16.423	1322.946	1001.821
366.825	16.439	1322.215	1001.276
367.840	16.423	1321.238	1000.351
368.854	16.447	1320.714	1000.010
369.869	16.496	1320.235	999.850
370.883	16.645	1319.246	999.891
371.898	16.477	1318.902	998.552
372.913	16.592	1317.837	998.336
373.927	16.576	1316.521	997.157
374.942	16.606	1315.899	996.771
375.956	16.556	1315.135	995.812
376.971	16.596	1314.460	995.444
377.986	16.654	1313.525	994.989
379.000	16.650	1312.583	994.165
380.015	16.630	1312.215	993.682
381.029	16.698	1311.124	993.165
382.044	16.771	1310.588	993.099
383.059	16.757	1309.690	992.251
384.073	16.841	1309.311	992.371
385.088	16.844	1308.396	991.602
386.102	16.934	1307.601	991.438
387.117	16.892	1306.833	990.525
388.132	16.818	1306.444	989.710
389.146	16.797	1305.575	988.842
390.161	16.903	1304.589	988.623
391.175	16.843	1303.602	987.439
392.190	16.864	1302.628	986.735
393.205	16.841	1302.187	986.183
394.219	16.799	1301.460	985.298
395.234	16.957	1299.724	984.814
396.248	16.870	1298.928	983.618
397.263	16.880	1297.127	982.229
398.278	16.964	1295.540	981.427
399.292	16.879	1294.772	980.264
400.307	16.891	1293.893	979.581
401.321	16.891	1292.703	978.595
402.336	16.887	1291.947	977.915
403.350	16.888	1291.047	977.149
404.365	16.936	1289.761	976.369
405.380	16.864	1289.472	975.650
406.394	16.851	1288.539	974.781
407.409	16.905	1287.867	974.497
408.423	17.117	1286.516	974.607
409.438	17.072	1286.260	974.065
410.453	17.100	1285.268	973.391
411.467	17.195	1284.963	973.619
412.482	17.168	1284.356	972.919
413.496	17.210	1283.695	972.573
414.511	17.202	1282.745	971.720
415.526	17.324	1282.121	971.854
416.540	17.327	1281.208	971.098
417.555	17.271	1280.782	970.367
418.569	17.323	1280.277	970.197
419.584	17.279	1279.582	969.333
420.599	17.329	1279.098	969.164
421.613	94.687	1352.895	1468.062
422.628	92.587	1363.615	1468.149
