DTS Sentinel unit serial number:	SN413079Multiplexer serial number:	ORYXHardware model number:	OX4-SRSoftware version number:	ORYX F/W v4.00 Oryx Data Collector v3.7.2.0data status	okinstallation	princeton_trtdifferential loss correction	single-endedforward channel	channel 4reverse channel	N/Adate	2019/09/17time	00:29:35forward acquisition time	60.00reverse acquisition time	0.00gamma	496.2192k internal	0.2314k external	0.2314temperature offset calibration	0.9973default loss term (dB/km)	0.3790temperature slope calibration	1.0000multiplexer offset coefficient	1.0000multiplexer slope coefficient	1.0000fibre end	0.00T internal ref (°C)	29.50T ext. ref 1 (°C)	0.10T ext. ref 2 (°C)	23.79length (m)	temperature (°C)	Stokes	anti-Stokes-747.200	-74.080	0.141	-0.052
-746.185	800.000	0.031	-0.095
-745.171	103.322	0.037	-0.044
-744.156	669.222	-0.100	0.264
-743.142	66.844	0.127	0.131
-742.127	-118.327	0.287	-0.052
-741.112	762.530	-0.118	0.324
-740.098	-11.226	0.207	0.138
-739.083	800.000	-0.141	-0.444
-738.069	23.449	0.057	0.048
-737.054	800.000	-0.019	-0.061
-736.039	-16.985	-0.178	0.114
-735.025	652.118	-0.094	0.245
-734.010	-200.000	0.009	0.270
-732.996	-200.000	0.017	0.135
-731.981	461.970	0.045	0.102
-730.966	-200.000	-0.019	0.156
-729.952	16.549	-0.299	0.239
-728.937	51.021	0.122	-0.117
-727.923	247.431	-0.070	-0.119
-726.908	12.250	-0.231	-0.180
-725.894	-25.590	0.277	0.166
-724.879	8.543	0.031	0.023
-723.864	-200.000	-0.031	0.178
-722.850	-85.238	-0.386	0.122
-721.835	-64.703	0.309	-0.127
-720.821	136.605	-0.105	-0.139
-719.806	-19.821	0.171	0.107
-718.791	-133.848	-0.368	0.046
-717.777	190.696	-0.127	-0.193
-716.762	-200.000	0.168	-0.000
-715.748	-200.000	-0.010	-0.393
-714.733	-92.914	-0.223	-0.063
-713.718	142.955	-0.071	0.095
-712.704	162.060	-0.161	-0.228
-711.689	-26.566	-0.354	0.210
-710.675	-9.223	-0.161	0.109
-709.660	-183.182	-0.314	0.006
-708.645	-200.000	0.038	-0.285
-707.631	800.000	0.067	0.264
-706.616	-10.911	0.186	0.124
-705.602	-54.568	0.198	-0.091
-704.587	27.275	-0.187	-0.159
-703.572	-6.634	0.082	-0.056
-702.558	-141.009	-0.097	-0.010
-701.543	27.021	-0.063	-0.053
-700.529	-81.502	0.228	0.076
-699.514	-9.033	0.250	-0.169
-698.499	-75.952	-0.102	-0.037
-697.485	-33.880	0.182	0.102
-696.470	-101.283	-0.087	0.021
-695.456	-200.000	-0.006	-0.156
-694.441	289.759	-0.234	-0.430
-693.426	152.806	0.272	-0.377
-692.412	165.143	-0.128	-0.182
-691.397	54.762	0.165	0.161
-690.383	689.964	-0.097	-0.257
-689.368	-200.000	-0.001	-0.366
-688.354	-81.753	-0.063	0.021
-687.339	-78.718	0.198	-0.069
-686.324	-200.000	0.008	-0.225
-685.310	800.000	-0.149	0.499
-684.295	777.536	-0.009	0.025
-683.281	-32.948	-0.164	0.092
-682.266	-145.636	0.166	-0.015
-681.251	176.816	0.047	-0.069
-680.237	-200.000	-0.026	-0.152
-679.222	-200.000	0.009	-0.310
-678.208	173.206	-0.164	-0.238
-677.193	164.381	0.073	-0.104
-676.178	189.686	-0.192	-0.291
-675.164	164.594	-0.119	0.169
-674.149	-36.786	0.335	0.182
-673.135	-4.961	-0.369	0.257
-672.120	-10.342	0.338	0.227
-671.105	-124.175	-0.391	0.062
-670.091	655.282	0.114	0.295
-669.076	-200.000	0.006	0.206
-668.062	53.530	0.021	0.021
-667.047	71.691	-0.300	-0.315
-666.032	-43.164	0.156	-0.080
-665.018	-200.000	0.016	0.249
-664.003	88.736	-0.200	0.224
-662.989	-80.317	-0.315	-0.106
-661.974	7.609	-0.297	0.225
-660.959	-155.930	-0.062	0.004
-659.945	-74.094	-0.035	0.013
-658.930	-85.077	0.193	0.061
-657.916	35.646	0.218	0.194
-656.901	28.960	0.087	-0.074
-655.886	-123.233	0.269	-0.044
-654.872	-200.000	-0.159	0.000
-653.857	668.719	-0.082	-0.213
-652.843	8.785	-0.265	-0.202
-651.828	-200.000	0.004	-0.068
-650.814	-200.000	-0.011	-0.164
-649.799	-131.893	-0.020	-0.003
-648.784	-18.204	0.097	-0.061
-647.770	-87.838	-0.239	0.073
-646.755	-200.000	-0.005	-0.066
-645.741	373.687	-0.069	0.143
-644.726	-200.000	-0.007	-0.132
-643.711	-48.998	0.157	-0.076
-642.697	-109.339	0.085	-0.018
-641.682	165.448	-0.100	-0.143
-640.668	-59.265	0.192	-0.083
-639.653	800.000	0.032	0.128
-638.638	567.680	-0.049	-0.121
-637.624	-23.488	0.136	0.082
-636.609	-135.129	-0.194	-0.024
-635.595	377.042	0.112	-0.231
-634.580	13.526	0.138	-0.108
-633.565	114.810	-0.138	-0.170
-632.551	-65.471	0.073	-0.030
-631.536	-109.113	0.129	-0.028
-630.522	-14.367	0.394	0.256
-629.507	-50.840	0.264	-0.125
-628.492	186.652	-0.205	-0.308
-627.478	18.867	-0.217	-0.176
-626.463	-200.000	-0.019	-0.325
-625.449	-122.520	0.040	0.007
-624.434	1.295	-0.182	0.132
-623.419	-200.000	0.011	0.133
-622.405	-200.000	-0.007	0.213
-621.390	44.709	-0.133	-0.124
-620.376	118.276	0.089	-0.110
-619.361	800.000	0.088	-0.331
-618.346	475.385	-0.131	-0.298
-617.332	-81.515	-0.355	-0.118
-616.317	-36.583	-0.387	-0.210
-615.303	-165.788	0.186	-0.008
-614.288	2.350	0.327	-0.239
-613.273	-33.266	-0.301	0.168
-612.259	800.000	-0.051	-0.225
-611.244	-69.611	-0.233	-0.090
-610.230	800.000	0.095	-0.417
-609.215	-200.000	0.005	-0.038
-608.201	28.195	0.105	-0.089
-607.186	-154.763	-0.032	-0.002
-606.171	12.380	-0.128	-0.100
-605.157	-200.000	0.013	0.126
-604.142	442.606	0.042	0.093
-603.128	-24.436	-0.396	0.238
-602.113	541.515	-0.033	-0.078
-601.098	-77.486	0.199	0.070
-600.084	81.883	-0.102	-0.112
-599.069	746.808	-0.127	0.345
-598.055	-100.382	0.168	-0.042
-597.040	7.166	-0.157	0.118
-596.025	-43.738	-0.212	-0.108
-595.011	383.135	-0.217	-0.450
-593.996	-200.000	-0.053	0.273
-592.982	-200.000	-0.007	0.199
-591.967	295.242	0.086	0.158
-590.952	736.155	0.129	0.349
-589.938	-79.504	0.394	-0.134
-588.923	-25.011	-0.310	-0.185
-587.909	-200.000	0.002	-0.252
-586.894	-25.766	-0.095	0.056
-585.879	800.000	-0.130	0.383
-584.865	-200.000	-0.047	0.276
-583.850	-200.000	-0.006	-0.030
-582.836	-127.953	-0.369	0.053
-581.821	-141.477	-0.200	0.020
-580.806	15.886	-0.219	-0.174
-579.792	-200.000	0.031	0.203
-578.777	-101.831	-0.051	0.013
-577.763	-57.143	0.068	-0.030
-576.748	183.459	0.180	-0.269
-575.733	-77.327	-0.406	0.142
-574.719	25.535	-0.223	0.187
-573.704	-200.000	0.016	-0.227
-572.690	-141.999	0.501	0.050
-571.675	-119.036	0.266	0.047
-570.661	800.000	0.037	-0.119
-569.646	-144.731	0.483	0.045
-568.631	800.000	-0.043	-0.168
-567.617	294.977	-0.035	0.064
-566.602	19.796	-0.223	0.181
-565.588	422.748	-0.184	-0.397
-564.573	-51.652	-0.197	-0.093
-563.558	-38.241	-0.368	0.196
-562.544	-127.088	0.157	-0.023
-561.529	-44.347	0.213	0.107
-560.515	111.633	-0.073	-0.088
-559.500	137.979	-0.198	0.261
-558.485	-71.357	0.447	0.168
-557.471	484.107	-0.014	0.033
-556.456	226.257	-0.050	0.082
-555.442	36.086	-0.061	0.054
-554.427	-117.176	-0.243	-0.045
-553.412	150.029	0.086	0.118
-552.398	-200.000	0.051	0.249
-551.383	-65.809	0.146	0.059
-550.369	-64.634	-0.193	0.079
-549.354	-38.226	-0.172	-0.092
-548.339	333.486	-0.096	-0.186
-547.325	-118.847	0.325	0.057
-546.310	-200.000	-0.017	-0.106
-545.296	14.794	-0.226	0.178
-544.281	-129.227	0.431	0.060
-543.266	-200.000	0.011	0.162
-542.252	19.924	0.209	0.169
-541.237	94.810	0.227	0.259
-540.223	-200.000	-0.032	0.178
-539.208	165.426	0.246	-0.350
-538.193	800.000	-0.022	-0.083
-537.179	-43.334	-0.177	0.090
-536.164	364.648	0.093	-0.188
-535.150	213.103	-0.091	0.144
-534.135	-200.000	-0.011	-0.132
-533.121	-132.258	0.409	0.053
-532.106	-200.000	0.005	-0.173
-531.091	-72.098	-0.020	-0.007
-530.077	-1.128	-0.355	0.252
-529.062	145.678	-0.053	0.071
-528.048	41.145	-0.175	0.159
-527.033	-20.998	-0.363	-0.224
-526.018	8.634	-0.258	0.195
-525.004	-200.000	0.015	0.305
-523.989	-89.567	0.255	-0.075
-522.975	78.264	0.032	0.034
-521.960	-14.532	-0.270	-0.175
-520.945	91.924	-0.200	-0.227
-519.931	-77.239	-0.344	0.120
-518.916	-123.627	-0.103	0.016
-517.902	7.948	0.217	0.163
-516.887	-75.488	-0.068	0.024
-515.872	800.000	0.046	-0.134
-514.858	379.900	0.076	0.156
-513.843	800.000	0.120	0.502
-512.829	-72.113	-0.118	0.044
-511.814	556.895	0.088	-0.214
-510.799	140.255	0.090	-0.120
-509.785	-8.485	-0.229	0.155
-508.770	-108.416	0.330	0.071
-507.756	-200.000	-0.010	-0.228
-506.741	124.636	-0.136	0.172
-505.726	62.895	0.074	0.075
-504.712	21.405	0.092	0.075
-503.697	800.000	0.053	-0.163
-502.683	-30.263	-0.342	-0.195
-501.668	547.708	0.082	0.197
-500.653	-200.000	-0.037	0.207
-499.639	132.301	0.026	0.034
-498.624	-93.215	0.103	0.029
-497.610	44.807	0.110	0.102
-496.595	-120.059	-0.272	0.047
-495.581	-31.752	-0.071	0.040
-494.566	440.481	0.043	0.094
-493.551	-160.014	-0.123	-0.007
-492.537	323.170	0.182	-0.348
-491.522	-89.329	-0.233	0.069
-490.508	725.689	-0.093	-0.248
-489.493	-200.000	-0.034	0.358
-488.478	234.391	-0.149	0.246
-487.464	775.728	-0.034	0.093
-486.449	-125.305	0.299	0.046
-485.435	-2.320	-0.256	-0.180
-484.420	-149.818	0.257	-0.020
-483.405	-47.869	0.174	0.085
-482.391	-63.073	-0.127	-0.053
-481.376	43.634	0.149	-0.137
-480.362	-95.353	0.459	-0.124
-479.347	800.000	-0.061	-0.210
-478.332	3.629	-0.146	-0.107
-477.318	4.612	-0.099	-0.073
-476.303	-39.037	-0.089	-0.047
-475.289	800.000	0.030	-0.127
-474.274	-124.927	0.351	0.054
-473.259	-128.882	0.238	-0.034
-472.245	265.894	-0.044	-0.077
-471.230	26.893	0.364	-0.306
-470.216	-131.206	-0.490	-0.065
-469.201	-121.525	-0.339	-0.057
-468.186	355.768	0.145	-0.290
-467.172	-200.000	0.010	-0.199
-466.157	220.474	0.180	-0.289
-465.143	51.621	0.186	-0.177
-464.128	-12.588	0.165	0.108
-463.113	-61.864	-0.295	-0.124
-462.099	-67.482	-0.203	0.080
-461.084	-200.000	0.011	-0.227
-460.070	-200.000	-0.024	-0.162
-459.055	159.914	-0.071	-0.099
-458.040	800.000	-0.058	-0.171
-457.026	-107.877	0.473	-0.103
-456.011	-88.743	-0.309	0.092
-454.997	-130.650	0.265	0.036
-453.982	-200.000	-0.021	-0.235
-452.968	11.660	0.206	-0.159
-451.953	-109.785	0.322	0.068
-450.938	-65.640	0.162	0.065
-449.924	471.400	0.090	-0.203
-448.909	267.232	0.052	0.091
-447.895	84.930	0.347	0.381
-446.880	-200.000	-0.019	0.153
-445.865	481.492	-0.067	-0.151
-444.851	-41.097	-0.290	0.150
-443.836	-7.807	0.046	-0.031
-442.822	-92.634	-0.155	-0.044
-441.807	-155.832	0.219	-0.014
-440.792	166.629	-0.150	0.214
-439.778	117.996	0.249	0.307
-438.763	104.869	0.160	0.189
-437.749	-84.185	-0.166	0.053
-436.734	37.207	0.067	-0.060
-435.719	-132.623	-0.172	0.022
-434.705	246.533	0.063	-0.107
-433.690	-200.000	-0.021	-0.414
-432.676	-6.042	0.032	0.022
-431.661	19.686	-0.275	0.221
-430.646	-2.845	0.115	-0.080
-429.632	22.263	0.015	0.012
-428.617	17.507	0.284	0.226
-427.603	-200.000	-0.025	0.160
-426.588	-177.960	0.263	0.006
-425.573	-40.906	-0.106	0.055
-424.559	128.437	-0.091	-0.116
-423.544	-152.082	-0.194	-0.014
-422.530	-78.949	0.132	-0.045
-421.515	-147.807	-0.327	0.027
-420.500	-7.951	-0.320	0.216
-419.486	-172.544	0.207	-0.007
-418.471	171.851	0.205	0.295
-417.457	-200.000	-0.112	0.508
-416.442	100.187	0.091	-0.106
-415.428	212.501	0.078	0.123
-414.413	362.899	0.100	0.202
-413.398	9.145	-0.057	0.043
-412.384	-200.000	-0.285	0.000
-411.369	-44.804	0.158	-0.079
-410.355	-200.000	0.042	-0.343
-409.340	-121.690	-0.202	-0.034
-408.325	-147.574	0.056	-0.005
-407.311	-10.205	0.183	-0.121
-406.296	800.000	0.096	0.305
-405.282	-35.089	-0.192	-0.105
-404.267	-145.281	-0.088	-0.008
-403.252	800.000	0.063	0.185
-402.238	800.000	-0.029	-0.086
-401.223	-200.000	0.038	0.629
-400.209	800.000	0.065	0.236
-399.194	308.362	0.125	0.233
-398.179	316.685	-0.136	-0.257
-397.165	-115.275	-0.313	0.059
-396.150	35.058	-0.242	0.212
-395.136	-119.803	-0.289	-0.050
-394.121	-156.483	0.208	-0.013
-393.106	800.000	-0.123	-0.347
-392.092	100.226	-0.242	0.280
-391.077	38.799	-0.042	0.037
-390.063	800.000	0.036	0.114
-389.048	365.444	0.060	-0.120
-388.033	-200.000	0.006	0.065
-387.019	43.094	0.111	0.101
-386.004	175.400	-0.118	-0.171
-384.990	82.145	-0.104	0.113
-383.975	-160.973	0.123	-0.006
-382.960	-23.807	-0.134	0.080
-381.946	11.869	0.248	-0.191
-380.931	800.000	0.071	-0.226
-379.917	105.132	-0.048	-0.057
-378.902	373.284	0.034	0.068
-377.888	-200.000	0.007	-0.060
-376.873	-200.000	-0.012	0.139
-375.858	106.471	-0.182	0.216
-374.844	128.079	-0.032	-0.041
-373.829	-200.000	0.003	0.065
-372.815	177.179	0.069	-0.101
-371.800	535.047	0.099	-0.234
-370.785	-88.308	0.203	0.061
-369.771	-49.468	0.034	0.016
-368.756	-126.948	0.140	-0.021
-367.742	-120.616	-0.098	0.017
-366.727	-152.988	-0.128	0.009
-365.712	-156.326	0.271	0.017
-364.698	0.461	-0.218	-0.156
-363.683	736.409	-0.087	-0.234
-362.669	42.457	0.311	-0.283
-361.654	51.559	0.177	-0.168
-360.639	181.748	0.197	0.290
-359.625	-84.795	-0.328	0.103
-358.610	-5.875	-0.116	-0.080
-357.596	-12.696	0.289	-0.188
-356.581	-43.150	-0.481	0.244
-355.566	800.000	0.051	0.152
-354.552	-200.000	0.072	-0.350
-353.537	-179.485	0.260	0.006
-352.523	194.095	-0.195	-0.296
-351.508	-57.196	-0.224	0.098
-350.493	-200.000	0.040	-0.387
-349.479	-200.000	0.016	0.176
-348.464	-34.930	0.133	0.072
-347.450	36.757	-0.115	-0.102
-346.435	42.473	-0.308	0.280
-345.420	678.798	-0.031	-0.081
-344.406	-41.393	0.175	-0.090
-343.391	11.088	0.272	0.208
-342.377	-200.000	-0.028	0.138
-341.362	695.359	-0.181	-0.475
-340.348	160.063	0.165	0.229
-339.333	215.427	0.036	-0.057
-338.318	-200.000	0.009	0.266
-337.304	-56.950	0.115	0.050
-336.289	326.600	-0.042	0.080
-335.275	-24.825	-0.040	0.024
-334.260	-64.381	-0.447	-0.181
-333.245	-57.887	-0.101	0.044
-332.231	277.728	0.069	0.123
-331.216	131.633	0.150	-0.192
-330.202	-200.000	-0.004	-0.037
-329.187	-200.000	-0.010	-0.215
-328.172	243.332	0.089	0.149
-327.158	-200.000	0.020	-0.170
-326.143	-33.644	-0.142	-0.078
-325.129	55.655	-0.312	-0.301
-324.114	158.798	-0.074	0.102
-323.099	-30.505	0.159	0.090
-322.085	-51.158	-0.137	0.064
-321.070	338.277	-0.030	-0.058
-320.056	437.284	-0.157	-0.341
-319.041	28.867	0.239	-0.202
-318.026	-83.008	-0.147	0.047
-317.012	800.000	0.181	0.599
-315.997	52.116	0.104	-0.099
-314.983	252.677	-0.148	-0.252
-313.968	791.414	-0.097	0.265
-312.953	137.374	-0.140	0.182
-311.939	-21.048	-0.325	0.198
-310.924	-123.946	0.044	-0.007
-309.910	800.000	-0.038	0.120
-308.895	-79.693	0.150	-0.050
-307.880	212.909	-0.013	0.021
-306.866	800.000	-0.072	-0.228
-305.851	-49.318	0.290	0.138
-304.837	-54.893	0.134	0.060
-303.822	800.000	0.040	-0.110
-302.807	-2.832	-0.328	-0.228
-301.793	14.792	-0.096	-0.075
-300.778	622.393	-0.126	0.316
-299.764	33.295	0.221	-0.191
-298.749	-62.075	0.166	-0.069
-297.735	498.436	0.031	0.071
-296.720	-200.000	-0.004	0.113
-295.705	-200.000	0.003	-0.158
-294.691	306.259	-0.179	-0.331
-293.676	-34.701	0.202	-0.110
-292.662	26.344	0.105	-0.087
-291.647	647.834	-0.043	0.111
-290.632	25.786	0.104	0.086
-289.618	271.288	-0.104	0.182
-288.603	800.000	-0.136	-0.451
-287.589	16.472	0.238	-0.188
-286.574	-23.779	-0.254	0.152
-285.559	26.725	0.207	0.173
-284.545	-74.692	-0.309	0.111
-283.530	-95.665	0.357	-0.095
-282.516	57.129	0.362	-0.352
-281.501	755.620	-0.027	0.073
-280.486	115.516	-0.035	-0.043
-279.472	296.227	0.091	0.166
-278.457	292.215	0.092	0.166
-277.443	800.000	0.081	-0.303
-276.428	-35.333	-0.250	0.135
-275.413	-17.698	0.175	-0.110
-274.399	800.000	-0.069	-0.276
-273.384	-162.481	0.184	-0.009
-272.370	124.327	0.114	0.143
-271.355	-141.954	-0.524	0.052
-270.340	305.278	-0.141	-0.261
-269.326	-200.000	0.016	0.104
-268.311	-55.205	-0.044	-0.020
-267.297	614.806	-0.141	0.352
-266.282	12.744	0.078	-0.060
-265.267	60.774	0.177	-0.175
-264.253	335.514	0.078	0.150
-263.238	-63.794	-0.211	-0.086
-262.224	89.878	-0.233	0.259
-261.209	-66.302	0.149	0.059
-260.195	25.096	0.122	0.101
-259.180	-65.168	-0.351	0.141
-258.165	-140.754	0.328	0.034
-257.151	800.000	0.084	0.320
-256.136	800.000	-0.130	0.446
-255.122	800.000	-0.012	-0.035
-254.107	800.000	0.037	-0.103
-253.092	257.136	-0.092	0.157
-252.078	-46.695	0.147	-0.072
-251.063	-145.883	-0.266	-0.023
-250.049	-117.088	-0.313	0.057
-249.034	800.000	-0.006	-0.020
-248.019	-25.383	0.083	0.049
-247.005	-200.000	-0.007	0.371
-245.990	91.803	-0.201	0.225
-244.976	-200.000	-0.046	-0.430
-243.961	366.226	-0.059	-0.118
-242.946	-65.240	0.534	0.214
-241.932	-165.298	0.442	0.019
-240.917	120.850	-0.112	-0.139
-239.903	-146.718	0.577	-0.050
-238.888	-200.000	-0.242	-0.001
-237.873	-120.912	0.266	-0.045
-236.859	315.859	0.153	0.288
-235.844	-200.000	0.085	-0.388
-234.830	-200.000	0.023	-0.181
-233.815	353.119	0.079	0.157
-232.800	113.560	-0.064	-0.077
-231.786	800.000	0.042	0.151
-230.771	-47.553	0.114	0.055
-229.757	800.000	0.017	-0.053
-228.742	-93.098	0.091	0.025
-227.727	-49.108	-0.457	-0.217
-226.713	345.171	0.060	0.117
-225.698	800.000	-0.082	-0.275
-224.684	13.438	0.187	-0.144
-223.669	186.721	0.200	0.296
-222.655	-200.000	-0.006	0.144
-221.640	-160.887	0.262	-0.014
-220.625	800.000	0.071	-0.269
-219.611	-125.523	0.279	-0.042
-218.596	-84.225	-0.030	-0.009
-217.582	-200.000	0.018	0.088
-216.567	800.000	0.093	-0.258
-215.552	-200.000	-0.003	-0.134
-214.538	-28.147	0.120	-0.069
-213.523	-200.000	-0.054	-0.336
-212.509	-22.720	0.312	0.187
-211.494	79.491	0.088	0.093
-210.479	69.123	-0.078	0.079
-209.465	775.190	0.096	0.259
-208.450	800.000	0.070	0.300
-207.436	800.000	-0.012	0.037
-206.421	-200.000	0.048	-0.213
-205.406	-22.032	-0.050	-0.030
-204.392	800.000	-0.030	-0.094
-203.377	-147.253	-0.333	-0.028
-202.363	-200.000	0.084	-0.378
-201.348	800.000	0.014	-0.040
-200.333	-200.000	-0.038	0.348
-199.319	-23.293	0.279	0.167
-198.304	-52.000	-0.079	-0.036
-197.290	-200.000	-0.040	-0.243
-196.275	-20.853	0.199	0.121
-195.260	-200.000	-0.007	-0.104
-194.246	15.525	0.153	-0.119
-193.231	-200.000	0.017	0.178
-192.217	-112.802	-0.212	0.042
-191.202	-18.324	-0.140	-0.087
-190.187	80.443	-0.252	-0.269
-189.173	-11.552	-0.061	-0.040
-188.158	-116.591	-0.183	0.033
-187.144	41.297	0.097	-0.087
-186.129	-130.032	-0.438	-0.059
-185.114	121.114	0.097	0.120
-184.100	114.989	0.145	-0.176
-183.085	-177.479	0.271	0.007
-182.071	95.313	0.077	0.087
-181.056	-200.000	-0.042	0.219
-180.042	17.758	0.187	0.147
-179.027	-200.000	-0.008	-0.145
-178.012	203.212	-0.038	-0.058
-176.998	37.297	0.307	0.270
-175.983	-21.021	0.168	0.102
-174.969	423.094	0.052	-0.112
-173.954	-144.701	-0.182	-0.017
-172.939	514.958	-0.077	0.179
-171.925	25.188	0.204	0.168
-170.910	800.000	0.035	-0.117
-169.896	-200.000	0.038	-0.192
-168.881	-128.174	0.312	0.044
-167.866	653.415	-0.158	-0.402
-166.852	-74.747	-0.173	0.062
-165.837	-24.409	0.313	0.185
-164.823	162.453	-0.043	-0.060
-163.808	227.460	0.041	0.066
-162.793	800.000	-0.069	0.242
-161.779	-200.000	0.026	0.170
-160.764	-33.516	-0.200	0.110
-159.750	37.769	0.254	-0.223
-158.735	93.914	-0.291	0.328
-157.720	-200.000	-0.114	0.687
-156.706	800.000	-0.043	0.167
-155.691	-81.881	-0.423	-0.137
-154.677	-116.385	0.242	-0.044
-153.662	319.072	-0.073	0.137
-152.647	-131.823	-0.265	-0.034
-151.633	800.000	0.105	-0.406
-150.618	176.447	-0.050	-0.072
-149.604	157.869	0.091	-0.126
-148.589	-4.681	-0.265	-0.181
-147.574	109.622	0.160	-0.190
-146.560	-32.540	-0.229	0.127
-145.545	-200.000	-0.032	0.138
-144.531	-200.000	-0.490	-0.000
-143.516	19.436	0.034	-0.027
-142.502	406.296	-0.059	0.123
-141.487	-76.788	-0.254	-0.088
-140.472	-200.000	-0.029	-0.159
-139.458	88.306	-0.039	0.043
-138.443	800.000	0.008	0.026
-137.429	10.158	0.230	0.173
-136.414	-79.288	0.318	-0.107
-135.399	138.131	-0.071	-0.093
-134.385	213.681	-0.047	0.074
-133.370	-200.000	0.007	-0.043
-132.356	-123.193	-0.106	0.017
-131.341	-17.945	0.206	0.128
-130.326	-65.793	0.231	0.092
-129.312	800.000	0.017	0.053
-128.297	-42.444	0.209	-0.105
-127.283	-200.000	0.011	-0.213
-126.268	-92.954	-0.397	-0.110
-125.253	-96.017	0.096	-0.025
-124.239	7.732	-0.072	0.053
-123.224	178.938	0.225	0.325
-122.210	48.314	-0.032	0.030
-121.195	-200.000	0.025	0.426
-120.180	119.173	-0.151	-0.185
-119.166	-78.147	0.222	-0.075
-118.151	800.000	-0.064	-0.238
-117.137	-37.612	0.085	0.045
-116.122	16.351	-0.271	0.211
-115.107	-90.444	-0.287	0.082
-114.093	-62.078	0.195	-0.080
-113.078	-111.353	-0.053	-0.011
-112.064	317.349	0.036	0.066
-111.049	-41.683	0.252	-0.128
-110.034	-77.994	-0.421	-0.143
-109.020	-121.646	-0.487	-0.080
-108.005	-25.636	0.333	-0.195
-106.991	-200.000	-0.007	-0.140
-105.976	55.856	-0.057	0.055
-104.962	-118.026	-0.041	0.007
-103.947	75.433	0.223	0.233
-102.932	-200.000	0.017	0.162
-101.918	538.364	0.094	0.222
-100.903	218.936	0.027	0.042
-99.889	55.692	-0.296	-0.283
-98.874	-33.762	-0.136	-0.074
-97.859	515.617	0.037	-0.087
-96.845	-32.101	-0.144	-0.079
-95.830	-121.551	0.127	-0.021
-94.816	-200.000	0.013	-0.067
-93.801	-152.216	-0.125	0.009
-92.786	-91.725	0.280	0.079
-91.772	182.918	0.228	-0.333
-90.757	-200.000	-0.020	0.147
-89.743	-200.000	-0.006	0.118
-88.728	-131.023	0.152	-0.020
-87.713	800.000	-0.032	0.099
-86.699	181.303	-0.130	0.188
-85.684	89.210	0.220	-0.242
-84.670	-175.199	-0.210	0.006
-83.655	-200.000	0.006	-0.029
-82.640	35.048	0.280	-0.242
-81.626	246.472	-0.098	0.164
-80.611	800.000	0.068	-0.202
-79.597	-200.000	-0.040	-0.250
-78.582	-5.559	0.024	-0.016
-77.567	71.671	0.065	0.067
-76.553	-127.985	-0.112	0.016
-75.538	-99.048	0.073	-0.018
-74.524	10.620	0.102	0.077
-73.509	-142.588	0.126	0.012
-72.494	-200.000	-0.029	-0.278
-71.480	548.439	-0.054	0.127
-70.465	-200.000	0.002	0.136
-69.451	-89.803	0.286	-0.083
-68.436	-200.000	-0.032	0.212
-67.422	800.000	-0.101	0.361
-66.407	-65.840	0.355	0.140
-65.392	18.662	-0.125	-0.099
-64.378	127.170	0.145	-0.182
-63.363	800.000	0.050	0.160
-62.349	250.892	0.334	0.561
-61.334	107.414	-0.850	-0.998
-60.319	800.000	0.280	0.833
-59.305	-200.000	-0.200	-1.120
-58.290	189.336	0.558	0.826
-57.276	800.000	0.519	1.763
-56.261	-200.000	108.598	593.265
-55.246	438.495	1487.741	3203.880
-54.232	143.440	2676.431	3517.275
-53.217	96.176	2319.949	2617.640
-52.203	35.721	2070.611	1795.988
-51.188	31.271	1986.971	1683.369
-50.173	29.753	1970.715	1655.948
-49.159	45.843	2028.503	1851.263
-48.144	46.154	2045.176	1869.239
-47.130	31.755	2003.384	1701.407
-46.115	29.584	1992.018	1672.052
-45.100	29.409	1989.563	1668.342
-44.086	29.355	1987.071	1665.703
-43.071	29.297	1984.237	1662.740
-42.057	29.304	1982.663	1661.420
-41.042	29.311	1980.767	1659.820
-40.027	29.250	1979.078	1657.790
-39.013	29.381	1976.523	1656.763
-37.998	29.447	1974.473	1655.569
-36.984	29.360	1972.915	1653.423
-35.969	29.397	1971.161	1652.213
-34.954	29.417	1969.371	1650.827
-33.940	29.483	1967.524	1649.804
-32.925	29.451	1966.666	1648.732
-31.911	29.558	1964.303	1647.641
-30.896	29.470	1962.513	1645.294
-29.881	29.587	1960.706	1644.757
-28.867	29.557	1959.399	1643.324
-27.852	29.563	1957.745	1641.928
-26.838	29.565	1955.853	1640.290
-25.823	29.578	1954.134	1638.901
-24.809	29.510	1952.881	1637.181
-23.794	29.567	1950.984	1636.030
-22.779	29.594	1948.837	1634.409
-21.765	29.517	1947.694	1632.698
-20.750	29.498	1945.494	1630.625
-19.736	29.538	1944.519	1630.093
-18.721	29.488	1942.886	1628.220
-17.706	29.536	1941.110	1627.091
-16.692	29.487	1939.127	1624.932
-15.677	29.529	1937.741	1624.075
-14.663	29.497	1936.108	1622.365
-13.648	29.485	1935.279	1621.498
-12.633	29.529	1933.339	1620.193
-11.619	29.486	1932.629	1619.153
-10.604	29.582	1930.587	1618.220
-9.590	29.465	1930.073	1616.704
-8.575	29.520	1927.933	1615.329
-7.560	29.503	1927.022	1614.352
-6.546	29.549	1925.474	1613.390
-5.531	29.554	1924.025	1612.159
-4.517	29.445	1923.345	1610.575
-3.502	29.491	1922.481	1610.188
-2.487	29.477	1921.291	1609.000
-1.473	29.422	1920.008	1607.384
-0.458	29.501	1915.312	1604.078
0.556	27.530	1895.012	1576.649
1.571	23.420	1876.503	1525.810
2.586	19.603	1900.250	1511.644
3.600	18.770	1935.533	1532.145
4.615	18.703	1930.364	1527.326
5.629	14.541	1829.592	1412.298
6.644	5.724	1709.479	1249.433
7.659	0.612	1671.374	1181.553
8.673	0.218	1668.353	1176.235
9.688	0.134	1666.863	1174.431
10.702	0.092	1665.647	1173.142
11.717	-0.054	1662.215	1169.484
12.731	0.615	1661.476	1174.058
13.746	7.008	1675.487	1233.852
14.761	15.111	1692.302	1309.735
15.775	17.702	1695.078	1332.039
16.790	16.989	1692.220	1324.109
17.804	15.884	1688.843	1312.745
18.819	14.914	1685.646	1302.586
19.834	14.366	1682.913	1296.096
20.848	14.054	1681.401	1292.398
21.863	13.792	1680.038	1289.197
22.877	13.485	1678.576	1285.577
23.892	13.287	1677.174	1282.854
24.907	13.252	1676.166	1281.697
25.921	13.105	1674.832	1279.426
26.936	13.168	1673.813	1279.024
27.950	13.198	1673.326	1278.767
28.965	13.314	1672.056	1278.584
29.980	13.362	1671.879	1278.701
30.994	13.333	1670.816	1277.555
32.009	13.429	1669.790	1277.396
33.023	13.411	1669.165	1276.672
34.038	13.436	1668.457	1276.209
35.053	13.487	1666.957	1275.339
36.067	13.414	1665.964	1273.907
37.082	13.363	1664.847	1272.544
38.096	13.336	1664.205	1271.735
39.111	13.364	1663.483	1271.285
40.126	13.542	1662.493	1271.784
41.140	13.420	1661.104	1269.672
42.155	13.299	1660.280	1267.999
43.169	13.177	1658.992	1265.972
44.184	13.179	1657.476	1264.717
45.199	13.176	1656.803	1264.068
46.213	13.175	1655.282	1262.791
47.228	13.211	1654.085	1262.040
48.242	13.205	1653.164	1261.182
49.257	13.251	1652.142	1260.641
50.271	13.309	1650.615	1259.805
51.286	13.279	1649.499	1258.611
52.301	13.271	1648.126	1257.395
53.315	13.417	1645.933	1256.716
54.330	13.359	1644.757	1255.265
55.344	13.319	1643.078	1253.576
56.359	13.207	1641.860	1251.685
57.374	13.240	1640.231	1250.584
58.388	13.197	1639.569	1249.639
59.403	13.232	1638.289	1248.821
60.417	13.150	1637.393	1247.409
61.432	13.252	1635.543	1246.655
62.447	13.144	1634.618	1245.025
63.461	13.134	1633.589	1244.053
64.476	13.067	1632.612	1242.701
65.490	13.027	1631.436	1241.394
66.505	13.053	1630.024	1240.406
67.520	13.104	1629.424	1240.222
68.534	13.187	1627.932	1239.601
69.549	13.173	1626.530	1238.314
70.563	13.144	1625.524	1237.221
71.578	13.119	1624.304	1236.001
72.593	13.107	1623.596	1235.260
73.607	13.021	1622.474	1233.651
74.622	12.971	1621.674	1232.560
75.636	13.040	1620.108	1231.777
76.651	12.984	1619.650	1230.905
77.666	12.988	1618.590	1230.021
78.680	13.068	1617.327	1229.549
79.695	13.149	1615.736	1228.832
80.709	13.099	1615.433	1228.118
81.724	13.062	1614.795	1227.253
82.739	13.159	1613.850	1227.144
83.753	13.184	1612.892	1226.491
84.768	13.220	1612.138	1226.081
85.782	13.316	1611.157	1225.936
86.797	13.332	1610.299	1225.296
87.812	13.357	1608.763	1224.198
88.826	13.230	1607.776	1222.404
89.841	13.286	1606.428	1221.679
90.855	13.213	1605.663	1220.455
91.870	13.285	1604.781	1220.205
92.884	13.340	1603.755	1219.726
93.899	13.337	1602.656	1218.758
94.914	13.312	1601.736	1217.770
95.928	13.423	1600.021	1217.169
96.943	13.393	1598.578	1215.747
97.957	13.384	1597.709	1214.914
98.972	13.479	1595.843	1214.081
99.987	13.389	1594.353	1212.182
101.001	13.306	1592.936	1210.388
102.016	13.310	1590.987	1208.831
103.030	13.354	1589.833	1208.168
104.045	13.274	1588.916	1206.778
105.060	13.363	1587.227	1206.036
106.074	13.350	1585.911	1204.836
107.089	13.231	1584.819	1203.037
108.103	13.239	1582.872	1201.509
109.118	13.142	1581.938	1199.986
110.133	13.158	1580.390	1198.822
111.147	13.187	1579.138	1197.978
112.162	13.228	1577.548	1196.968
113.176	13.190	1576.291	1195.632
114.191	13.235	1574.856	1194.761
115.206	13.246	1573.781	1193.916
116.220	13.294	1572.784	1193.407
117.235	13.213	1571.786	1191.956
118.249	13.210	1570.499	1190.850
119.264	13.171	1568.940	1189.285
120.279	13.175	1567.580	1188.175
121.293	13.123	1566.361	1186.775
122.308	13.255	1564.271	1186.037
123.322	13.194	1563.064	1184.580
124.337	13.229	1561.642	1183.644
125.352	13.168	1560.528	1182.256
126.366	13.195	1559.449	1181.528
127.381	13.136	1558.768	1180.491
128.395	13.237	1557.011	1179.776
129.410	13.184	1556.103	1178.606
130.424	13.246	1554.710	1177.887
131.439	13.255	1553.072	1176.605
132.454	13.204	1551.946	1175.288
133.468	13.199	1550.479	1174.037
134.483	13.227	1549.143	1173.116
135.497	13.313	1547.984	1172.750
136.512	13.389	1546.448	1172.015
137.527	13.330	1545.010	1170.408
138.541	13.310	1544.277	1169.603
139.556	13.345	1542.340	1168.281
140.570	13.373	1541.256	1167.559
141.585	13.404	1539.404	1166.269
142.600	13.374	1538.354	1165.157
143.614	13.419	1537.826	1164.969
144.629	13.493	1536.199	1164.158
145.643	13.510	1534.632	1162.988
146.658	13.569	1533.544	1162.473
147.673	13.585	1531.779	1161.147
148.687	13.520	1530.453	1159.581
149.702	13.416	1529.367	1157.927
150.716	13.412	1527.432	1156.333
151.731	13.341	1526.216	1154.815
152.746	13.455	1524.562	1154.255
153.760	13.462	1523.085	1153.082
154.775	13.524	1521.776	1152.423
155.789	13.537	1520.932	1151.772
156.804	13.555	1519.813	1150.946
157.819	13.523	1518.654	1149.748
158.833	13.499	1517.070	1148.279
159.848	13.577	1515.965	1147.879
160.862	13.634	1514.680	1147.203
161.877	13.680	1513.814	1146.760
162.892	13.650	1512.506	1145.460
163.906	13.494	1511.506	1143.522
164.921	13.481	1509.996	1142.192
165.935	13.539	1508.780	1141.569
166.950	13.633	1507.769	1141.355
167.964	13.607	1506.830	1140.361
168.979	13.626	1505.481	1139.369
169.994	13.623	1505.062	1138.929
171.008	13.587	1503.844	1137.663
172.023	13.601	1502.699	1136.792
173.037	13.598	1501.598	1135.839
174.052	13.681	1499.998	1135.093
175.067	13.719	1499.102	1134.580
176.081	13.701	1497.557	1133.186
177.096	13.657	1496.307	1131.838
178.110	13.672	1495.022	1130.867
179.125	13.627	1494.247	1129.877
180.140	13.717	1492.677	1129.197
181.154	13.699	1492.064	1128.513
182.169	13.765	1490.617	1127.770
183.183	13.754	1489.820	1126.991
184.198	13.794	1488.668	1126.293
185.213	13.866	1487.859	1126.068
186.227	13.818	1486.725	1124.788
187.242	13.845	1485.486	1123.931
188.256	13.926	1484.379	1123.543
189.271	13.939	1483.398	1122.786
190.286	13.973	1482.649	1122.355
191.300	13.851	1481.203	1120.337
192.315	13.736	1480.051	1118.588
193.329	13.637	1478.795	1116.876
194.344	13.645	1477.968	1116.202
195.359	13.654	1476.726	1115.225
196.373	13.790	1475.667	1115.242
197.388	13.829	1474.495	1114.521
198.402	13.888	1473.568	1114.119
199.417	13.963	1472.383	1113.627
200.432	14.064	1471.286	1113.370
201.446	14.013	1470.470	1112.316
202.461	14.053	1469.590	1111.818
203.475	14.101	1468.601	1111.293
204.490	14.067	1467.392	1110.054
205.504	14.146	1465.967	1109.408
206.519	14.144	1464.650	1108.296
207.534	14.111	1463.685	1107.246
208.548	14.060	1462.416	1105.852
209.563	14.130	1461.349	1105.411
210.577	14.065	1460.627	1104.339
211.592	14.038	1459.721	1103.374
212.607	14.087	1459.399	1103.358
213.621	14.196	1458.737	1103.483
214.636	14.239	1457.191	1102.499
215.650	14.234	1456.399	1101.773
216.665	14.267	1455.002	1100.834
217.680	14.197	1454.571	1099.950
218.694	14.313	1453.457	1099.778
219.709	14.328	1452.925	1099.374
220.723	14.361	1451.790	1098.635
221.738	14.260	1451.028	1097.293
222.753	14.283	1449.940	1096.529
223.767	14.205	1449.446	1095.543
224.782	14.370	1448.312	1095.677
225.796	14.425	1447.381	1095.236
226.811	14.399	1446.862	1094.574
227.826	14.405	1445.945	1093.826
228.840	14.420	1445.151	1093.224
229.855	14.450	1444.066	1092.505
230.869	14.302	1443.528	1091.031
231.884	14.428	1441.920	1090.546
232.899	14.393	1440.885	1089.435
233.913	14.378	1439.514	1088.206
234.928	14.316	1438.791	1087.155
235.942	14.398	1437.108	1086.326
236.957	14.365	1436.130	1085.274
237.972	14.364	1434.716	1084.101
238.986	14.395	1433.977	1083.651
240.001	14.363	1433.147	1082.715
241.015	14.456	1431.548	1082.020
242.030	14.454	1430.848	1081.377
243.045	14.415	1429.881	1080.301
244.059	14.443	1429.051	1079.756
245.074	14.591	1428.036	1079.853
246.088	14.550	1427.289	1078.927
247.103	14.572	1426.863	1078.655
248.117	14.640	1426.129	1078.441
249.132	14.591	1425.285	1077.390
250.147	14.727	1424.362	1077.480
251.161	14.836	1424.047	1077.845
252.176	14.858	1423.190	1077.241
253.190	14.865	1422.445	1076.628
254.205	14.805	1421.973	1075.789
255.220	14.932	1420.177	1075.155
256.234	14.985	1420.019	1075.278
257.249	14.883	1418.944	1073.717
258.263	14.863	1418.143	1072.884
259.278	15.005	1417.274	1073.046
260.293	14.841	1416.176	1071.066
261.307	15.075	1414.996	1071.574
262.322	15.039	1414.954	1071.220
263.336	15.105	1413.705	1070.601
264.351	15.173	1412.343	1069.913
265.366	15.065	1411.855	1068.758
266.380	15.165	1410.686	1068.417
267.395	15.120	1410.275	1067.724
268.409	15.173	1409.286	1067.213
269.424	15.086	1408.370	1065.875
270.439	15.045	1407.343	1064.743
271.453	15.060	1405.884	1063.642
272.468	15.171	1405.051	1063.618
273.482	15.047	1404.860	1062.594
274.497	15.080	1403.668	1061.806
275.512	15.170	1402.683	1061.542
276.526	15.104	1401.650	1060.245
277.541	15.170	1400.549	1059.735
278.555	15.156	1400.280	1059.352
279.570	15.213	1399.360	1058.922
280.585	15.184	1398.166	1057.742
281.599	15.242	1397.297	1057.356
282.614	15.216	1397.060	1056.922
283.628	15.364	1395.235	1056.374
284.643	15.205	1394.599	1054.798
285.657	15.209	1393.831	1054.153
286.672	15.356	1392.271	1053.800
287.687	15.275	1391.571	1052.670
288.701	15.197	1390.730	1051.451
289.716	15.390	1390.217	1052.182
290.730	15.391	1389.070	1051.227
291.745	15.359	1387.856	1050.012
292.760	15.363	1387.018	1049.311
293.774	15.421	1386.143	1048.918
294.789	15.378	1385.355	1047.964
295.803	15.398	1384.538	1047.376
296.818	15.557	1383.376	1047.398
297.833	15.385	1382.831	1045.821
298.847	15.555	1381.318	1045.644
299.862	15.434	1380.486	1044.166
300.876	15.482	1379.536	1043.655
301.891	15.520	1378.664	1043.135
302.906	15.447	1378.126	1042.184
303.920	15.516	1377.362	1041.942
304.935	15.546	1376.705	1041.537
305.949	15.549	1376.100	1041.005
306.964	15.576	1375.093	1040.318
307.979	15.788	1373.881	1040.625
308.993	15.748	1372.690	1039.385
310.008	15.701	1371.984	1038.466
311.022	15.729	1371.209	1037.957
312.037	15.705	1369.953	1036.772
313.052	15.770	1368.930	1036.303
314.066	15.671	1368.012	1034.911
315.081	15.666	1367.369	1034.301
316.095	15.678	1366.273	1033.455
317.110	15.591	1365.486	1032.233
318.125	15.698	1364.257	1031.865
319.139	15.631	1363.764	1030.990
320.154	15.683	1362.218	1030.053
321.168	15.786	1361.097	1029.746
322.183	15.794	1360.007	1028.878
323.197	15.761	1359.467	1028.176
324.212	15.727	1358.608	1027.229
325.227	15.799	1357.953	1027.081
326.241	15.773	1357.010	1026.115
327.256	15.814	1356.148	1025.624
328.270	15.759	1355.698	1024.860
329.285	15.780	1354.590	1024.059
330.300	15.845	1353.543	1023.569
331.314	15.838	1352.483	1022.638
332.329	15.824	1351.683	1021.858
333.343	15.871	1350.686	1021.298
334.358	15.949	1349.757	1020.977
335.373	15.835	1349.444	1019.962
336.387	15.933	1348.285	1019.584
337.402	15.996	1347.738	1019.465
338.416	15.986	1346.642	1018.485
339.431	16.002	1346.271	1018.209
340.446	16.002	1345.911	1017.846
341.460	16.054	1344.468	1016.979
342.475	16.042	1343.875	1016.371
343.489	16.262	1342.461	1016.533
344.504	16.263	1341.586	1015.787
345.519	16.271	1340.775	1015.133
346.533	16.363	1339.464	1014.604
347.548	16.240	1339.080	1013.485
348.562	16.292	1337.973	1012.867
349.577	16.358	1337.277	1012.646
350.592	16.327	1336.543	1011.816
351.606	16.233	1335.823	1010.616
352.621	16.272	1334.470	1009.735
353.635	16.255	1333.428	1008.759
354.650	16.208	1332.857	1007.957
355.665	16.186	1331.892	1007.006
356.679	16.246	1330.996	1006.600
357.694	16.238	1329.970	1005.684
358.708	16.279	1328.501	1004.726
359.723	16.324	1327.641	1004.259
360.738	16.298	1326.723	1003.318
361.752	16.380	1325.455	1002.756
362.767	16.301	1324.283	1001.312
363.781	16.339	1323.683	1000.997
364.796	16.345	1322.836	1000.302
365.810	16.472	1322.026	1000.353
366.825	16.525	1321.270	1000.010
367.840	16.518	1320.896	999.594
368.854	16.586	1319.938	999.182
369.869	16.585	1319.674	998.892
370.883	16.627	1318.941	998.493
371.898	16.569	1318.156	997.470
372.913	16.523	1317.116	996.322
373.927	16.627	1316.030	996.027
374.942	16.564	1315.311	995.025
375.956	16.629	1314.438	994.658
376.971	16.593	1313.888	993.942
377.986	16.622	1313.132	993.451
379.000	16.517	1312.365	992.164
380.015	16.730	1311.698	992.821
381.029	16.624	1311.193	991.733
382.044	16.693	1310.433	991.473
383.059	16.762	1309.434	991.035
384.073	16.801	1308.654	990.583
385.088	16.874	1307.802	990.280
386.102	16.855	1307.265	989.675
387.117	16.779	1306.656	988.682
388.132	16.885	1305.341	988.215
389.146	16.815	1304.715	987.247
390.161	16.789	1303.847	986.350
391.175	16.845	1303.132	986.050
392.190	16.793	1302.168	984.929
393.205	16.896	1301.382	984.848
394.219	16.848	1300.855	984.080
395.234	16.888	1299.659	983.324
396.248	16.954	1297.965	982.335
397.263	16.915	1296.789	981.131
398.278	16.870	1295.880	980.097
399.292	16.989	1294.389	979.573
400.307	16.915	1293.481	978.369
401.321	16.894	1292.360	977.315
402.336	16.877	1291.429	976.428
403.350	16.818	1290.499	975.296
404.365	16.793	1289.527	974.332
405.380	16.857	1288.807	974.072
406.394	16.927	1287.895	973.696
407.409	16.933	1287.493	973.343
408.423	17.048	1286.509	973.171
409.438	17.035	1286.063	972.671
410.453	17.191	1284.796	972.520
411.467	17.147	1284.828	972.210
412.482	17.245	1283.748	971.863
413.496	17.213	1283.120	971.124
414.511	17.162	1282.572	970.326
415.526	17.331	1281.755	970.588
416.540	17.273	1280.831	969.474
417.555	17.264	1280.585	969.152
418.569	17.397	1279.434	968.953
419.584	17.344	1279.512	968.622
420.599	17.296	1278.876	967.781
421.613	94.986	1354.077	1469.394
422.628	92.855	1364.963	1469.499
