DTS Sentinel unit serial number:	SN413079Multiplexer serial number:	ORYXHardware model number:	OX4-SRSoftware version number:	ORYX F/W v4.00 Oryx Data Collector v3.7.2.0data status	okinstallation	princeton_trtdifferential loss correction	single-endedforward channel	channel 4reverse channel	N/Adate	2019/09/16time	06:53:34forward acquisition time	60.00reverse acquisition time	0.00gamma	496.2192k internal	0.2321k external	0.2321temperature offset calibration	0.9979default loss term (dB/km)	0.3790temperature slope calibration	1.0000multiplexer offset coefficient	1.0000multiplexer slope coefficient	1.0000fibre end	0.00T internal ref (°C)	27.37T ext. ref 1 (°C)	11.45T ext. ref 2 (°C)	21.78length (m)	temperature (°C)	Stokes	anti-Stokes-747.200	11.005	0.297	-0.230
-746.185	-66.598	-0.128	-0.051
-745.171	-200.000	-0.010	-0.218
-744.156	509.656	-0.029	-0.069
-743.142	-89.517	-0.314	-0.093
-742.127	800.000	0.083	0.278
-741.112	-97.309	-0.253	-0.067
-740.098	-130.364	0.167	0.023
-739.083	201.028	0.024	0.038
-738.069	152.966	-0.148	0.205
-737.054	686.001	-0.087	0.231
-736.039	800.000	-0.019	0.056
-735.025	-200.000	0.008	-0.084
-734.010	-200.000	-0.008	-0.239
-732.996	-200.000	0.009	-0.064
-731.981	310.070	-0.069	0.130
-730.966	-200.000	-0.041	0.272
-729.952	800.000	-0.043	-0.127
-728.937	225.317	-0.126	-0.207
-727.923	95.103	0.111	-0.128
-726.908	-26.335	-0.118	0.070
-725.894	11.769	0.083	-0.065
-724.879	-34.768	-0.307	0.170
-723.864	800.000	-0.106	0.446
-722.850	-50.752	-0.403	-0.191
-721.835	-32.961	0.150	0.084
-720.821	171.304	0.214	0.310
-719.806	-181.362	-0.160	-0.003
-718.791	-200.000	-0.052	-0.521
-717.777	-61.714	0.218	-0.092
-716.762	231.526	0.115	-0.191
-715.748	-122.427	0.030	-0.005
-714.733	-200.000	0.006	-0.319
-713.718	-48.954	0.211	0.102
-712.704	-91.299	0.050	0.014
-711.689	718.366	0.118	0.316
-710.675	16.245	-0.366	-0.291
-709.660	-14.264	0.195	0.127
-708.645	800.000	0.055	0.215
-707.631	800.000	0.134	0.451
-706.616	-59.291	-0.204	-0.089
-705.602	800.000	-0.043	0.151
-704.587	-132.698	0.119	-0.015
-703.572	-200.000	-0.039	-0.250
-702.558	-152.019	0.110	0.008
-701.543	-200.000	-0.068	-0.370
-700.529	-45.326	-0.351	0.176
-699.514	-112.585	-0.308	-0.062
-698.499	-87.559	-0.137	-0.042
-697.485	-118.932	0.278	-0.049
-696.470	-200.000	-0.117	-0.590
-695.456	-69.861	0.242	-0.093
-694.441	80.658	0.202	-0.220
-693.426	-200.000	-0.015	-0.198
-692.412	800.000	0.137	-0.388
-691.397	-50.144	0.071	-0.034
-690.383	-86.870	0.128	-0.039
-689.368	-191.391	0.427	-0.004
-688.354	-77.496	-0.255	-0.089
-687.339	-96.755	0.147	-0.039
-686.324	219.357	0.096	-0.156
-685.310	800.000	-0.088	0.317
-684.295	800.000	0.055	0.161
-683.281	-3.248	0.252	-0.177
-682.266	-97.406	-0.333	-0.087
-681.251	-200.000	0.004	-0.190
-680.237	-46.148	-0.276	-0.137
-679.222	414.862	0.191	-0.410
-678.208	-200.000	-0.027	0.282
-677.193	25.796	0.235	-0.198
-676.178	35.161	-0.060	0.053
-675.164	-200.000	-0.045	0.434
-674.149	800.000	-0.116	-0.357
-673.135	-24.167	0.220	-0.133
-672.120	-163.185	-0.154	0.007
-671.105	636.681	-0.044	0.113
-670.091	-200.000	-0.016	-0.185
-669.076	-164.485	0.111	-0.005
-668.062	594.409	0.122	0.304
-667.047	-92.560	-0.316	-0.089
-666.032	-110.414	-0.202	0.042
-665.018	40.934	0.055	0.050
-664.003	-63.588	-0.309	0.128
-662.989	800.000	0.055	0.193
-661.974	800.000	-0.058	0.211
-660.959	-200.000	0.029	-0.222
-659.945	-80.964	0.312	-0.104
-658.930	465.405	-0.151	-0.341
-657.916	800.000	0.018	0.077
-656.901	-54.458	0.219	-0.100
-655.886	16.880	-0.186	0.148
-654.872	7.041	-0.238	0.179
-653.857	-16.463	-0.172	0.110
-652.843	800.000	-0.052	0.146
-651.828	8.909	-0.288	-0.219
-650.814	-120.303	-0.420	-0.072
-649.799	-200.000	-0.013	-0.210
-648.784	182.993	0.171	0.254
-647.770	800.000	-0.030	0.133
-646.755	46.075	0.335	0.313
-645.741	-200.000	0.003	0.290
-644.726	800.000	0.063	-0.191
-643.711	398.367	0.099	0.208
-642.697	123.790	0.183	-0.231
-641.682	-29.396	0.079	0.045
-640.668	-200.000	0.013	0.182
-639.653	-93.621	0.079	-0.022
-638.638	110.260	0.166	0.201
-637.624	42.716	-0.283	-0.259
-636.609	-94.001	0.264	-0.073
-635.595	6.355	0.123	-0.092
-634.580	-157.734	-0.140	-0.008
-633.565	-36.365	0.096	-0.052
-632.551	-200.000	0.054	0.241
-631.536	-200.000	0.048	0.332
-630.522	8.753	0.122	0.093
-629.507	-200.000	-0.020	0.209
-628.492	138.949	-0.075	-0.100
-627.478	-85.011	-0.222	0.070
-626.463	-200.000	-0.017	-0.162
-625.449	-200.000	0.017	0.189
-624.434	152.325	0.107	0.147
-623.419	-99.668	-0.062	-0.016
-622.405	325.981	-0.147	-0.284
-621.390	-63.111	0.075	-0.031
-620.376	-34.977	0.095	0.052
-619.361	-72.971	0.106	0.039
-618.346	576.670	-0.088	-0.216
-617.332	348.211	0.102	0.202
-616.317	-41.987	0.145	0.075
-615.303	50.848	-0.344	-0.328
-614.288	-168.374	0.056	0.002
-613.273	-149.102	0.122	0.010
-612.259	9.851	0.054	0.041
-611.244	-200.000	-0.009	0.352
-610.230	800.000	0.056	-0.205
-609.215	-134.312	-0.141	-0.017
-608.201	-36.236	-0.179	0.097
-607.186	-32.041	-0.366	0.206
-606.171	800.000	0.059	0.198
-605.157	-200.000	-0.099	-0.480
-604.142	-200.000	0.014	-0.083
-603.128	800.000	-0.142	-0.504
-602.113	13.375	-0.148	-0.115
-601.098	-200.000	-0.018	-0.157
-600.084	41.053	-0.131	-0.119
-599.069	-200.000	0.028	-0.203
-598.055	581.420	0.114	0.281
-597.040	-157.465	0.136	-0.008
-596.025	333.207	0.109	0.213
-595.011	-122.517	-0.217	-0.036
-593.996	-30.606	-0.266	-0.151
-592.982	190.133	-0.126	0.190
-591.967	327.935	0.040	-0.077
-590.952	-111.345	0.296	-0.061
-589.938	800.000	0.103	-0.286
-588.923	-200.000	-0.036	-0.163
-587.909	246.572	0.240	-0.407
-586.894	-23.564	0.250	0.151
-585.879	800.000	-0.060	0.176
-584.865	409.298	0.081	-0.172
-583.850	-200.000	-0.049	0.328
-582.836	-98.445	-0.298	-0.077
-581.821	-108.223	0.151	-0.033
-580.806	-86.394	-0.214	-0.066
-579.792	-127.920	-0.541	-0.078
-578.777	-63.048	-0.193	0.080
-577.763	41.239	0.175	0.159
-576.748	103.142	0.308	-0.362
-575.733	-200.000	0.001	0.147
-574.719	-200.000	0.006	-0.265
-573.704	41.964	-0.024	-0.022
-572.690	-200.000	0.014	0.107
-571.675	-172.538	-0.077	0.002
-570.661	86.990	-0.112	0.124
-569.646	-97.439	-0.231	0.060
-568.631	89.667	0.090	0.101
-567.617	-4.017	-0.052	-0.036
-566.602	-200.000	0.023	0.266
-565.588	-200.000	0.016	0.277
-564.573	300.221	-0.081	0.150
-563.558	-124.554	-0.236	0.037
-562.544	-101.113	0.169	0.041
-561.529	-40.240	0.227	-0.119
-560.515	-125.486	0.203	0.031
-559.500	305.358	-0.121	0.225
-558.485	288.775	0.078	0.142
-557.471	336.835	0.103	0.201
-556.456	-200.000	-0.032	-0.214
-555.442	123.526	-0.162	-0.204
-554.427	-65.158	-0.216	-0.087
-553.412	-55.232	-0.169	0.076
-552.398	167.940	0.166	-0.237
-551.383	40.889	0.036	-0.033
-550.369	-200.000	0.024	-0.368
-549.354	-200.000	0.027	0.184
-548.339	800.000	-0.022	0.080
-547.325	288.085	-0.112	0.203
-546.310	200.863	-0.196	-0.303
-545.296	17.132	0.198	0.158
-544.281	-22.087	-0.305	-0.186
-543.266	-200.000	-0.006	-0.520
-542.252	128.462	0.216	0.276
-541.237	800.000	-0.107	0.346
-540.223	-108.174	0.136	0.030
-539.208	130.877	-0.212	-0.273
-538.193	-2.526	0.114	0.080
-537.179	-136.040	0.172	0.020
-536.164	-59.118	0.329	-0.142
-535.150	-100.719	-0.326	-0.081
-534.135	-200.000	-0.034	-0.178
-533.121	63.597	-0.089	0.090
-532.106	-200.000	0.009	0.132
-531.091	-125.734	-0.112	-0.017
-530.077	-147.201	-0.100	-0.009
-529.062	61.224	-0.075	0.075
-528.048	408.507	0.102	-0.217
-527.033	700.365	-0.083	-0.219
-526.018	-158.958	-0.332	0.019
-525.004	-25.092	0.416	0.247
-523.989	-200.000	0.002	0.218
-522.975	-134.354	-0.104	0.013
-521.960	-200.000	-0.014	-0.062
-520.945	742.384	0.023	-0.061
-519.931	-162.982	0.099	0.005
-518.916	183.366	0.139	0.205
-517.902	-165.977	-0.192	-0.008
-516.887	40.807	-0.073	0.066
-515.872	792.357	-0.064	0.176
-514.858	-185.734	-0.479	0.007
-513.843	800.000	0.098	0.315
-512.829	800.000	-0.049	0.198
-511.814	-88.244	-0.125	0.037
-510.799	55.406	0.130	0.126
-509.785	17.991	0.150	0.120
-508.770	-115.494	-0.327	-0.062
-507.756	-200.000	-0.054	0.463
-506.741	5.009	-0.103	0.076
-505.726	-104.859	0.054	0.012
-504.712	-200.000	0.046	0.231
-503.697	-200.000	0.029	0.489
-502.683	-58.482	-0.292	0.127
-501.668	57.487	-0.167	-0.164
-500.653	-144.235	0.178	-0.017
-499.639	241.637	0.041	-0.069
-498.624	-200.000	0.038	-0.405
-497.610	255.676	0.089	-0.152
-496.595	-11.065	-0.289	-0.191
-495.581	176.812	-0.179	0.261
-494.566	9.385	-0.198	-0.150
-493.551	-200.000	0.032	-0.274
-492.537	57.321	0.129	-0.127
-491.522	-53.839	0.302	0.138
-490.508	104.897	-0.150	-0.177
-489.493	364.501	0.016	-0.032
-488.478	-19.157	0.190	-0.118
-487.464	132.061	-0.156	-0.201
-486.449	-139.200	0.043	-0.005
-485.435	-119.432	-0.232	-0.040
-484.420	75.017	-0.226	-0.238
-483.405	85.170	0.086	0.094
-482.391	-4.526	0.239	0.165
-481.376	32.070	-0.285	0.246
-480.362	41.817	0.191	-0.174
-479.347	114.542	0.059	0.071
-478.332	-122.686	0.371	-0.060
-477.318	141.463	-0.194	0.257
-476.303	800.000	-0.056	0.231
-475.289	-200.000	-0.038	0.322
-474.274	-2.247	0.171	0.120
-473.259	-41.241	0.145	-0.075
-472.245	-32.143	0.268	0.150
-471.230	547.845	-0.064	-0.153
-470.216	-192.660	0.088	-0.001
-469.201	321.829	-0.087	-0.165
-468.186	-20.644	0.214	0.132
-467.172	69.791	-0.021	-0.022
-466.157	-200.000	-0.021	-0.109
-465.143	-91.657	-0.331	-0.094
-464.128	-25.026	-0.073	0.043
-463.113	800.000	-0.087	-0.264
-462.099	183.403	-0.126	-0.186
-461.084	29.344	0.078	0.066
-460.070	-83.444	-0.304	-0.097
-459.055	53.490	-0.099	0.095
-458.040	-92.518	-0.088	0.025
-457.026	-150.356	0.236	-0.018
-456.011	-173.059	-0.214	-0.007
-454.997	800.000	0.086	0.256
-453.982	-200.000	-0.044	0.345
-452.968	-34.545	0.099	-0.054
-451.953	-34.581	0.484	-0.265
-450.938	-111.145	-0.261	-0.053
-449.924	-200.000	-0.043	-0.327
-448.909	6.941	0.152	0.113
-447.895	619.678	0.021	0.052
-446.880	-18.380	-0.145	-0.091
-445.865	83.847	-0.128	0.139
-444.851	-11.622	-0.203	0.133
-443.836	-106.476	0.283	-0.063
-442.822	-73.986	0.127	0.046
-441.807	40.636	0.329	-0.296
-440.792	-45.510	0.218	-0.108
-439.778	282.122	-0.072	0.129
-438.763	238.477	-0.079	-0.131
-437.749	107.126	-0.113	-0.134
-436.734	-148.811	0.182	-0.015
-435.719	-23.389	-0.053	-0.032
-434.705	165.420	-0.065	0.091
-433.690	-23.382	-0.150	0.090
-432.676	43.224	-0.324	0.295
-431.661	48.369	0.111	0.104
-430.646	-13.095	-0.284	0.184
-429.632	-175.134	0.158	-0.004
-428.617	75.827	-0.116	0.123
-427.603	-76.781	-0.094	0.033
-426.588	-120.140	-0.095	0.016
-425.573	38.859	-0.080	-0.071
-424.559	176.937	0.131	0.191
-423.544	800.000	-0.031	-0.128
-422.530	-200.000	0.018	-0.223
-421.515	-88.238	-0.300	-0.090
-420.500	800.000	-0.114	-0.398
-419.486	-108.172	-0.201	0.044
-418.471	800.000	0.061	0.235
-417.457	3.744	-0.047	-0.034
-416.442	-31.734	0.176	-0.098
-415.428	27.259	-0.263	0.221
-414.413	800.000	-0.056	-0.170
-413.398	-78.420	0.511	-0.175
-412.384	167.738	0.075	-0.106
-411.369	-147.405	0.392	0.033
-410.355	218.198	-0.162	-0.258
-409.340	800.000	0.032	-0.090
-408.325	-200.000	0.011	0.180
-407.311	800.000	-0.070	-0.272
-406.296	63.011	-0.072	-0.072
-405.282	-95.286	-0.176	-0.047
-404.267	485.744	-0.112	0.255
-403.252	95.718	-0.035	0.040
-402.238	-111.267	0.273	0.056
-401.223	-33.551	0.310	0.171
-400.209	2.612	0.326	0.236
-399.194	-83.587	0.171	-0.055
-398.179	-105.655	0.034	0.008
-397.165	-48.433	-0.340	0.163
-396.150	-23.832	-0.213	-0.127
-395.136	-129.210	-0.083	0.011
-394.121	-200.000	-0.049	-0.498
-393.106	314.908	-0.133	-0.251
-392.092	-89.905	0.404	0.118
-391.077	-19.138	0.136	-0.084
-390.063	-20.688	0.189	0.116
-389.048	618.794	-0.061	-0.153
-388.033	-94.759	0.377	0.102
-387.019	159.608	0.262	0.363
-386.004	140.842	-0.157	0.207
-384.990	-181.600	0.080	-0.002
-383.975	-200.000	-0.034	-0.268
-382.960	-98.397	0.241	-0.062
-381.946	15.519	-0.129	-0.101
-380.931	-43.251	0.196	0.099
-379.917	-45.465	0.281	-0.139
-378.902	41.540	-0.115	0.104
-377.888	800.000	-0.041	0.142
-376.873	-200.000	0.028	0.169
-375.858	-133.968	0.351	0.043
-374.844	-150.198	-0.128	0.010
-373.829	-72.289	0.129	-0.048
-372.815	-122.566	-0.214	0.035
-371.800	132.914	-0.095	0.122
-370.785	-132.015	0.184	-0.024
-369.771	421.191	0.052	-0.111
-368.756	397.213	0.082	-0.172
-367.742	-46.490	-0.120	0.059
-366.727	475.506	-0.130	0.293
-365.712	198.572	-0.039	0.060
-364.698	-200.000	-0.036	-0.180
-363.683	-200.000	0.020	-0.221
-362.669	-160.078	-0.343	-0.019
-361.654	-178.614	-0.100	0.002
-360.639	800.000	-0.013	-0.052
-359.625	-3.910	-0.256	0.177
-358.610	800.000	-0.032	0.114
-357.596	151.294	0.265	-0.360
-356.581	88.815	-0.121	-0.134
-355.566	40.419	-0.424	0.380
-354.552	-16.596	-0.064	-0.041
-353.537	-105.837	0.173	-0.039
-352.523	104.849	0.090	-0.106
-351.508	14.202	-0.209	-0.162
-350.493	345.632	-0.097	-0.191
-349.479	-137.708	-0.149	0.017
-348.464	800.000	0.009	0.037
-347.450	-27.744	0.112	-0.065
-346.435	170.049	0.037	0.052
-345.420	81.125	-0.180	0.193
-344.406	7.179	-0.138	-0.102
-343.391	-25.984	0.253	0.148
-342.377	-70.554	0.245	-0.092
-341.362	46.290	-0.211	0.195
-340.348	454.948	-0.100	0.220
-339.333	-200.000	-0.070	0.381
-338.318	-200.000	-0.034	-0.210
-337.304	-61.112	0.128	0.054
-336.289	-33.641	0.209	-0.115
-335.275	-107.605	0.492	-0.107
-334.260	800.000	-0.119	0.361
-333.245	105.317	-0.115	0.135
-332.231	135.907	0.128	-0.166
-331.216	58.856	0.244	-0.238
-330.202	-11.985	0.135	-0.088
-329.187	-30.662	-0.287	0.161
-328.172	158.291	-0.158	-0.219
-327.158	-14.813	0.217	-0.139
-326.143	73.801	-0.132	0.137
-325.129	-62.282	-0.311	-0.129
-324.114	97.664	-0.117	-0.134
-323.099	-126.384	-0.157	-0.023
-322.085	468.735	-0.081	-0.180
-321.070	-80.866	0.224	-0.074
-320.056	-200.000	-0.029	0.153
-319.041	-37.506	-0.154	-0.081
-318.026	112.004	-0.153	0.184
-317.012	161.363	0.316	-0.440
-315.997	-101.920	0.274	-0.066
-314.983	-62.171	0.137	0.057
-313.968	19.001	-0.089	-0.071
-312.953	124.363	-0.154	-0.193
-311.939	-200.000	0.062	0.365
-310.924	-93.918	0.442	-0.121
-309.910	-84.050	0.169	-0.053
-308.895	173.870	0.076	0.110
-307.880	409.694	-0.100	-0.211
-306.866	-200.000	-0.067	-0.339
-305.851	272.729	0.114	0.200
-304.837	281.679	0.064	-0.113
-303.822	338.198	0.237	0.459
-302.807	476.943	0.045	-0.102
-301.793	-74.284	-0.214	-0.077
-300.778	232.459	0.181	-0.295
-299.764	154.569	-0.101	-0.138
-298.749	37.776	0.301	0.265
-297.735	800.000	-0.036	-0.118
-296.720	-79.851	0.032	0.011
-295.705	-200.000	0.026	-0.286
-294.691	-200.000	-0.046	0.269
-293.676	78.415	0.063	-0.067
-292.662	-200.000	-0.008	-0.124
-291.647	-88.672	0.273	-0.081
-290.632	-41.105	-0.070	-0.036
-289.618	-200.000	0.015	-0.265
-288.603	114.924	0.097	0.118
-287.589	800.000	0.048	0.152
-286.574	209.681	0.094	0.146
-285.559	-200.000	-0.009	-0.265
-284.545	-136.480	-0.212	0.024
-283.530	-158.661	-0.157	-0.009
-282.516	491.228	-0.021	-0.048
-281.501	-26.228	-0.148	0.086
-280.486	492.492	0.210	0.479
-279.472	89.226	0.028	-0.031
-278.457	120.374	-0.058	0.071
-277.443	-28.732	-0.327	0.187
-276.428	121.949	-0.138	-0.171
-275.413	-130.360	0.027	0.004
-274.399	-200.000	-0.004	-0.338
-273.384	215.033	0.147	0.231
-272.370	-22.577	-0.212	-0.127
-271.355	-85.973	-0.120	0.037
-270.340	91.250	0.379	0.422
-269.326	-56.199	0.223	0.099
-268.311	-148.065	-0.143	-0.012
-267.297	66.059	-0.257	-0.259
-266.282	36.598	0.131	-0.115
-265.267	-200.000	-0.024	-0.168
-264.253	282.445	-0.074	0.131
-263.238	800.000	0.125	0.392
-262.224	25.886	0.254	0.210
-261.209	-48.652	0.204	0.097
-260.195	283.481	0.006	0.010
-259.180	507.717	0.014	0.033
-258.165	-156.730	-0.168	-0.010
-257.151	56.129	-0.165	-0.159
-256.136	-200.000	-0.013	-0.117
-255.122	-60.888	0.127	-0.053
-254.107	206.444	0.129	0.200
-253.092	8.915	-0.297	0.222
-252.078	-144.070	0.152	-0.014
-251.063	83.040	-0.162	0.174
-250.049	-45.146	0.367	0.181
-249.034	477.812	-0.137	-0.307
-248.019	-43.288	0.270	0.135
-247.005	800.000	-0.072	-0.215
-245.990	-200.000	0.023	0.182
-244.976	185.985	-0.037	0.054
-243.961	-200.000	0.004	0.076
-242.946	-77.812	-0.063	-0.022
-241.932	-5.678	0.130	-0.088
-240.917	329.506	-0.093	0.177
-239.903	-89.864	0.129	0.037
-238.888	800.000	0.061	0.226
-237.873	-143.685	-0.337	-0.032
-236.859	0.299	0.135	0.095
-235.844	-145.305	-0.153	-0.014
-234.830	212.788	0.148	0.232
-233.815	800.000	-0.035	0.103
-232.800	-174.282	-0.277	0.008
-231.786	-153.931	0.172	0.012
-230.771	-200.000	-0.028	-0.140
-229.757	627.190	-0.038	-0.095
-228.742	800.000	0.019	0.056
-227.727	318.052	-0.110	0.206
-226.713	191.501	0.093	0.139
-225.698	90.114	-0.074	-0.082
-224.684	-111.531	-0.293	0.059
-223.669	131.828	-0.236	0.301
-222.655	-200.000	0.018	-0.156
-221.640	354.472	-0.129	0.254
-220.625	-189.483	0.340	-0.004
-219.611	174.062	0.131	0.187
-218.596	-26.046	0.064	-0.037
-217.582	-71.064	0.336	0.125
-216.567	-200.000	0.003	0.089
-215.552	38.852	-0.035	-0.031
-214.538	-21.971	-0.118	0.071
-213.523	-77.439	-0.045	0.015
-212.509	-137.781	-0.261	0.029
-211.494	-8.531	-0.245	-0.163
-210.479	-171.776	0.102	-0.003
-209.465	75.717	-0.291	-0.305
-208.450	-200.000	0.081	0.365
-207.436	111.557	0.236	-0.282
-206.421	783.702	-0.110	-0.298
-205.406	107.816	-0.383	-0.451
-204.392	-200.000	-0.005	0.124
-203.377	293.654	0.112	0.202
-202.363	-27.980	0.220	0.126
-201.348	-113.794	-0.289	0.056
-200.333	2.491	-0.358	0.257
-199.319	-200.000	0.016	0.163
-198.304	126.503	0.026	-0.033
-197.290	112.633	0.095	-0.114
-196.275	86.343	0.143	0.156
-195.260	101.298	0.117	-0.135
-194.246	197.798	0.133	-0.202
-193.231	800.000	0.030	0.091
-192.217	-196.947	-0.174	0.001
-191.202	529.072	-0.165	-0.385
-190.187	447.433	0.051	0.111
-189.173	-140.562	0.154	0.016
-188.158	-56.744	0.138	-0.061
-187.144	49.904	0.028	-0.026
-186.129	0.022	0.279	-0.197
-185.114	-138.301	-0.070	0.008
-184.100	250.889	0.196	-0.329
-183.085	-200.000	0.026	0.347
-182.071	156.169	-0.074	0.101
-181.056	-79.113	0.303	-0.102
-180.042	800.000	0.039	0.166
-179.027	-94.141	0.117	-0.032
-178.012	46.467	-0.120	0.110
-176.998	288.575	-0.071	-0.126
-175.983	220.978	-0.276	-0.438
-174.969	800.000	-0.124	-0.429
-173.954	-200.000	0.027	-0.191
-172.939	61.679	-0.107	-0.105
-171.925	-62.023	0.132	-0.054
-170.910	-200.000	-0.005	-0.257
-169.896	-153.214	0.599	-0.041
-168.881	-130.352	-0.263	0.035
-167.866	-96.642	-0.225	-0.059
-166.852	204.444	-0.087	-0.134
-165.837	-63.539	0.379	-0.154
-164.823	-6.046	-0.113	-0.076
-163.808	4.862	-0.162	-0.118
-162.793	-32.761	-0.130	-0.072
-161.779	-108.650	-0.191	-0.041
-160.764	138.984	0.138	-0.179
-159.750	-46.138	0.057	0.028
-158.735	430.901	-0.133	0.285
-157.720	-137.440	-0.056	0.006
-156.706	13.860	-0.067	-0.051
-155.691	-146.292	-0.168	-0.015
-154.677	32.428	0.058	0.050
-153.662	30.874	0.292	0.247
-152.647	-145.451	0.194	0.017
-151.633	-39.953	0.224	-0.115
-150.618	29.561	0.231	0.194
-149.604	375.971	-0.062	0.125
-148.589	-200.000	0.019	-0.103
-147.574	-200.000	0.007	0.082
-146.560	-200.000	0.005	-0.125
-145.545	-75.635	-0.242	-0.085
-144.531	-50.233	-0.273	-0.127
-143.516	-109.565	-0.125	0.026
-142.502	108.604	0.029	0.035
-141.487	800.000	-0.020	0.072
-140.472	-58.432	0.381	0.163
-139.458	170.933	0.074	-0.104
-138.443	538.330	0.104	-0.243
-137.429	-89.375	-0.255	0.074
-136.414	495.750	-0.042	-0.094
-135.399	800.000	-0.089	-0.271
-134.385	159.179	-0.161	0.220
-133.370	1.877	-0.303	0.216
-132.356	227.396	0.052	0.084
-131.341	65.070	0.207	-0.206
-130.326	-46.560	-0.116	-0.056
-129.312	-19.714	-0.087	-0.053
-128.297	43.088	-0.145	-0.131
-127.283	-200.000	0.003	0.238
-126.268	800.000	0.114	0.324
-125.253	-82.307	-0.050	-0.016
-124.239	-69.000	0.397	0.151
-123.224	800.000	0.118	0.336
-122.210	105.694	0.236	-0.275
-121.195	2.578	-0.147	0.105
-120.180	374.322	-0.144	0.289
-119.166	800.000	0.031	0.101
-118.151	123.000	0.100	-0.123
-117.137	-200.000	-0.032	-0.226
-116.122	-200.000	0.060	-0.312
-115.107	-68.486	0.356	-0.136
-114.093	685.992	-0.042	-0.108
-113.078	-21.874	-0.163	0.098
-112.064	28.796	0.060	-0.050
-111.049	-52.612	-0.089	0.041
-110.034	-85.769	0.226	0.069
-109.020	-61.040	-0.032	0.013
-108.005	-129.359	-0.343	-0.047
-106.991	123.546	-0.165	0.204
-105.976	-200.000	0.053	0.313
-104.962	29.294	0.261	0.218
-103.947	2.895	0.091	-0.065
-102.932	37.566	0.163	-0.143
-101.918	5.411	-0.232	-0.169
-100.903	16.702	-0.141	-0.110
-99.889	800.000	-0.028	-0.092
-98.874	71.131	0.352	0.360
-97.859	21.282	0.248	-0.199
-96.845	-170.244	-0.241	0.008
-95.830	-41.613	-0.079	0.040
-94.816	-200.000	0.019	-0.120
-93.801	-31.811	0.079	0.044
-92.786	68.026	0.144	0.145
-91.772	800.000	-0.044	-0.160
-90.757	-130.129	0.169	0.023
-89.743	800.000	-0.064	-0.215
-88.728	-148.107	-0.266	0.022
-87.713	564.562	0.049	0.116
-86.699	-4.903	-0.038	0.026
-85.684	-200.000	0.026	-0.197
-84.670	-166.166	0.282	-0.012
-83.655	-93.133	-0.380	0.104
-82.640	107.804	0.221	0.259
-81.626	13.911	-0.075	-0.058
-80.611	-113.008	-0.310	-0.060
-79.597	-80.411	0.181	0.059
-78.582	-109.817	-0.263	-0.054
-77.567	21.078	-0.115	-0.092
-76.553	-200.000	0.055	0.253
-75.538	-166.286	-0.223	-0.009
-74.524	-198.869	0.231	-0.001
-73.509	-113.640	-0.163	-0.031
-72.494	-20.223	0.126	-0.077
-71.480	-58.540	-0.111	-0.048
-70.465	110.284	0.213	-0.251
-69.451	718.598	-0.087	0.228
-68.436	-118.269	0.340	0.060
-67.422	-38.016	-0.224	0.117
-66.407	269.767	-0.061	-0.105
-65.392	274.467	0.084	-0.147
-64.378	111.893	0.112	-0.133
-63.363	37.137	-0.322	-0.281
-62.349	-118.315	0.137	0.024
-61.334	59.054	-1.283	-1.242
-60.319	-73.902	0.409	0.146
-59.305	-200.000	-0.272	-1.274
-58.290	249.280	0.711	1.185
-57.276	303.676	0.895	1.632
-56.261	-200.000	115.188	648.650
-55.246	455.961	1516.063	3309.834
-54.232	143.288	2690.760	3523.895
-53.217	93.250	2329.940	2593.001
-52.203	33.748	2077.998	1778.487
-51.188	29.189	1991.513	1663.341
-50.173	27.818	1974.171	1636.509
-49.159	46.062	2032.896	1851.639
-48.144	45.005	2048.025	1855.735
-47.130	29.669	2007.610	1680.890
-46.115	27.391	1997.183	1651.456
-45.100	27.334	1994.390	1648.561
-44.086	27.258	1992.145	1645.951
-43.071	27.255	1989.699	1643.839
-42.057	27.203	1987.483	1641.473
-41.042	27.229	1985.691	1640.160
-40.027	27.327	1983.679	1639.323
-39.013	27.280	1981.674	1637.176
-37.998	27.218	1980.495	1635.580
-36.984	27.236	1978.658	1634.156
-35.969	27.274	1976.141	1632.350
-34.954	27.329	1974.766	1631.645
-33.940	27.345	1972.963	1630.240
-32.925	27.318	1971.415	1628.651
-31.911	27.373	1970.256	1628.119
-30.896	27.353	1968.239	1626.213
-29.881	27.383	1967.016	1625.406
-28.867	27.386	1965.150	1623.825
-27.852	27.493	1963.005	1622.943
-26.838	27.476	1961.420	1621.416
-25.823	27.413	1960.325	1619.887
-24.809	27.437	1958.311	1618.368
-23.794	27.409	1956.473	1616.541
-22.779	27.420	1954.290	1614.767
-21.765	27.363	1952.850	1613.006
-20.750	27.425	1950.935	1611.913
-19.736	27.396	1949.527	1610.424
-18.721	27.371	1947.817	1608.732
-17.706	27.437	1946.204	1607.913
-16.692	27.417	1944.789	1606.508
-15.677	27.459	1942.616	1605.021
-14.663	27.415	1941.459	1603.608
-13.648	27.413	1940.425	1602.677
-12.633	27.405	1939.230	1601.556
-11.619	27.425	1938.151	1600.779
-10.604	27.335	1936.493	1598.556
-9.590	27.350	1935.196	1597.551
-8.575	27.391	1933.902	1596.778
-7.560	27.379	1932.419	1595.388
-6.546	27.405	1931.577	1594.850
-5.531	27.465	1929.787	1593.839
-4.517	27.270	1929.008	1591.426
-3.502	27.397	1927.266	1591.038
-2.487	27.289	1926.686	1589.547
-1.473	27.400	1925.522	1589.493
-0.458	27.455	1920.592	1585.845
0.556	25.402	1900.823	1557.363
1.571	21.332	1881.600	1506.471
2.586	17.572	1904.233	1491.590
3.600	16.697	1939.379	1511.185
4.615	16.672	1933.850	1506.520
5.629	15.649	1841.401	1425.700
6.644	13.108	1738.219	1325.320
7.659	11.616	1707.943	1290.348
8.673	11.467	1705.158	1286.957
9.688	11.443	1703.699	1285.551
10.702	11.516	1702.223	1284.898
11.717	11.395	1698.940	1281.354
12.731	11.450	1697.304	1280.438
13.746	13.342	1699.844	1297.093
14.761	16.152	1705.933	1323.706
15.775	17.508	1707.879	1335.746
16.790	17.259	1705.950	1332.166
17.804	16.241	1702.682	1321.529
18.819	15.222	1699.061	1310.639
19.834	14.602	1696.492	1303.697
20.848	14.216	1694.715	1299.203
21.863	13.976	1692.877	1295.808
22.877	13.723	1691.530	1292.690
23.892	13.550	1690.152	1290.177
24.907	13.402	1689.232	1288.206
25.921	13.416	1687.974	1287.243
26.936	13.342	1687.066	1285.864
27.950	13.394	1686.216	1285.509
28.965	13.428	1686.057	1285.534
29.980	13.468	1684.936	1284.880
30.994	13.595	1683.342	1284.531
32.009	13.646	1682.534	1284.198
33.023	13.609	1681.787	1283.223
34.038	13.663	1680.880	1282.842
35.053	13.628	1679.705	1281.559
36.067	13.595	1678.320	1280.132
37.082	13.571	1677.297	1279.054
38.096	13.586	1675.705	1277.840
39.111	13.594	1675.352	1277.525
40.126	13.657	1674.440	1277.196
41.140	13.608	1673.485	1275.978
42.155	13.531	1671.743	1273.943
43.169	13.401	1670.682	1272.025
44.184	13.375	1669.604	1270.897
45.199	13.358	1668.011	1269.440
46.213	13.359	1666.704	1268.340
47.228	13.381	1665.287	1267.319
48.242	13.416	1664.341	1266.754
49.257	13.462	1663.492	1266.342
50.271	13.458	1662.223	1265.238
51.286	13.405	1661.300	1264.014
52.301	13.535	1659.569	1263.579
53.315	13.470	1658.113	1261.868
54.330	13.537	1656.262	1260.856
55.344	13.358	1655.263	1258.621
56.359	13.323	1654.010	1257.293
57.374	13.383	1652.757	1256.685
58.388	13.512	1650.843	1256.095
59.403	13.382	1650.114	1254.444
60.417	13.309	1648.592	1252.619
61.432	13.247	1647.513	1251.219
62.447	13.302	1646.599	1250.834
63.461	13.327	1645.378	1249.987
64.476	13.291	1644.217	1248.719
65.490	13.262	1643.153	1247.580
66.505	13.264	1642.038	1246.644
67.520	13.337	1640.411	1245.846
68.534	13.359	1638.977	1244.811
69.549	13.303	1638.897	1244.223
70.563	13.351	1637.646	1243.521
71.578	13.317	1636.638	1242.392
72.593	13.253	1635.086	1240.623
73.607	13.136	1634.616	1239.277
74.622	13.125	1633.433	1238.186
75.636	13.125	1632.167	1237.118
76.651	13.073	1631.395	1236.035
77.666	13.213	1630.429	1236.240
78.680	13.221	1629.644	1235.593
79.695	13.195	1628.793	1234.647
80.709	13.282	1627.601	1234.284
81.724	13.284	1626.933	1233.685
82.739	13.289	1626.230	1233.079
83.753	13.322	1624.970	1232.263
84.768	13.392	1624.023	1231.950
85.782	13.459	1623.487	1231.937
86.797	13.572	1622.264	1231.738
87.812	13.509	1621.613	1230.671
88.826	13.568	1620.334	1230.025
89.841	13.453	1619.422	1228.372
90.855	13.471	1618.360	1227.590
91.870	13.567	1616.787	1226.998
92.884	13.533	1616.013	1226.056
93.899	13.514	1615.175	1225.170
94.914	13.557	1614.032	1224.514
95.928	13.522	1612.517	1222.996
96.943	13.613	1611.154	1222.528
97.957	13.584	1609.825	1221.194
98.972	13.585	1608.378	1219.995
99.987	13.529	1606.763	1218.252
101.001	13.504	1604.919	1216.559
102.016	13.608	1603.254	1215.957
103.030	13.515	1601.905	1214.139
104.045	13.427	1601.598	1213.159
105.060	13.526	1599.734	1212.358
106.074	13.563	1597.570	1210.883
107.089	13.423	1596.287	1208.784
108.103	13.422	1594.926	1207.639
109.118	13.342	1593.346	1205.753
110.133	13.284	1591.814	1204.061
111.147	13.346	1590.916	1203.730
112.162	13.295	1589.407	1202.108
113.176	13.318	1587.997	1201.103
114.191	13.371	1586.414	1200.187
115.206	13.361	1585.479	1199.300
116.220	13.461	1583.924	1198.739
117.235	13.441	1582.259	1197.228
118.249	13.374	1581.403	1195.992
119.264	13.348	1580.468	1194.991
120.279	13.375	1578.372	1193.495
121.293	13.281	1577.461	1192.023
122.308	13.349	1576.032	1191.325
123.322	13.370	1574.021	1189.852
124.337	13.309	1572.503	1188.163
125.352	13.284	1571.554	1187.159
126.366	13.279	1570.202	1185.999
127.381	13.347	1568.965	1185.446
128.395	13.251	1567.933	1183.876
129.410	13.295	1566.797	1183.228
130.424	13.353	1564.593	1181.871
131.439	13.367	1563.504	1181.044
132.454	13.379	1562.399	1180.191
133.468	13.364	1561.119	1179.013
134.483	13.426	1559.184	1177.893
135.497	13.356	1558.162	1176.519
136.512	13.444	1556.674	1175.914
137.527	13.353	1555.512	1174.286
138.541	13.399	1554.275	1173.570
139.556	13.424	1552.722	1172.477
140.570	13.483	1551.397	1171.786
141.585	13.444	1549.844	1170.232
142.600	13.534	1548.950	1170.096
143.614	13.537	1547.896	1169.215
144.629	13.660	1546.328	1168.792
145.643	13.670	1545.086	1167.823
146.658	13.701	1543.539	1166.767
147.673	13.662	1542.074	1165.281
148.687	13.676	1540.516	1164.100
149.702	13.634	1538.965	1162.533
150.716	13.598	1536.802	1160.543
151.731	13.556	1535.987	1159.527
152.746	13.551	1534.661	1158.388
153.760	13.620	1532.922	1157.458
154.775	13.658	1531.899	1156.852
155.789	13.652	1531.046	1156.060
156.804	13.665	1529.777	1155.093
157.819	13.621	1528.402	1153.642
158.833	13.788	1527.004	1153.647
159.848	13.847	1525.970	1153.172
160.862	13.854	1524.517	1152.025
161.877	13.822	1523.954	1151.277
162.892	13.727	1522.953	1149.757
163.906	13.708	1520.875	1147.956
164.921	13.590	1520.015	1146.390
165.935	13.650	1519.018	1145.946
166.950	13.665	1518.040	1145.213
167.964	13.759	1516.294	1144.445
168.979	13.767	1515.323	1143.663
169.994	13.737	1514.541	1142.768
171.008	13.715	1513.455	1141.697
172.023	13.732	1512.324	1140.855
173.037	13.756	1511.149	1140.032
174.052	13.803	1510.052	1139.431
175.067	13.818	1509.097	1138.714
176.081	13.734	1508.163	1137.330
177.096	13.711	1506.598	1135.888
178.110	13.699	1505.309	1134.736
179.125	13.740	1504.249	1134.119
180.140	13.822	1502.969	1133.613
181.154	13.763	1502.225	1132.549
182.169	13.909	1500.746	1132.331
183.183	13.832	1499.910	1131.072
184.198	13.968	1498.294	1130.680
185.213	14.031	1497.156	1130.150
186.227	14.038	1495.956	1129.190
187.242	13.954	1495.355	1128.067
188.256	13.963	1494.397	1127.303
189.271	14.053	1493.617	1127.228
190.286	13.981	1492.251	1125.609
191.300	14.009	1491.309	1124.989
192.315	13.885	1489.755	1122.879
193.329	13.746	1488.665	1121.015
194.344	13.732	1487.507	1119.954
195.359	13.807	1486.584	1119.661
196.373	13.918	1485.165	1119.245
197.388	14.047	1483.891	1119.052
198.402	13.952	1483.507	1118.028
199.417	14.011	1482.187	1117.328
200.432	14.115	1481.247	1117.217
201.446	14.196	1480.197	1116.871
202.461	14.286	1479.320	1116.713
203.475	14.298	1477.778	1115.534
204.490	14.330	1476.474	1114.667
205.504	14.295	1475.758	1113.791
206.519	14.187	1474.770	1112.228
207.534	14.203	1473.534	1111.300
208.548	14.134	1472.294	1109.808
209.563	14.173	1471.372	1109.276
210.577	14.184	1470.230	1108.390
211.592	14.177	1469.439	1107.649
212.607	14.235	1468.461	1107.199
213.621	14.342	1467.892	1107.386
214.636	14.284	1467.138	1106.332
215.650	14.340	1466.451	1106.085
216.665	14.289	1465.224	1104.725
217.680	14.334	1464.410	1104.314
218.694	14.437	1463.267	1104.035
219.709	14.477	1462.408	1103.553
220.723	14.470	1461.525	1102.742
221.738	14.465	1460.162	1101.582
222.753	14.462	1459.634	1101.068
223.767	14.455	1458.734	1100.243
224.782	14.463	1457.039	1098.921
225.796	14.509	1456.491	1098.717
226.811	14.529	1455.805	1098.233
227.826	14.503	1455.445	1097.696
228.840	14.627	1453.563	1096.990
229.855	14.390	1453.323	1095.155
230.869	14.424	1452.337	1094.540
231.884	14.432	1451.323	1093.727
232.899	14.555	1450.313	1093.682
233.913	14.549	1448.492	1092.173
234.928	14.449	1447.549	1090.705
235.942	14.478	1446.683	1090.150
236.957	14.497	1445.190	1089.049
237.972	14.468	1444.377	1088.153
238.986	14.527	1443.241	1087.584
240.001	14.536	1442.333	1086.862
241.015	14.544	1441.216	1085.977
242.030	14.596	1440.114	1085.388
243.045	14.636	1439.208	1084.868
244.059	14.683	1438.125	1084.265
245.074	14.726	1437.146	1083.710
246.088	14.594	1436.708	1082.428
247.103	14.612	1436.072	1081.970
248.117	14.807	1434.865	1082.228
249.132	14.745	1434.672	1081.585
250.147	14.913	1433.535	1081.717
251.161	14.745	1433.186	1080.271
252.176	14.928	1432.742	1081.025
253.190	14.903	1432.047	1080.246
254.205	14.975	1430.990	1079.815
255.220	15.002	1430.043	1079.180
256.234	15.034	1429.313	1078.740
257.249	15.167	1428.183	1078.643
258.263	15.213	1427.192	1078.100
259.278	15.144	1426.208	1076.816
260.293	15.121	1425.133	1075.762
261.307	15.167	1424.412	1075.415
262.322	15.172	1423.981	1075.028
263.336	15.259	1423.110	1074.831
264.351	15.309	1421.715	1074.008
265.366	15.297	1421.229	1073.467
266.380	15.218	1420.012	1071.947
267.395	15.309	1419.130	1071.771
268.409	15.277	1418.248	1070.806
269.424	15.281	1417.279	1070.002
270.439	15.274	1416.239	1069.075
271.453	15.275	1414.967	1068.030
272.468	15.308	1414.240	1067.598
273.482	15.227	1413.541	1066.460
274.497	15.194	1412.665	1065.491
275.512	15.227	1411.475	1064.710
276.526	15.195	1411.041	1064.085
277.541	15.212	1409.969	1063.293
278.555	15.380	1408.727	1063.324
279.570	15.249	1408.354	1062.122
280.585	15.354	1407.460	1062.017
281.599	15.374	1406.932	1061.654
282.614	15.467	1405.686	1061.203
283.628	15.381	1404.630	1059.770
284.643	15.355	1403.683	1058.799
285.657	15.303	1402.449	1057.447
286.672	15.383	1401.909	1057.447
287.687	15.463	1400.462	1056.766
288.701	15.443	1399.540	1055.856
289.716	15.341	1399.179	1054.843
290.730	15.448	1398.307	1054.769
291.745	15.515	1396.704	1053.886
292.760	15.446	1395.979	1052.812
293.774	15.554	1394.881	1052.568
294.789	15.569	1393.808	1051.758
295.803	15.572	1392.987	1051.063
296.818	15.699	1391.985	1051.012
297.833	15.570	1391.066	1049.417
298.847	15.645	1389.934	1048.940
299.862	15.629	1389.091	1048.109
300.876	15.564	1388.225	1046.958
301.891	15.534	1387.508	1046.137
302.906	15.623	1386.439	1045.794
303.920	15.707	1385.732	1045.690
304.935	15.679	1385.160	1044.993
305.949	15.782	1384.356	1044.935
306.964	15.905	1383.313	1044.814
307.979	15.870	1382.285	1043.731
308.993	15.836	1381.331	1042.706
310.008	15.904	1380.556	1042.449
311.022	15.791	1379.991	1041.236
312.037	15.816	1378.668	1040.298
313.052	15.912	1377.756	1040.112
314.066	15.895	1376.939	1039.294
315.081	15.798	1375.800	1037.746
316.095	15.739	1374.953	1036.653
317.110	15.850	1373.118	1035.859
318.125	15.763	1372.229	1034.563
319.139	15.699	1372.109	1033.986
320.154	15.897	1370.642	1034.004
321.168	15.790	1369.397	1032.319
322.183	15.778	1368.685	1031.619
323.197	15.913	1367.662	1031.582
324.212	15.971	1366.534	1030.992
325.227	15.901	1366.387	1030.366
326.241	15.939	1365.315	1029.697
327.256	15.885	1364.728	1028.835
328.270	15.981	1363.465	1028.378
329.285	15.932	1362.530	1027.279
330.300	15.913	1361.726	1026.465
331.314	15.929	1361.040	1025.959
332.329	15.940	1360.328	1025.397
333.343	15.907	1359.190	1024.249
334.358	16.026	1357.890	1023.899
335.373	15.983	1357.390	1023.170
336.387	15.955	1356.726	1022.412
337.402	16.189	1355.699	1022.965
338.416	16.046	1354.851	1021.367
339.431	16.185	1354.856	1022.126
340.446	16.112	1354.230	1021.119
341.460	16.139	1353.111	1020.346
342.475	16.219	1352.188	1020.044
343.489	16.323	1351.223	1019.856
344.504	16.311	1350.280	1018.980
345.519	16.286	1349.672	1018.283
346.533	16.293	1348.578	1017.408
347.548	16.366	1347.827	1017.189
348.562	16.427	1346.816	1016.707
349.577	16.494	1345.679	1016.161
350.592	16.427	1345.078	1015.213
351.606	16.375	1344.490	1014.367
352.621	16.321	1343.100	1012.904
353.635	16.419	1341.594	1012.270
354.650	16.333	1341.266	1011.413
355.665	16.339	1340.211	1010.564
356.679	16.320	1339.354	1009.714
357.694	16.366	1337.875	1008.789
358.708	16.396	1337.004	1008.221
359.723	16.423	1336.064	1007.581
360.738	16.475	1334.806	1006.855
361.752	16.417	1334.369	1006.090
362.767	16.507	1333.378	1005.793
363.781	16.510	1332.168	1004.808
364.796	16.511	1331.353	1004.110
365.810	16.542	1330.800	1003.789
366.825	16.543	1330.345	1003.360
367.840	16.661	1329.004	1002.960
368.854	16.638	1328.383	1002.267
369.869	16.636	1327.862	1001.770
370.883	16.677	1327.219	1001.439
371.898	16.682	1326.541	1000.872
372.913	16.742	1325.533	1000.376
373.927	16.682	1324.568	999.202
374.942	16.780	1323.611	998.973
375.956	16.759	1323.062	998.345
376.971	16.802	1322.516	998.101
377.986	16.737	1321.514	996.873
379.000	16.875	1320.616	996.919
380.015	16.808	1320.006	995.976
381.029	16.885	1318.996	995.579
382.044	16.895	1318.681	995.309
383.059	16.934	1317.555	994.599
384.073	16.921	1317.052	994.057
385.088	16.881	1316.473	993.298
386.102	16.924	1316.297	993.327
387.117	16.976	1315.158	992.688
388.132	17.027	1313.984	992.009
389.146	16.964	1313.189	990.955
390.161	16.894	1312.391	989.853
391.175	16.931	1311.539	989.340
392.190	16.942	1310.721	988.704
393.205	17.017	1309.745	988.311
394.219	16.976	1308.974	987.409
395.234	17.046	1307.507	986.621
396.248	17.024	1306.487	985.636
397.263	17.042	1305.003	984.531
398.278	17.007	1304.046	983.518
399.292	17.012	1302.502	982.295
400.307	17.071	1301.489	981.788
401.321	17.015	1300.938	980.960
402.336	16.940	1300.085	979.797
403.350	16.922	1298.814	978.648
404.365	17.042	1297.653	978.382
405.380	17.024	1297.038	977.724
406.394	16.990	1296.329	976.912
407.409	17.044	1295.627	976.606
408.423	17.098	1295.075	976.414
409.438	17.133	1294.112	975.803
410.453	17.197	1293.383	975.530
411.467	17.277	1292.598	975.312
412.482	17.348	1292.310	975.417
413.496	17.325	1291.361	974.480
414.511	17.286	1290.791	973.746
415.526	17.397	1289.775	973.528
416.540	17.444	1289.390	973.421
417.555	17.486	1288.838	973.153
418.569	17.459	1287.992	972.279
419.584	17.398	1287.406	971.398
420.599	17.478	1286.796	971.308
421.613	96.803	1356.130	1476.066
422.628	94.821	1366.195	1476.186
