DTS Sentinel unit serial number:	SN413079Multiplexer serial number:	ORYXHardware model number:	OX4-SRSoftware version number:	ORYX F/W v4.00 Oryx Data Collector v3.7.2.0data status	okinstallation	princeton_trtdifferential loss correction	single-endedforward channel	channel 4reverse channel	N/Adate	2019/09/12time	19:45:19forward acquisition time	15.00reverse acquisition time	0.00gamma	496.2192k internal	0.2310k external	0.2310temperature offset calibration	1.0169default loss term (dB/km)	0.3790temperature slope calibration	1.0000multiplexer offset coefficient	1.0000multiplexer slope coefficient	1.0000fibre end	0.00T internal ref (°C)	32.00T ext. ref 1 (°C)	3.52T ext. ref 2 (°C)	26.52length (m)	temperature (°C)	Stokes	anti-Stokes-747.200	-73.855	0.562	-0.207
-746.185	-157.841	-0.553	0.033
-745.171	84.472	-0.396	-0.440
-744.156	90.422	-0.323	-0.368
-743.142	143.783	-0.530	-0.718
-742.127	-93.199	-0.423	-0.119
-741.112	37.147	0.466	0.419
-740.098	800.000	-0.078	-0.241
-739.083	-200.000	-0.102	0.465
-738.069	747.405	-0.245	0.670
-737.054	-74.960	-0.609	0.222
-736.039	190.526	-0.240	-0.366
-735.025	384.232	-0.373	-0.780
-734.010	-80.979	0.538	-0.181
-732.996	30.346	-0.345	-0.299
-731.981	-200.000	-0.159	-0.943
-730.966	310.916	0.349	-0.664
-729.952	-114.112	0.612	0.120
-728.937	-200.000	-0.025	-0.797
-727.923	-120.418	-1.272	-0.220
-726.908	29.059	-0.841	-0.724
-725.894	-200.000	0.011	-0.502
-724.879	-200.000	-0.181	-1.004
-723.864	-200.000	-0.056	-0.681
-722.850	-133.001	0.404	0.052
-721.835	-13.452	0.637	-0.419
-720.821	771.588	-0.107	0.296
-719.806	317.888	0.315	0.604
-718.791	321.587	0.251	0.485
-717.777	156.537	-0.489	-0.685
-716.762	149.301	0.517	-0.710
-715.748	-124.931	-0.469	0.073
-714.733	89.203	0.274	-0.310
-713.718	-133.516	-0.424	0.054
-712.704	727.478	0.382	-1.033
-711.689	415.322	-0.052	-0.113
-710.675	-200.000	0.127	0.742
-709.660	800.000	0.131	0.456
-708.645	-61.787	-0.284	-0.121
-707.631	-18.163	0.447	0.284
-706.616	-200.000	-0.020	0.316
-705.602	310.457	0.085	0.161
-704.587	-95.179	0.592	-0.162
-703.572	800.000	-0.258	-1.026
-702.558	82.439	0.258	-0.284
-701.543	47.458	0.420	-0.397
-700.529	76.674	-0.457	0.491
-699.514	-71.377	-0.544	0.207
-698.499	-139.722	0.541	-0.058
-697.485	292.612	0.593	-1.095
-696.470	478.820	0.177	-0.407
-695.456	-200.000	0.060	0.701
-694.441	77.203	-0.378	-0.408
-693.426	800.000	0.379	-1.072
-692.412	-146.736	-0.845	-0.074
-691.397	-42.234	-0.115	0.060
-690.383	-29.266	0.241	0.140
-689.368	128.743	0.295	0.381
-688.354	758.411	0.154	0.423
-687.339	781.144	0.239	0.663
-686.324	195.224	-0.476	-0.733
-685.310	71.078	-0.383	0.402
-684.295	163.132	0.425	-0.605
-683.281	-190.600	0.619	-0.007
-682.266	-55.777	0.296	0.134
-681.251	101.702	0.300	-0.355
-680.237	-200.000	0.028	-0.255
-679.222	90.678	-0.328	-0.373
-678.208	331.065	-0.167	0.325
-677.193	-45.856	0.643	0.321
-676.178	800.000	-0.083	-0.349
-675.164	44.857	-0.218	-0.203
-674.149	178.262	-0.130	0.193
-673.135	109.416	-0.154	-0.187
-672.120	-22.862	-0.256	0.156
-671.105	-102.315	0.377	-0.092
-670.091	-107.635	-0.229	-0.051
-669.076	-26.916	0.112	-0.066
-668.062	-200.000	-0.034	0.495
-667.047	230.881	0.529	-0.877
-666.032	-173.284	-0.564	-0.017
-665.018	-157.602	1.695	-0.103
-664.003	106.190	-0.502	0.602
-662.989	169.432	0.350	-0.506
-661.974	-74.449	-0.678	0.248
-660.959	-23.746	-0.540	0.328
-659.945	-200.000	0.055	0.526
-658.930	242.397	-0.530	0.898
-657.916	36.112	-0.483	0.430
-656.901	-200.000	0.018	-0.454
-655.886	185.716	0.199	0.299
-654.872	241.914	0.414	0.701
-653.857	-200.000	-0.095	-0.645
-652.843	220.117	-0.268	0.435
-651.828	-14.775	-0.027	0.018
-650.814	194.180	0.431	-0.661
-649.799	800.000	-0.070	0.267
-648.784	217.205	0.140	-0.226
-647.770	-77.777	0.251	0.088
-646.755	800.000	-0.183	-0.676
-645.741	288.030	-0.198	-0.362
-644.726	-41.541	0.084	0.044
-643.711	-74.451	-0.055	-0.020
-642.697	-200.000	0.088	-0.551
-641.682	160.048	0.090	0.127
-640.668	25.659	0.405	-0.341
-639.653	800.000	0.232	-0.697
-638.638	32.037	0.526	-0.459
-637.624	20.644	0.211	0.173
-636.609	-200.000	-0.089	-0.844
-635.595	-137.080	-0.147	0.017
-634.580	800.000	0.093	0.304
-633.565	-200.000	-0.048	-0.689
-632.551	800.000	0.271	0.982
-631.536	-96.668	-0.600	0.160
-630.522	212.637	-0.035	0.055
-629.507	800.000	-0.073	-0.272
-628.492	17.809	-0.322	-0.259
-627.478	445.897	0.093	-0.206
-626.463	-97.661	0.181	0.047
-625.449	224.994	0.392	-0.641
-624.434	-75.938	-0.344	-0.123
-623.419	-66.714	0.479	-0.192
-622.405	-200.000	-0.066	-0.363
-621.390	138.760	-0.149	0.197
-620.376	135.105	-0.060	0.079
-619.361	800.000	-0.192	-0.582
-618.346	-54.871	0.289	-0.132
-617.332	470.953	0.517	-1.176
-616.317	-86.214	0.400	-0.125
-615.303	190.183	-0.282	0.428
-614.288	65.112	0.535	0.546
-613.273	-42.230	-0.280	-0.145
-612.259	-162.584	0.263	-0.013
-611.244	-72.485	-0.484	-0.181
-610.230	-200.000	0.161	0.797
-609.215	-9.895	0.275	0.185
-608.201	-96.092	-0.196	-0.053
-607.186	-200.000	0.159	0.892
-606.171	-103.577	-0.919	0.218
-605.157	800.000	0.067	-0.285
-604.142	800.000	0.181	0.702
-603.128	53.476	-0.398	0.386
-602.113	255.431	0.150	0.259
-601.098	-93.068	1.033	-0.291
-600.084	800.000	-0.161	0.458
-599.069	-37.696	-0.398	-0.214
-598.055	-139.900	-0.878	-0.094
-597.040	-200.000	0.090	0.906
-596.025	-200.000	0.217	-0.978
-595.011	-8.058	0.801	0.545
-593.996	800.000	0.077	0.309
-592.982	97.797	0.370	0.429
-591.967	200.525	-0.160	0.248
-590.952	-66.831	-0.871	-0.348
-589.938	800.000	0.063	-0.233
-588.923	-2.681	0.261	0.184
-587.909	139.585	-0.267	-0.355
-586.894	-141.816	0.309	-0.031
-585.879	-49.882	-0.596	0.286
-584.865	73.376	-0.105	0.111
-583.850	-166.469	0.423	0.018
-582.836	-96.117	0.717	0.192
-581.821	495.041	0.115	-0.266
-580.806	800.000	-0.211	-0.721
-579.792	-121.151	0.721	-0.122
-578.777	55.031	0.335	-0.326
-577.763	-200.000	0.026	-0.451
-576.748	-102.307	0.512	-0.124
-575.733	-51.011	-0.196	0.093
-574.719	339.922	-0.166	0.327
-573.704	-200.000	-0.014	-0.361
-572.690	-96.091	-0.569	0.153
-571.675	61.227	0.302	-0.302
-570.661	-96.177	-0.592	-0.158
-569.646	788.130	0.244	-0.675
-568.631	98.325	-0.108	-0.126
-567.617	155.897	-0.409	-0.569
-566.602	606.057	0.331	-0.833
-565.588	-119.971	-0.664	-0.115
-564.573	-159.342	-0.349	-0.020
-563.558	506.144	-0.186	-0.435
-562.544	83.830	-0.338	-0.372
-561.529	800.000	-0.192	0.636
-560.515	-97.385	0.592	-0.156
-559.500	-200.000	-0.036	-0.481
-558.485	-53.164	0.207	-0.096
-557.471	-121.814	-0.251	0.042
-556.456	-28.564	-0.472	-0.274
-555.442	627.261	-0.240	-0.610
-554.427	-29.827	-0.863	0.496
-553.412	316.881	0.041	-0.078
-552.398	540.359	0.224	0.538
-551.383	96.628	-0.376	0.434
-550.369	-115.962	-0.500	-0.094
-549.354	-22.202	0.704	0.430
-548.339	114.578	-0.428	0.526
-547.325	800.000	-0.135	-0.405
-546.310	800.000	-0.174	-0.498
-545.296	27.591	0.084	-0.071
-544.281	-49.693	0.315	-0.151
-543.266	62.792	-0.472	0.476
-542.252	10.870	0.466	-0.359
-541.237	-170.892	-0.579	-0.020
-540.223	549.175	-0.153	0.370
-539.208	647.715	-0.323	-0.832
-538.193	27.516	-0.524	0.444
-537.179	-80.298	0.746	0.251
-536.164	-36.745	0.590	0.319
-535.150	-200.000	0.103	0.880
-534.135	-108.719	-0.417	0.090
-533.121	-200.000	0.002	-0.574
-532.106	-129.528	-0.946	0.132
-531.091	189.538	0.272	0.411
-530.077	800.000	-0.134	-0.499
-529.062	5.624	-0.687	-0.512
-528.048	753.464	0.382	1.041
-527.033	120.388	0.088	-0.110
-526.018	265.957	-0.310	-0.545
-525.004	-88.233	-0.155	0.047
-523.989	27.376	-0.335	-0.283
-522.975	800.000	0.118	-0.348
-521.960	-94.553	0.838	-0.230
-520.945	-45.822	-0.853	-0.424
-519.931	-200.000	-0.002	-0.425
-518.916	-187.702	0.625	-0.008
-517.902	-11.860	0.289	0.191
-516.887	50.818	-0.363	-0.346
-515.872	10.750	0.352	0.270
-514.858	14.570	-0.309	-0.243
-513.843	-114.097	-0.311	-0.061
-512.829	31.089	-0.668	0.576
-511.814	-89.996	0.596	-0.175
-510.799	-45.903	0.362	-0.180
-509.785	62.664	0.345	-0.347
-508.770	-105.541	0.430	-0.098
-507.756	-28.612	0.962	0.558
-506.741	-132.136	0.212	-0.028
-505.726	-200.000	0.022	0.210
-504.712	-104.776	-0.195	0.045
-503.697	-25.485	0.159	-0.095
-502.683	128.201	-0.543	-0.695
-501.668	-28.069	-0.250	0.146
-500.653	800.000	0.164	0.722
-499.639	-164.996	-0.408	-0.018
-498.624	-109.343	-0.146	0.031
-497.610	800.000	-0.059	0.190
-496.595	-8.143	0.048	-0.032
-495.581	134.039	0.563	0.733
-494.566	-200.000	-0.025	0.510
-493.551	-90.704	-0.715	0.208
-492.537	-69.542	-0.482	-0.186
-491.522	38.266	0.376	0.337
-490.508	192.150	-0.110	0.167
-489.493	62.646	-0.175	0.176
-488.478	-66.383	-0.903	0.361
-487.464	-130.396	-0.878	-0.120
-486.449	-200.000	0.110	-0.876
-485.435	-13.406	0.616	-0.402
-484.420	687.772	0.411	-1.082
-483.405	-23.356	0.375	-0.227
-482.391	250.672	-0.146	0.250
-481.376	50.687	-0.593	0.564
-480.362	247.582	0.211	0.359
-479.347	125.452	0.311	0.394
-478.332	-36.208	0.217	0.118
-477.318	-147.518	0.845	0.072
-476.303	-174.258	0.170	-0.005
-475.289	180.875	0.021	0.032
-474.274	-200.000	0.013	0.631
-473.259	-93.052	-0.650	0.182
-472.245	673.904	-0.122	-0.318
-471.230	-200.000	0.021	-0.096
-470.216	-121.551	0.387	-0.065
-469.201	168.499	0.141	0.201
-468.186	800.000	-0.082	0.310
-467.172	199.705	0.664	1.023
-466.157	42.483	-0.976	0.892
-465.143	-143.311	0.948	0.091
-464.128	-95.792	0.910	0.244
-463.113	22.015	-0.551	-0.451
-462.099	-200.000	0.584	-0.003
-461.084	31.942	0.510	-0.441
-460.070	-122.164	-0.578	0.095
-459.055	49.549	-0.690	0.653
-458.040	-70.492	0.766	0.291
-457.026	157.227	-0.182	-0.253
-456.011	-142.058	0.602	-0.060
-454.997	-133.077	0.293	0.037
-453.982	172.457	-0.310	0.448
-452.968	279.194	0.401	-0.718
-451.953	116.073	-0.427	0.526
-450.938	-55.985	-0.528	-0.236
-449.924	-200.000	-0.108	0.645
-448.909	-145.463	0.731	0.066
-447.895	-21.766	-0.099	-0.060
-446.880	-117.205	1.243	-0.227
-445.865	-200.000	-0.112	0.745
-444.851	-121.253	0.671	0.113
-443.836	134.369	0.270	-0.351
-442.822	163.353	-0.109	-0.154
-441.807	312.543	-0.439	0.828
-440.792	-83.037	0.573	0.185
-439.778	329.042	0.381	0.735
-438.763	54.184	0.659	-0.636
-437.749	7.284	0.566	-0.424
-436.734	168.763	-0.354	0.507
-435.719	800.000	0.043	-0.140
-434.705	-65.484	0.357	-0.144
-433.690	170.601	-0.515	0.740
-432.676	800.000	-0.032	-0.095
-431.661	270.658	0.436	0.769
-430.646	8.622	-0.443	0.334
-429.632	502.120	0.362	0.839
-428.617	47.633	-0.495	-0.463
-427.603	6.557	0.199	-0.149
-426.588	-41.623	0.225	-0.116
-425.573	-92.609	-0.369	-0.104
-424.559	0.898	-0.653	-0.470
-423.544	-58.151	-0.964	0.421
-422.530	-12.809	0.461	0.301
-421.515	-200.000	-0.100	0.594
-420.500	-29.224	-0.618	0.355
-419.486	-180.544	0.390	-0.008
-418.471	135.862	0.375	-0.490
-417.457	-87.870	0.687	-0.207
-416.442	308.040	0.308	-0.576
-415.428	-190.119	0.753	-0.008
-414.413	-200.000	0.025	-0.442
-413.398	-30.342	0.292	-0.166
-412.384	-106.370	0.394	-0.088
-411.369	-101.528	-0.359	-0.087
-410.355	-88.491	-0.835	-0.250
-409.340	-84.281	0.367	0.117
-408.325	-200.000	-0.014	1.041
-407.311	291.293	-0.108	0.197
-406.296	-119.960	-0.621	0.107
-405.282	322.425	0.273	-0.521
-404.267	-200.000	0.064	0.819
-403.252	121.068	-0.534	0.666
-402.238	-166.259	0.955	-0.040
-401.223	-149.961	0.144	0.011
-400.209	185.162	-0.245	0.364
-399.194	-200.000	-0.040	-0.266
-398.179	-200.000	0.019	-0.292
-397.165	61.851	0.428	-0.427
-396.150	-126.235	0.143	0.021
-395.136	82.351	0.116	0.127
-394.121	-26.269	-0.256	-0.151
-393.106	-64.942	0.898	0.364
-392.092	-200.000	-0.043	0.399
-391.077	-200.000	-0.071	-0.450
-390.063	-200.000	0.023	-0.295
-389.048	131.948	0.453	0.584
-388.033	1.742	-0.156	0.112
-387.019	-200.000	0.030	0.396
-386.004	-200.000	-0.037	0.274
-384.990	346.382	0.167	0.330
-383.975	-19.257	0.720	0.448
-382.960	-95.155	0.722	0.195
-381.946	66.401	-0.504	-0.513
-380.931	-183.776	-0.304	0.005
-379.917	-200.000	-0.104	0.753
-378.902	-200.000	-0.068	-0.477
-377.888	-156.101	-0.639	-0.040
-376.873	800.000	0.060	-0.179
-375.858	-56.217	-0.665	-0.296
-374.844	-131.899	-0.651	0.085
-373.829	149.526	0.303	-0.410
-372.815	-121.027	-0.198	0.033
-371.800	-73.602	0.784	0.286
-370.785	-200.000	-0.030	-0.217
-369.771	74.384	-0.219	-0.230
-368.756	135.935	-0.299	-0.389
-367.742	-114.601	0.093	0.018
-366.727	375.822	0.064	0.131
-365.712	-110.698	-0.265	0.055
-364.698	101.289	-0.226	-0.263
-363.683	392.816	0.135	-0.280
-362.669	-200.000	-0.031	0.397
-361.654	800.000	-0.163	0.567
-360.639	-95.752	-0.439	0.117
-359.625	-141.381	0.686	0.070
-358.610	-135.338	0.536	-0.064
-357.596	-164.484	0.839	0.038
-356.581	267.992	0.200	-0.350
-355.566	87.834	-0.110	0.122
-354.552	-175.173	0.681	0.019
-353.537	238.273	-0.548	0.911
-352.523	-35.999	0.482	0.261
-351.508	309.591	0.755	-1.413
-350.493	-163.504	-0.632	0.030
-349.479	-80.683	0.564	-0.188
-348.464	-46.461	0.876	0.430
-347.450	-200.000	-0.052	-0.726
-346.435	0.903	-0.293	-0.210
-345.420	-89.715	-0.490	-0.144
-344.406	-123.090	-0.371	0.060
-343.391	37.979	0.581	-0.517
-342.377	100.151	0.340	-0.395
-341.362	-123.518	-0.416	-0.066
-340.348	69.463	0.031	0.032
-339.333	-200.000	0.255	1.184
-338.318	3.353	-0.077	-0.056
-337.304	-100.638	-0.577	-0.143
-336.289	2.249	0.735	-0.531
-335.275	-138.110	-0.409	0.045
-334.260	-200.000	-0.089	0.934
-333.245	-28.011	-0.701	-0.406
-332.231	243.791	-0.127	-0.213
-331.216	-200.000	-0.048	0.254
-330.202	800.000	-0.256	-0.835
-329.187	-104.979	0.500	0.115
-328.172	-103.468	0.642	-0.151
-327.158	-114.067	0.514	-0.099
-326.143	-157.049	-0.495	0.030
-325.129	-139.637	-0.718	0.076
-324.114	-105.278	0.236	0.054
-323.099	-11.369	0.796	0.524
-322.085	357.009	0.319	0.635
-321.070	-13.657	0.136	-0.088
-320.056	-2.506	-0.788	-0.552
-319.041	-37.041	-0.334	-0.179
-318.026	142.643	-0.347	-0.461
-317.012	-21.435	0.311	0.189
-315.997	145.787	-0.043	-0.058
-314.983	195.841	0.450	0.683
-313.968	111.140	-0.817	-0.983
-312.953	800.000	-0.292	0.976
-311.939	48.397	0.282	-0.264
-310.924	0.663	0.446	-0.318
-309.910	-66.690	0.238	0.094
-308.895	-110.765	0.675	-0.139
-307.880	-200.000	-0.029	-1.232
-306.866	-200.000	-0.048	0.635
-305.851	107.894	-0.266	0.316
-304.837	800.000	0.150	0.582
-303.822	-141.001	0.334	0.034
-302.807	1.669	0.527	0.379
-301.793	561.414	0.115	-0.277
-300.778	330.818	-0.193	-0.372
-299.764	148.759	0.171	0.230
-298.749	-200.000	0.003	-0.133
-297.735	-111.820	0.670	0.135
-296.720	11.072	0.165	-0.126
-295.705	403.588	-0.105	-0.220
-294.691	141.347	0.539	0.712
-293.676	-200.000	-0.014	-0.450
-292.662	-3.585	-0.568	-0.394
-291.647	-118.569	-0.711	-0.126
-290.632	-200.000	-0.026	0.519
-289.618	-63.863	-0.795	0.325
-288.603	271.938	0.178	-0.313
-287.589	-120.762	-0.409	-0.069
-286.574	800.000	0.161	-0.461
-285.559	-200.000	0.018	1.172
-284.545	-117.776	0.938	-0.168
-283.530	-17.193	-0.523	0.329
-282.516	-184.299	-0.879	0.014
-281.501	-101.834	0.591	-0.143
-280.486	119.012	0.338	0.417
-279.472	-26.239	-0.351	0.205
-278.457	-200.000	-0.033	0.143
-277.443	310.660	-0.270	-0.505
-276.428	12.344	-0.770	0.592
-275.413	-38.369	-0.550	-0.290
-274.399	-200.000	0.026	-0.854
-273.384	-66.084	0.380	0.151
-272.370	145.523	0.462	0.617
-271.355	-200.000	0.034	-0.544
-270.340	800.000	0.224	0.899
-269.326	243.189	0.530	0.886
-268.311	-153.035	0.719	0.050
-267.297	65.620	-0.294	0.297
-266.282	685.207	0.171	-0.445
-265.267	-8.352	-0.521	-0.349
-264.253	20.786	0.207	-0.167
-263.238	177.336	-0.274	-0.398
-262.224	8.066	-1.289	-0.964
-261.209	316.579	-0.506	0.953
-260.195	-116.305	-0.963	0.178
-259.180	800.000	0.095	-0.294
-258.165	800.000	0.112	-0.432
-257.151	129.365	-0.428	-0.545
-256.136	-79.289	-1.099	-0.371
-255.122	240.407	0.242	0.402
-254.107	-102.141	-0.357	0.086
-253.092	756.442	0.224	0.604
-252.078	422.727	-0.137	-0.293
-251.063	4.111	-0.092	-0.067
-250.049	-128.402	-0.197	-0.028
-249.034	228.668	0.409	0.664
-248.019	-74.573	0.514	0.184
-247.005	25.847	1.100	0.914
-245.990	-62.138	-0.497	0.207
-244.976	47.925	0.198	0.185
-243.961	-200.000	0.104	0.843
-242.946	642.420	-0.183	0.464
-241.932	-20.366	-0.803	-0.492
-240.917	-106.247	-0.881	0.197
-239.903	-108.279	-0.991	0.213
-238.888	742.532	0.204	-0.547
-237.873	17.122	0.905	-0.714
-236.859	-100.531	-0.378	0.093
-235.844	-30.064	0.340	0.192
-234.830	-120.567	0.902	0.152
-233.815	-200.000	-0.051	0.305
-232.800	-73.699	0.480	0.174
-231.786	-140.725	-0.528	-0.054
-230.771	37.208	-0.293	-0.258
-229.757	-83.537	-0.994	0.317
-228.742	223.281	0.172	0.276
-227.727	-162.103	1.636	0.082
-226.713	-200.000	0.022	-0.635
-225.698	43.478	0.041	-0.038
-224.684	-200.000	-0.055	-0.275
-223.669	5.377	-0.123	-0.090
-222.655	800.000	-0.073	0.274
-221.640	-180.842	-0.946	0.019
-220.625	800.000	0.095	-0.353
-219.611	19.926	-0.191	0.153
-218.596	-200.000	0.095	0.528
-217.582	-128.955	-0.817	0.114
-216.567	51.918	-0.339	0.321
-215.552	-200.000	0.002	-0.045
-214.538	346.504	0.310	-0.606
-213.523	-22.781	0.221	-0.133
-212.509	-170.627	-0.660	0.023
-211.494	312.587	-0.258	0.481
-210.479	0.810	-0.429	-0.305
-209.465	-32.690	-0.402	-0.222
-208.450	-200.000	0.003	-0.687
-207.436	-50.085	-0.615	-0.290
-206.421	44.027	0.204	0.186
-205.406	-200.000	0.091	0.742
-204.392	-200.000	0.088	-0.600
-203.377	658.201	-0.243	-0.622
-202.363	-200.000	-0.093	-0.429
-201.348	-200.000	-0.056	0.275
-200.333	-39.201	-0.481	0.251
-199.319	-30.854	0.210	0.118
-198.304	-95.488	0.741	-0.198
-197.290	-200.000	-0.029	-0.579
-196.275	-200.000	-0.030	-0.262
-195.260	252.491	-0.521	-0.883
-194.246	131.111	-0.440	0.562
-193.231	-200.000	-0.020	0.343
-192.217	346.856	0.245	-0.479
-191.202	-17.962	0.396	-0.247
-190.187	37.629	0.368	-0.325
-189.173	-49.146	0.975	-0.463
-188.158	-198.842	0.557	0.003
-187.144	110.191	-0.446	-0.532
-186.129	-73.939	-0.620	-0.224
-185.114	-33.834	0.214	-0.117
-184.100	-200.000	0.003	0.293
-183.085	-200.000	0.176	-0.768
-182.071	-200.000	0.066	0.861
-181.056	800.000	-0.104	0.365
-180.042	-143.607	0.676	-0.064
-179.027	427.617	0.316	-0.677
-178.012	-200.000	0.028	-0.240
-176.998	580.368	-0.040	0.098
-175.983	-45.928	-0.362	0.177
-174.969	-23.187	-0.360	0.215
-173.954	-200.000	-0.037	0.378
-172.939	800.000	0.156	0.556
-171.925	-200.000	0.049	-0.357
-170.910	226.306	0.532	-0.857
-169.896	369.062	-0.370	-0.743
-168.881	79.993	-0.434	-0.464
-167.866	-200.000	0.147	-1.421
-166.852	-86.651	-0.333	-0.101
-165.837	-200.000	-0.006	0.291
-164.823	-29.197	-0.241	0.137
-163.808	-200.000	0.114	0.950
-162.793	51.748	0.099	-0.094
-161.779	-100.165	0.761	0.188
-160.764	-17.523	-0.426	0.266
-159.750	-88.237	-0.994	0.295
-158.735	249.068	-0.453	0.762
-157.720	-200.000	0.001	0.316
-156.706	209.699	-0.267	0.415
-155.691	680.577	-0.361	-0.933
-154.677	-200.000	-0.067	0.412
-153.662	359.175	0.133	-0.264
-152.647	30.908	-0.653	-0.555
-151.633	-47.931	0.441	0.212
-150.618	-73.358	0.993	-0.360
-149.604	-0.593	0.282	-0.199
-148.589	-88.207	-0.608	-0.181
-147.574	55.710	0.570	-0.548
-146.560	-91.916	-0.731	0.206
-145.545	-11.085	0.980	-0.642
-144.531	-40.831	-0.843	0.433
-143.516	514.194	0.081	0.186
-142.502	-47.760	-0.323	0.155
-141.487	800.000	0.068	-0.215
-140.472	-93.882	-0.979	-0.267
-139.458	147.154	-0.202	0.270
-138.443	15.720	-0.670	0.523
-137.429	-127.036	-0.691	-0.101
-136.414	-67.254	-0.237	-0.092
-135.399	245.525	-0.210	0.350
-134.385	79.061	0.246	0.262
-133.370	15.782	-0.420	-0.328
-132.356	-109.389	-1.247	-0.262
-131.341	517.630	0.034	0.079
-130.326	800.000	-0.201	0.685
-129.312	-127.460	0.259	0.037
-128.297	169.947	0.216	0.306
-127.283	45.618	0.422	-0.387
-126.268	125.123	-0.733	0.916
-125.253	291.315	0.315	-0.569
-124.239	-170.855	-0.623	-0.021
-123.224	-56.801	0.105	-0.046
-122.210	3.017	-0.326	0.235
-121.195	140.247	0.282	-0.369
-120.180	190.101	0.225	0.335
-119.166	-44.198	0.407	0.202
-118.151	66.228	-0.019	-0.020
-117.137	364.709	0.217	-0.432
-116.122	-161.093	-0.323	-0.017
-115.107	-82.457	0.853	-0.275
-114.093	507.361	-0.043	-0.099
-113.078	-101.516	0.331	0.080
-112.064	8.947	0.645	-0.483
-111.049	-42.325	-0.634	0.321
-110.034	221.160	0.105	-0.166
-109.020	94.226	-0.264	0.297
-108.005	293.457	-0.379	0.686
-106.991	-200.000	0.090	-0.630
-105.976	390.084	-0.240	0.494
-104.962	-200.000	-0.024	0.122
-103.947	164.232	-0.117	-0.163
-102.932	-54.348	0.877	0.394
-101.918	-200.000	-0.003	-0.629
-100.903	21.214	0.460	0.370
-99.889	9.037	-0.954	0.713
-98.874	-200.000	0.071	0.475
-97.859	-2.214	-0.486	-0.338
-96.845	800.000	0.240	-0.949
-95.830	242.822	0.236	-0.392
-94.816	-72.888	0.585	0.213
-93.801	-200.000	0.006	-0.266
-92.786	-90.594	0.669	-0.192
-91.772	-200.000	-0.036	-0.262
-90.757	-197.128	-0.271	0.002
-89.743	131.790	-0.464	-0.591
-88.728	800.000	0.259	-0.944
-87.713	341.372	-0.210	0.407
-86.699	-41.083	0.888	0.454
-85.684	-105.856	-0.229	0.051
-84.670	-19.856	-0.325	-0.199
-83.655	-75.695	0.158	0.056
-82.640	-136.469	-0.349	0.040
-81.626	411.013	0.265	0.557
-80.611	-29.807	-0.100	-0.056
-79.597	148.771	0.367	-0.491
-78.582	367.357	0.260	-0.520
-77.567	549.757	0.170	0.404
-76.553	341.319	-0.329	0.636
-75.538	-200.000	-0.041	-0.279
-74.524	-200.000	-0.129	0.577
-73.509	27.307	0.908	0.755
-72.494	800.000	0.108	-0.362
-71.480	800.000	-0.160	-0.492
-70.465	321.343	-0.175	0.328
-69.451	18.989	-0.615	0.487
-68.436	-6.596	0.312	-0.210
-67.422	-200.000	-0.156	1.346
-66.407	35.695	0.776	-0.675
-65.392	-53.804	-0.452	-0.204
-64.378	-25.745	0.931	0.543
-63.363	159.506	-0.369	-0.508
-62.349	47.653	0.489	-0.451
-61.334	96.396	-0.704	-0.797
-60.319	-200.000	0.038	0.560
-59.305	-200.000	0.217	-1.478
-58.290	-200.000	0.040	1.229
-57.276	226.088	0.898	1.441
-56.261	-200.000	96.865	610.935
-55.246	655.185	1358.204	3447.914
-54.232	199.710	2531.957	3840.820
-53.217	109.789	2277.825	2700.552
-52.203	38.776	2045.157	1805.191
-51.188	33.911	1959.375	1686.358
-50.173	32.384	1942.504	1658.324
-49.159	48.203	1995.525	1845.302
-48.144	48.598	2013.567	1865.448
-47.130	34.328	1975.533	1703.726
-46.115	31.955	1964.813	1673.277
-45.100	31.952	1961.724	1670.551
-44.086	31.751	1960.133	1667.348
-43.071	31.972	1956.158	1665.860
-42.057	31.768	1954.556	1662.615
-41.042	31.817	1952.840	1661.530
-40.027	31.885	1950.445	1660.022
-39.013	31.835	1948.860	1658.165
-37.998	31.855	1947.845	1657.418
-36.984	31.891	1945.851	1655.973
-35.969	32.269	1941.719	1655.717
-34.954	31.967	1941.473	1652.783
-33.940	31.933	1941.001	1652.014
-32.925	32.228	1938.029	1652.016
-31.911	31.835	1937.357	1647.926
-30.896	31.922	1935.392	1646.948
-29.881	31.836	1935.587	1646.299
-28.867	32.102	1932.258	1645.731
-27.852	32.102	1930.349	1644.036
-26.838	32.102	1927.559	1641.597
-25.823	32.002	1926.705	1639.928
-24.809	32.014	1925.628	1639.051
-23.794	32.002	1923.532	1637.103
-22.779	31.840	1922.238	1634.518
-21.765	32.032	1920.073	1634.289
-20.750	31.964	1918.960	1632.688
-19.736	32.104	1916.503	1631.743
-18.721	32.036	1914.059	1629.009
-17.706	32.120	1913.286	1629.014
-16.692	32.032	1910.886	1626.142
-15.677	32.024	1910.115	1625.354
-14.663	32.124	1909.423	1625.565
-13.648	32.057	1907.874	1623.607
-12.633	32.056	1906.674	1622.514
-11.619	32.017	1905.473	1621.089
-10.604	31.848	1905.668	1619.731
-9.590	32.029	1902.599	1618.617
-8.575	31.861	1901.968	1616.566
-7.560	32.186	1899.279	1617.019
-6.546	32.103	1898.526	1615.595
-5.531	31.925	1897.595	1613.209
-4.517	32.181	1894.993	1613.132
-3.502	32.010	1894.603	1611.266
-2.487	32.019	1893.310	1610.182
-1.473	32.066	1893.518	1610.700
-0.458	32.015	1887.976	1605.485
0.556	33.603	1868.700	1578.236
1.571	29.157	1849.250	1524.954
2.586	25.111	1870.931	1508.732
3.600	23.841	1906.186	1526.128
4.615	23.576	1899.658	1518.499
5.629	17.928	1801.603	1394.012
6.644	8.596	1683.879	1231.279
7.659	3.952	1646.331	1168.708
8.673	3.467	1644.124	1163.380
9.688	3.607	1641.599	1162.543
10.702	3.531	1640.816	1161.318
11.717	3.475	1638.201	1158.944
12.731	3.916	1636.611	1161.022
13.746	10.506	1650.884	1220.799
14.761	19.854	1673.417	1308.377
15.775	24.555	1680.053	1349.048
16.790	25.137	1680.173	1353.420
17.804	24.865	1677.873	1349.399
18.819	24.362	1677.594	1345.256
19.834	24.317	1674.832	1342.585
20.848	24.520	1673.755	1343.133
21.863	24.329	1674.460	1342.141
22.877	24.600	1672.831	1342.754
23.892	24.556	1670.246	1340.227
24.907	24.381	1671.713	1339.972
25.921	24.414	1669.604	1338.411
26.936	24.169	1670.495	1337.173
27.950	24.524	1667.934	1337.661
28.965	24.574	1666.944	1337.124
29.980	24.506	1665.708	1335.506
30.994	24.439	1665.321	1334.578
32.009	24.448	1665.125	1334.368
33.023	24.386	1664.775	1333.502
34.038	24.619	1663.120	1333.803
35.053	24.756	1661.409	1333.329
36.067	24.533	1661.117	1331.318
37.082	24.419	1660.624	1329.955
38.096	24.190	1659.815	1327.484
39.111	24.363	1658.983	1327.986
40.126	24.220	1657.983	1326.007
41.140	24.503	1657.514	1327.620
42.155	24.533	1654.358	1325.195
43.169	24.210	1653.443	1321.950
44.184	23.930	1652.096	1318.684
45.199	23.763	1651.350	1316.730
46.213	23.793	1650.739	1316.351
47.228	23.909	1650.364	1316.793
48.242	24.338	1648.100	1318.045
49.257	24.366	1648.411	1318.379
50.271	24.302	1647.357	1316.951
51.286	24.252	1645.362	1314.866
52.301	24.364	1643.792	1314.322
53.315	24.448	1643.169	1314.328
54.330	24.424	1641.042	1312.329
55.344	24.387	1639.338	1310.585
56.359	24.209	1638.664	1308.621
57.374	24.109	1637.954	1307.206
58.388	24.260	1635.785	1306.463
59.403	24.127	1635.183	1304.895
60.417	24.014	1634.032	1303.028
61.432	23.982	1633.426	1302.199
62.447	24.028	1632.052	1301.326
63.461	23.804	1631.331	1298.999
64.476	23.742	1629.284	1296.802
65.490	23.679	1629.384	1296.303
66.505	23.768	1627.838	1295.608
67.520	23.869	1626.727	1295.344
68.534	23.896	1625.835	1294.717
69.549	23.936	1624.364	1293.720
70.563	23.812	1623.305	1291.860
71.578	23.842	1622.604	1291.412
72.593	23.744	1621.462	1289.674
73.607	23.521	1621.695	1288.128
74.622	23.747	1619.203	1287.674
75.636	23.604	1618.101	1285.643
76.651	23.921	1617.067	1287.005
77.666	23.785	1616.603	1285.538
78.680	23.856	1615.143	1284.774
79.695	23.701	1616.007	1284.225
80.709	23.655	1614.483	1282.568
81.724	23.880	1613.130	1283.005
82.739	23.840	1613.144	1282.618
83.753	23.959	1613.657	1283.769
84.768	24.259	1611.040	1283.736
85.782	24.264	1611.101	1283.702
86.797	24.800	1609.229	1285.954
87.812	24.598	1610.010	1285.007
88.826	24.846	1607.514	1284.686
89.841	24.389	1607.550	1281.318
90.855	24.276	1607.317	1280.209
91.870	24.619	1605.116	1280.803
92.884	24.612	1605.192	1280.698
93.899	24.723	1604.388	1280.736
94.914	24.623	1602.834	1278.670
95.928	24.726	1601.544	1278.262
96.943	24.553	1600.995	1276.476
97.957	24.580	1599.190	1275.118
98.972	24.633	1598.074	1274.492
99.987	24.566	1596.627	1272.751
101.001	24.805	1594.912	1272.970
102.016	24.505	1594.424	1270.336
103.030	24.589	1591.887	1268.793
104.045	24.401	1591.358	1266.924
105.060	24.597	1590.254	1267.329
106.074	24.430	1588.469	1264.607
107.089	24.357	1587.434	1263.157
108.103	24.093	1585.882	1259.940
109.118	23.906	1584.398	1257.326
110.133	23.804	1582.422	1254.929
111.147	23.690	1580.800	1252.726
112.162	23.705	1579.990	1252.084
113.176	23.893	1578.664	1252.241
114.191	23.881	1578.287	1251.748
115.206	23.857	1577.703	1251.008
116.220	24.030	1576.177	1250.905
117.235	24.041	1575.737	1250.521
118.249	24.190	1573.479	1249.661
119.264	23.960	1571.776	1246.587
120.279	23.597	1571.016	1243.331
121.293	23.636	1569.224	1242.074
122.308	23.873	1568.913	1243.377
123.322	23.701	1567.614	1241.039
124.337	23.518	1565.519	1237.992
125.352	23.513	1564.686	1237.188
126.366	23.566	1563.301	1236.354
127.381	23.317	1563.392	1234.578
128.395	23.517	1562.637	1235.270
129.410	23.785	1559.622	1234.638
130.424	23.416	1558.506	1231.081
131.439	23.516	1556.751	1230.281
132.454	23.538	1556.005	1229.731
133.468	23.760	1555.760	1230.968
134.483	23.696	1553.868	1228.924
135.497	23.843	1553.631	1229.643
136.512	23.839	1552.229	1228.394
137.527	23.861	1551.006	1227.471
138.541	23.862	1551.051	1227.408
139.556	23.888	1548.763	1225.664
140.570	24.112	1547.190	1225.853
141.585	24.206	1547.177	1226.381
142.600	24.239	1546.370	1225.864
143.614	24.650	1543.575	1226.359
144.629	24.619	1544.029	1226.401
145.643	24.500	1542.302	1224.105
146.658	24.424	1541.381	1222.742
147.673	24.398	1539.905	1221.286
148.687	24.147	1539.548	1219.175
149.702	24.349	1537.903	1219.144
150.716	24.231	1535.887	1216.635
151.731	23.880	1534.270	1212.849
152.746	23.880	1531.994	1210.945
153.760	24.033	1530.595	1210.775
154.775	23.940	1530.161	1209.688
155.789	24.093	1530.138	1210.606
156.804	24.226	1528.701	1210.262
157.819	24.380	1528.019	1210.660
158.833	24.286	1526.718	1208.888
159.848	24.171	1526.627	1207.932
160.862	24.189	1525.613	1207.141
161.877	24.383	1524.694	1207.625
162.892	24.448	1522.145	1205.934
163.906	24.248	1521.142	1203.683
164.921	23.870	1520.310	1200.369
165.935	23.714	1517.990	1197.378
166.950	24.071	1517.137	1199.001
167.964	24.145	1516.945	1199.242
168.979	24.122	1516.576	1198.692
169.994	24.120	1515.998	1198.116
171.008	24.163	1513.872	1196.617
172.023	23.966	1513.992	1195.280
173.037	23.946	1512.738	1194.054
174.052	24.113	1511.722	1194.263
175.067	24.481	1510.065	1195.313
176.081	24.195	1510.120	1193.340
177.096	24.425	1507.857	1192.979
178.110	23.691	1507.248	1187.485
179.125	23.825	1506.290	1187.524
180.140	24.044	1504.642	1187.580
181.154	24.339	1503.257	1188.350
182.169	24.292	1503.435	1188.072
183.183	24.421	1501.933	1187.636
184.198	24.515	1501.736	1188.005
185.213	24.325	1500.674	1185.791
186.227	24.660	1499.360	1186.876
187.242	24.559	1498.754	1185.618
188.256	24.433	1497.648	1183.801
189.271	24.480	1497.026	1183.518
190.286	24.583	1497.595	1184.549
191.300	24.298	1496.439	1181.641
192.315	24.344	1493.984	1179.899
193.329	23.873	1494.202	1176.853
194.344	24.010	1492.364	1176.209
195.359	23.717	1492.224	1174.054
196.373	24.010	1489.445	1173.697
197.388	23.930	1488.117	1172.023
198.402	23.761	1487.397	1170.233
199.417	23.909	1486.882	1170.703
200.432	24.247	1487.397	1173.230
201.446	24.568	1486.279	1174.354
202.461	24.561	1485.748	1173.782
203.475	24.594	1484.971	1173.286
204.490	24.577	1484.046	1172.335
205.504	24.267	1482.598	1169.057
206.519	24.135	1481.087	1166.896
207.534	24.142	1479.695	1165.742
208.548	24.091	1477.975	1163.953
209.563	23.937	1477.074	1162.131
210.577	23.984	1475.525	1161.120
211.592	24.044	1476.067	1161.830
212.607	23.641	1475.091	1158.331
213.621	24.327	1475.299	1162.869
214.636	24.354	1475.084	1162.775
215.650	24.504	1473.252	1162.201
216.665	24.195	1472.945	1159.845
217.680	24.185	1472.865	1159.613
218.694	24.403	1472.415	1160.575
219.709	24.815	1471.459	1162.398
220.723	24.767	1469.381	1160.342
221.738	24.579	1468.744	1158.515
222.753	24.391	1468.126	1156.711
223.767	24.393	1467.662	1156.253
224.782	24.175	1466.048	1153.468
225.796	24.276	1465.613	1153.675
226.811	24.579	1464.665	1154.787
227.826	24.730	1464.189	1155.284
228.840	24.386	1463.414	1152.351
229.855	24.379	1462.253	1151.292
230.869	24.171	1461.173	1148.999
231.884	24.326	1459.335	1148.445
232.899	24.194	1457.903	1146.369
233.913	23.932	1457.158	1143.997
234.928	23.934	1455.910	1142.926
235.942	23.874	1454.865	1141.624
236.957	24.020	1452.918	1140.928
237.972	23.789	1453.374	1139.705
238.986	23.740	1450.784	1137.260
240.001	23.981	1448.924	1137.244
241.015	23.826	1449.517	1136.613
242.030	23.808	1448.604	1135.685
243.045	24.149	1446.176	1135.855
244.059	24.096	1445.846	1135.158
245.074	24.004	1446.911	1135.308
246.088	24.078	1446.214	1135.129
247.103	24.608	1445.077	1137.512
248.117	24.617	1444.366	1136.908
249.132	24.616	1443.146	1135.841
250.147	24.826	1443.228	1137.140
251.161	24.983	1442.797	1137.697
252.176	24.935	1443.793	1138.081
253.190	25.196	1442.574	1138.672
254.205	25.138	1441.196	1137.114
255.220	25.392	1440.615	1138.167
256.234	25.501	1439.106	1137.566
257.249	25.308	1439.878	1136.850
258.263	25.307	1439.226	1136.232
259.278	25.256	1437.731	1134.630
260.293	25.231	1436.064	1133.054
261.307	24.958	1436.700	1131.728
262.322	25.435	1435.375	1133.597
263.336	25.525	1434.719	1133.547
264.351	25.510	1433.394	1132.304
265.366	25.239	1432.731	1129.975
266.380	25.200	1431.100	1128.346
267.395	25.451	1429.688	1128.709
268.409	25.453	1430.332	1129.129
269.424	25.503	1427.746	1127.301
270.439	25.033	1427.638	1124.164
271.453	25.199	1426.935	1124.552
272.468	25.240	1424.503	1122.797
273.482	24.973	1424.666	1121.155
274.497	24.693	1424.259	1118.983
275.512	24.969	1422.841	1119.492
276.526	24.830	1422.753	1118.453
277.541	24.887	1421.668	1117.863
278.555	24.780	1420.096	1115.860
279.570	24.828	1419.558	1115.634
280.585	25.156	1418.648	1116.867
281.599	25.260	1419.166	1117.824
282.614	25.535	1417.319	1117.978
283.628	25.051	1416.478	1114.211
284.643	24.863	1415.162	1111.905
285.657	24.788	1414.774	1111.040
286.672	24.628	1413.315	1108.798
287.687	24.826	1412.794	1109.523
288.701	24.896	1411.428	1108.781
289.716	24.953	1411.002	1108.703
290.730	24.773	1410.455	1107.062
291.745	24.828	1409.223	1106.337
292.760	24.664	1408.839	1104.925
293.774	24.703	1406.977	1103.609
294.789	25.044	1406.783	1105.461
295.803	25.196	1404.900	1104.822
296.818	25.355	1404.925	1105.723
297.833	25.126	1404.114	1103.577
298.847	24.987	1403.254	1101.946
299.862	24.902	1401.847	1100.220
300.876	24.966	1400.982	1099.840
301.891	25.060	1399.482	1099.144
302.906	24.953	1399.555	1098.444
303.920	24.880	1399.385	1097.768
304.935	25.610	1397.775	1100.876
305.949	25.704	1397.175	1100.884
306.964	25.600	1397.529	1100.427
307.979	25.473	1397.284	1099.359
308.993	25.515	1395.305	1097.961
310.008	25.284	1394.573	1095.880
311.022	25.365	1392.764	1094.853
312.037	25.541	1391.775	1095.053
313.052	25.620	1390.748	1094.629
314.066	25.376	1390.277	1092.676
315.081	25.060	1390.093	1090.513
316.095	25.005	1387.574	1088.103
317.110	24.640	1386.392	1084.868
318.125	24.755	1385.726	1084.944
319.139	24.807	1385.006	1084.600
320.154	24.962	1383.465	1084.240
321.168	24.882	1382.611	1082.991
322.183	24.960	1382.861	1083.562
323.197	24.741	1381.091	1080.757
324.212	24.702	1380.787	1080.185
325.227	24.792	1380.354	1080.293
326.241	24.839	1379.166	1079.552
327.256	24.887	1378.649	1079.342
328.270	25.152	1377.440	1079.893
329.285	24.758	1376.169	1076.433
330.300	24.989	1375.115	1076.904
331.314	25.075	1375.473	1077.605
332.329	25.055	1374.197	1076.388
333.343	24.968	1372.738	1074.631
334.358	24.836	1372.753	1073.753
335.373	25.072	1372.072	1074.542
336.387	25.142	1371.643	1074.533
337.402	25.407	1370.502	1075.127
338.416	25.607	1369.504	1075.443
339.431	25.374	1369.881	1074.255
340.446	25.706	1368.069	1074.719
341.460	25.514	1368.315	1073.672
342.475	25.853	1367.445	1074.913
343.489	26.111	1367.107	1076.092
344.504	25.921	1367.203	1074.940
345.519	26.136	1365.711	1074.951
346.533	26.105	1365.187	1074.262
347.548	26.091	1363.451	1072.714
348.562	26.009	1362.832	1071.649
349.577	26.058	1362.291	1071.420
350.592	26.024	1360.141	1069.430
351.606	25.700	1359.023	1066.537
352.621	25.349	1358.401	1063.878
353.635	25.340	1357.238	1062.820
354.650	25.255	1355.768	1061.073
355.665	24.965	1355.884	1059.352
356.679	24.948	1354.259	1057.890
357.694	25.394	1353.170	1059.575
358.708	25.599	1351.409	1059.311
359.723	25.623	1351.387	1059.338
360.738	25.575	1350.462	1058.240
361.752	25.605	1349.089	1057.246
362.767	25.562	1348.021	1056.063
363.781	25.549	1347.082	1055.156
364.796	25.385	1345.833	1053.124
365.810	25.378	1346.589	1053.584
366.825	25.822	1346.030	1055.655
367.840	26.016	1345.671	1056.419
368.854	26.112	1344.861	1056.249
369.869	26.229	1345.141	1057.060
370.883	26.465	1344.303	1057.685
371.898	26.126	1343.073	1054.646
372.913	26.060	1342.498	1053.716
373.927	26.064	1341.276	1052.684
374.942	25.692	1341.381	1050.504
375.956	25.879	1340.285	1050.643
376.971	26.059	1339.006	1050.594
377.986	26.091	1337.226	1049.292
379.000	26.068	1337.662	1049.405
380.015	26.127	1336.902	1049.061
381.029	26.241	1336.596	1049.393
382.044	26.423	1335.516	1049.505
383.059	26.451	1334.579	1048.837
384.073	26.110	1334.252	1046.515
385.088	26.187	1333.690	1046.424
386.102	26.277	1332.526	1045.943
387.117	26.323	1331.703	1045.467
388.132	26.184	1331.433	1044.358
389.146	25.910	1329.375	1041.073
390.161	25.667	1328.536	1038.922
391.175	25.563	1329.745	1039.175
392.190	25.525	1327.814	1037.352
393.205	25.660	1327.137	1037.508
394.219	25.812	1326.561	1037.842
395.234	26.245	1325.696	1039.570
396.248	26.031	1323.870	1036.811
397.263	25.713	1323.329	1034.471
398.278	25.874	1320.520	1033.107
399.292	25.596	1319.648	1030.739
400.307	25.596	1318.985	1030.131
401.321	25.888	1318.211	1031.105
402.336	25.853	1316.758	1029.678
403.350	25.800	1315.382	1028.211
404.365	25.634	1313.836	1025.962
405.380	25.533	1313.886	1025.333
406.394	25.808	1312.957	1026.086
407.409	25.930	1313.214	1026.889
408.423	25.880	1312.875	1026.250
409.438	25.980	1312.229	1026.227
410.453	26.251	1312.004	1027.499
411.467	26.270	1311.191	1026.881
412.482	26.252	1311.037	1026.564
413.496	26.494	1309.622	1026.739
414.511	26.186	1309.253	1024.611
415.526	26.409	1308.399	1025.117
416.540	26.534	1307.682	1025.172
417.555	26.811	1306.560	1025.769
418.569	26.630	1306.473	1024.585
419.584	26.547	1305.621	1023.357
420.599	26.554	1304.425	1022.369
421.613	144.319	1434.945	1794.022
422.628	139.764	1454.002	1794.012
