DTS Sentinel unit serial number:	SN413079Multiplexer serial number:	ORYXHardware model number:	OX4-SRSoftware version number:	ORYX F/W v4.00 Oryx Data Collector v3.7.2.0data status	okinstallation	princeton_trtdifferential loss correction	single-endedforward channel	channel 4reverse channel	N/Adate	2019/09/17time	12:25:35forward acquisition time	60.00reverse acquisition time	0.00gamma	496.2192k internal	0.2304k external	0.2304temperature offset calibration	0.9992default loss term (dB/km)	0.3790temperature slope calibration	1.0000multiplexer offset coefficient	1.0000multiplexer slope coefficient	1.0000fibre end	0.00T internal ref (°C)	31.77T ext. ref 1 (°C)	0.43T ext. ref 2 (°C)	28.90length (m)	temperature (°C)	Stokes	anti-Stokes-747.200	-123.781	0.145	0.023
-746.185	147.229	-0.186	0.255
-745.171	218.800	-0.131	-0.213
-744.156	-166.382	0.205	-0.009
-743.142	-83.296	0.121	-0.039
-742.127	7.282	-0.155	0.118
-741.112	-200.000	0.004	0.314
-740.098	-41.312	-0.072	0.038
-739.083	-99.625	0.028	0.007
-738.069	-114.728	-0.038	-0.007
-737.054	56.346	-0.105	0.104
-736.039	-156.697	-0.313	-0.020
-735.025	-126.206	-0.096	-0.015
-734.010	73.357	-0.287	0.306
-732.996	800.000	-0.101	-0.381
-731.981	-6.087	-0.150	-0.105
-730.966	236.273	0.115	-0.194
-729.952	108.690	-0.259	-0.315
-728.937	-129.393	-0.520	-0.073
-727.923	-84.920	-0.457	-0.146
-726.908	-20.508	0.135	0.084
-725.894	-200.000	0.013	-0.084
-724.879	207.902	-0.076	0.121
-723.864	-130.717	0.105	0.014
-722.850	-200.000	-0.037	-0.235
-721.835	86.611	-0.136	0.152
-720.821	234.685	-0.140	-0.235
-719.806	-200.000	-0.023	-0.178
-718.791	-200.000	-0.057	0.281
-717.777	800.000	0.059	-0.192
-716.762	211.650	0.039	-0.063
-715.748	-26.989	-0.295	0.175
-714.733	-16.888	-0.214	-0.138
-713.718	800.000	0.063	0.198
-712.704	-125.398	-0.302	-0.047
-711.689	-88.772	0.044	-0.013
-710.675	157.488	-0.080	0.112
-709.660	-152.732	-0.381	-0.028
-708.645	-160.224	0.130	-0.007
-707.631	-5.677	-0.299	-0.209
-706.616	222.458	0.145	-0.238
-705.602	-36.987	0.276	-0.150
-704.587	26.805	0.220	0.187
-703.572	-49.506	0.299	-0.145
-702.558	-131.798	-0.181	-0.024
-701.543	-67.259	0.102	0.041
-700.529	-200.000	0.014	0.073
-699.514	112.596	-0.241	-0.296
-698.499	-115.016	-0.303	-0.058
-697.485	-200.000	0.046	-0.236
-696.470	75.510	-0.130	-0.140
-695.456	-200.000	-0.024	-0.144
-694.441	84.192	-0.241	-0.268
-693.426	-74.083	0.206	-0.076
-692.412	240.117	0.164	-0.278
-691.397	336.727	0.044	-0.087
-690.383	-200.000	0.028	0.128
-689.368	-200.000	0.029	-0.179
-688.354	-123.697	0.143	0.023
-687.339	-25.542	0.165	-0.099
-686.324	-119.591	-0.354	-0.062
-685.310	-95.965	-0.068	0.019
-684.295	393.874	-0.120	-0.255
-683.281	9.349	-0.422	-0.325
-682.266	-200.000	0.019	-0.262
-681.251	-118.581	0.119	0.021
-680.237	-99.989	-0.322	-0.082
-679.222	-71.149	-0.207	-0.079
-678.208	-55.297	-0.282	0.129
-677.193	-65.414	0.176	-0.072
-676.178	176.557	-0.020	0.030
-675.164	213.632	-0.178	-0.287
-674.149	375.497	-0.140	-0.291
-673.135	-200.000	-0.059	0.323
-672.120	-92.966	0.204	-0.058
-671.105	66.611	-0.082	0.084
-670.091	41.251	-0.240	-0.220
-669.076	32.920	0.264	-0.232
-668.062	-200.000	0.187	0.000
-667.047	148.578	0.075	-0.103
-666.032	630.435	-0.119	-0.307
-665.018	5.093	-0.031	-0.023
-664.003	8.980	0.145	-0.111
-662.989	124.741	-0.211	0.270
-661.974	800.000	-0.136	0.415
-660.959	-77.494	-0.208	-0.073
-659.945	377.173	-0.107	0.223
-658.930	-146.057	0.093	-0.008
-657.916	-3.938	-0.113	-0.080
-656.901	-20.925	-0.147	0.092
-655.886	119.301	-0.095	0.119
-654.872	-82.704	-0.230	0.076
-653.857	-66.850	0.407	-0.163
-652.843	417.401	0.114	-0.246
-651.828	-63.863	-0.195	-0.081
-650.814	800.000	0.058	-0.168
-649.799	-200.000	0.071	-0.344
-648.784	-119.598	-0.030	0.005
-647.770	184.560	0.124	0.186
-646.755	-34.822	0.112	0.062
-645.741	-188.404	-0.101	0.001
-644.726	-90.584	0.392	0.115
-643.711	800.000	-0.078	-0.296
-642.697	308.763	-0.086	0.162
-641.682	-175.276	-0.150	-0.004
-640.668	-62.553	0.108	0.046
-639.653	-200.000	0.024	0.113
-638.638	79.738	-0.165	-0.180
-637.624	86.525	0.127	-0.142
-636.609	201.284	-0.023	-0.036
-635.595	196.386	0.008	-0.012
-634.580	702.766	0.012	-0.032
-633.565	-136.115	-0.252	0.030
-632.551	43.817	-0.126	-0.117
-631.536	59.424	0.215	-0.215
-630.522	-22.895	0.206	0.126
-629.507	800.000	-0.141	0.461
-628.492	-60.606	0.110	0.047
-627.478	-200.000	0.049	0.227
-626.463	524.033	-0.122	-0.290
-625.449	92.655	-0.224	-0.256
-624.434	-93.024	-0.219	0.062
-623.419	-30.705	0.012	0.007
-622.405	156.414	0.181	0.254
-621.390	-115.815	-0.291	-0.055
-620.376	-200.000	0.030	0.154
-619.361	-99.814	-0.061	-0.015
-618.346	16.075	-0.115	0.092
-617.332	42.404	-0.140	0.129
-616.317	103.323	0.130	0.154
-615.303	-134.861	-0.168	0.021
-614.288	79.676	-0.166	0.180
-613.273	294.954	-0.138	0.256
-612.259	4.299	0.132	0.098
-611.244	-55.048	0.097	-0.044
-610.230	237.939	0.039	0.065
-609.215	277.550	-0.228	-0.412
-608.201	184.571	0.088	0.133
-607.186	-200.000	0.022	-0.116
-606.171	-200.000	-0.021	0.200
-605.157	-102.155	0.132	-0.032
-604.142	-61.140	0.105	-0.045
-603.128	-0.797	-0.169	0.121
-602.113	58.318	-0.231	0.229
-601.098	56.172	-0.049	0.049
-600.084	204.020	0.103	0.162
-599.069	65.373	-0.134	-0.138
-598.055	-110.578	0.337	-0.071
-597.040	49.532	-0.153	0.146
-596.025	-200.000	-0.002	-0.119
-595.011	74.014	-0.093	-0.099
-593.996	-161.998	-0.238	-0.012
-592.982	35.382	0.231	-0.205
-591.967	-34.219	-0.230	0.128
-590.952	-85.665	0.369	-0.116
-589.938	56.576	0.058	-0.057
-588.923	183.043	0.035	0.052
-587.909	43.582	-0.084	0.078
-586.894	800.000	0.087	0.335
-585.879	-140.023	0.359	-0.038
-584.865	266.176	-0.145	0.256
-583.850	-38.469	0.072	0.038
-582.836	-115.058	0.434	-0.083
-581.821	32.556	-0.168	-0.147
-580.806	-200.000	0.340	0.001
-579.792	36.138	-0.256	-0.228
-578.777	-200.000	-0.008	0.150
-577.763	-83.564	-0.308	0.100
-576.748	-158.796	-0.396	-0.023
-575.733	238.669	0.159	-0.268
-574.719	54.604	0.173	0.169
-573.704	-42.699	0.194	-0.100
-572.690	215.187	-0.071	0.115
-571.675	-80.718	-0.254	0.086
-570.661	117.037	0.074	-0.092
-569.646	87.034	-0.241	0.269
-568.631	-200.000	-0.029	-0.351
-567.617	-67.791	-0.208	0.082
-566.602	-123.995	0.344	0.055
-565.588	800.000	-0.042	0.133
-564.573	178.618	-0.150	-0.221
-563.558	-28.947	0.138	-0.080
-562.544	-40.797	-0.490	0.256
-561.529	99.021	-0.090	0.105
-560.515	3.452	-0.201	-0.148
-559.500	64.700	0.128	0.131
-558.485	428.737	-0.120	-0.261
-557.471	460.263	-0.067	0.151
-556.456	-117.629	-0.188	-0.034
-555.442	174.872	0.237	0.346
-554.427	24.723	-0.294	0.246
-553.412	7.045	0.094	0.071
-552.398	346.173	-0.178	-0.354
-551.383	0.949	0.107	0.078
-550.369	616.770	-0.088	0.223
-549.354	800.000	0.024	-0.104
-548.339	377.632	0.075	-0.154
-547.325	-200.000	-0.022	0.139
-546.310	-10.888	0.160	-0.107
-545.296	427.127	0.149	0.324
-544.281	-200.000	0.019	-0.130
-543.266	-5.160	-0.149	0.103
-542.252	-200.000	0.060	-0.361
-541.237	63.913	-0.182	-0.185
-540.223	800.000	0.072	0.209
-539.208	95.329	0.079	-0.091
-538.193	-200.000	-0.001	0.520
-537.179	354.873	-0.161	0.323
-536.164	151.680	-0.190	-0.261
-535.150	210.565	-0.083	-0.132
-534.135	-159.469	-0.099	0.006
-533.121	712.399	-0.031	-0.082
-532.106	-48.963	-0.291	0.141
-531.091	-188.412	0.152	-0.002
-530.077	-123.360	0.231	-0.037
-529.062	-177.948	0.221	0.005
-528.048	800.000	0.110	-0.326
-527.033	-64.215	-0.276	-0.114
-526.018	-112.009	0.241	0.049
-525.004	-68.195	-0.234	-0.092
-523.989	22.659	0.078	-0.065
-522.975	231.268	-0.093	0.154
-521.960	120.130	-0.068	0.085
-520.945	-104.534	0.174	0.040
-519.931	-43.713	0.119	-0.061
-518.916	63.091	0.176	0.178
-517.902	157.239	-0.179	0.249
-516.887	-69.159	-0.203	0.079
-515.872	-106.450	0.234	-0.053
-514.858	800.000	0.040	-0.173
-513.843	289.575	-0.101	0.184
-512.829	471.842	0.299	-0.680
-511.814	589.397	-0.080	-0.198
-510.799	-167.061	0.159	-0.007
-509.785	800.000	0.012	0.043
-508.770	456.935	0.091	0.203
-507.756	522.486	-0.109	0.258
-506.741	-143.137	0.210	0.020
-505.726	-54.128	-0.186	-0.085
-504.712	-200.000	0.017	0.114
-503.697	243.318	0.060	0.102
-502.683	-117.400	-0.245	0.045
-501.668	94.508	0.115	-0.132
-500.653	-200.000	-0.009	0.356
-499.639	-200.000	-0.038	-0.311
-498.624	-106.330	-0.201	-0.045
-497.610	12.153	-0.177	0.138
-496.595	-2.307	0.184	-0.130
-495.581	-69.071	-0.097	-0.038
-494.566	18.323	-0.155	-0.125
-493.551	97.565	0.166	0.192
-492.537	380.312	-0.075	-0.154
-491.522	-144.060	0.417	-0.039
-490.508	-34.305	0.020	-0.011
-489.493	144.496	-0.128	-0.172
-488.478	-104.249	0.308	-0.072
-487.464	7.674	-0.193	0.146
-486.449	28.940	-0.074	0.064
-485.435	391.786	0.089	0.186
-484.420	-92.915	-0.139	0.039
-483.405	289.507	-0.119	-0.218
-482.391	-92.202	0.273	-0.078
-481.376	-200.000	0.044	-0.234
-480.362	-177.256	0.386	-0.010
-479.347	-85.009	0.178	-0.056
-478.332	800.000	-0.074	0.300
-477.318	-107.935	-0.147	0.032
-476.303	14.461	0.035	0.027
-475.289	-63.307	-0.173	0.072
-474.274	541.290	0.026	-0.062
-473.259	215.108	0.144	0.231
-472.245	293.183	0.045	-0.082
-471.230	-200.000	0.018	-0.086
-470.216	-109.308	-0.201	-0.043
-469.201	-200.000	0.019	0.559
-468.186	-8.756	-0.232	-0.157
-467.172	-160.672	0.210	0.011
-466.157	250.098	-0.160	-0.273
-465.143	-200.000	0.007	-0.211
-464.128	14.506	-0.220	0.173
-463.113	800.000	0.013	0.036
-462.099	800.000	-0.049	0.206
-461.084	106.180	0.150	0.179
-460.070	-18.640	0.076	0.048
-459.055	-200.000	-0.013	0.073
-458.040	-2.626	0.152	0.107
-457.026	21.195	0.260	0.212
-456.011	61.909	-0.275	-0.276
-454.997	221.009	-0.148	0.239
-453.982	-47.567	0.193	-0.095
-452.968	-155.041	-0.026	0.002
-451.953	-88.024	0.105	-0.032
-450.938	-200.000	0.022	-0.122
-449.924	80.168	0.038	0.041
-448.909	-138.460	0.154	-0.017
-447.895	161.903	0.090	0.127
-446.880	-62.802	0.209	0.087
-445.865	71.191	-0.115	-0.120
-444.851	-25.338	0.226	0.135
-443.836	11.672	0.308	0.238
-442.822	-67.668	0.175	-0.069
-441.807	-60.654	0.116	0.050
-440.792	-164.358	0.108	0.005
-439.778	-200.000	-0.015	0.350
-438.763	-8.937	-0.085	0.057
-437.749	800.000	0.118	-0.432
-436.734	-103.645	0.496	-0.117
-435.719	-200.000	0.019	0.117
-434.705	-62.496	-0.092	0.038
-433.690	95.627	0.146	-0.167
-432.676	-200.000	-0.044	0.459
-431.661	800.000	-0.031	0.134
-430.646	-200.000	-0.018	0.145
-429.632	187.432	-0.136	-0.204
-428.617	-175.105	0.105	0.003
-427.603	13.500	-0.305	-0.238
-426.588	-200.000	0.029	-0.172
-425.573	-200.000	0.012	0.155
-424.559	-200.000	0.059	-0.306
-423.544	-200.000	-0.032	0.304
-422.530	-175.293	-0.090	0.002
-421.515	46.483	0.130	-0.121
-420.500	-62.831	0.083	0.034
-419.486	72.444	0.077	-0.081
-418.471	-2.507	-0.221	0.155
-417.457	-200.000	-0.025	0.405
-416.442	202.167	-0.073	-0.113
-415.428	-119.145	0.221	-0.039
-414.413	-82.113	-0.221	0.073
-413.398	135.916	0.074	0.097
-412.384	422.339	-0.054	0.116
-411.369	88.535	0.154	-0.172
-410.355	-99.137	-0.495	0.126
-409.340	-33.078	0.186	-0.104
-408.325	-57.609	-0.378	0.167
-407.311	800.000	0.037	-0.103
-406.296	800.000	0.130	0.396
-405.282	224.137	-0.055	0.089
-404.267	12.831	-0.263	-0.204
-403.252	800.000	0.059	-0.243
-402.238	-200.000	-0.069	0.308
-401.223	63.797	0.158	0.159
-400.209	-91.335	-0.045	0.013
-399.194	2.998	-0.226	-0.165
-398.179	-78.577	-0.173	0.059
-397.165	12.319	0.222	-0.172
-396.150	120.636	-0.304	-0.379
-395.136	800.000	0.131	-0.367
-394.121	-200.000	-0.004	-0.272
-393.106	249.776	0.098	-0.166
-392.092	174.901	-0.055	0.080
-391.077	405.826	0.141	-0.299
-390.063	-200.000	-0.039	-0.174
-389.048	-200.000	-0.075	0.428
-388.033	-146.276	0.278	-0.025
-387.019	36.143	0.194	0.171
-386.004	-111.326	0.190	-0.039
-384.990	800.000	0.060	-0.179
-383.975	-121.168	-0.234	0.039
-382.960	-88.081	0.160	-0.048
-381.946	-200.000	0.003	0.478
-380.931	31.850	-0.162	0.140
-379.917	88.077	-0.175	-0.195
-378.902	76.454	-0.107	-0.114
-377.888	-90.316	-0.319	-0.093
-376.873	-12.609	-0.133	-0.087
-375.858	-200.000	0.044	0.286
-374.844	-33.409	0.178	0.099
-373.829	-200.000	0.000	-0.289
-372.815	-113.608	0.052	-0.010
-371.800	65.490	0.213	-0.216
-370.785	-200.000	-0.004	-0.101
-369.771	19.078	0.117	0.094
-368.756	437.887	0.058	-0.126
-367.742	-200.000	-0.003	-0.015
-366.727	509.956	0.074	0.173
-365.712	-87.603	0.152	-0.046
-364.698	214.478	0.138	-0.219
-363.683	-200.000	0.022	-0.124
-362.669	92.266	0.158	-0.179
-361.654	311.675	-0.043	-0.081
-360.639	-161.954	0.272	-0.014
-359.625	-63.299	-0.054	0.022
-358.610	-50.535	-0.280	0.133
-357.596	72.279	0.247	-0.258
-356.581	595.816	-0.017	-0.043
-355.566	-200.000	0.022	-0.170
-354.552	800.000	0.029	-0.097
-353.537	-179.415	0.079	0.002
-352.523	800.000	0.067	0.268
-351.508	-161.107	0.146	0.008
-350.493	-97.227	0.304	0.080
-349.479	125.053	0.168	0.213
-348.464	90.494	-0.099	-0.111
-347.450	-200.000	-0.054	0.258
-346.435	-9.113	-0.392	-0.263
-345.420	107.421	-0.056	0.067
-344.406	-65.724	0.154	0.062
-343.391	-200.000	0.001	-0.329
-342.377	661.239	-0.088	0.227
-341.362	-9.824	0.363	0.242
-340.348	51.757	-0.118	0.113
-339.333	-120.038	0.280	0.048
-338.318	30.732	-0.383	0.328
-337.304	253.391	0.177	0.304
-336.289	-13.698	-0.188	-0.122
-335.275	-200.000	-0.086	-0.383
-334.260	3.616	-0.181	0.132
-333.245	800.000	-0.044	0.135
-332.231	-200.000	-0.038	0.207
-331.216	-147.480	-0.396	-0.034
-330.202	315.779	-0.104	-0.197
-329.187	-200.000	0.007	0.238
-328.172	800.000	0.061	-0.209
-327.158	-74.202	0.330	-0.120
-326.143	-200.000	0.002	0.057
-325.129	800.000	0.040	-0.137
-324.114	-164.541	0.143	-0.007
-323.099	-113.441	-0.651	-0.128
-322.085	-200.000	0.040	-0.335
-321.070	334.722	0.015	-0.029
-320.056	-200.000	0.071	0.360
-319.041	84.934	-0.165	0.181
-318.026	-183.521	-0.026	0.000
-317.012	-44.444	-0.217	-0.109
-315.997	-127.031	-0.337	-0.050
-314.983	800.000	0.039	0.137
-313.968	89.319	-0.027	-0.030
-312.953	-200.000	-0.012	0.320
-311.939	-24.027	0.159	0.095
-310.924	-22.099	0.209	0.127
-309.910	-200.000	0.062	-0.305
-308.895	-5.834	-0.289	-0.198
-307.880	-200.000	-0.012	0.176
-306.866	406.082	0.133	-0.281
-305.851	-35.885	-0.322	-0.174
-304.837	-12.005	-0.172	-0.113
-303.822	-59.563	0.238	0.102
-302.807	-115.002	0.140	-0.027
-301.793	307.269	0.147	0.274
-300.778	-47.192	0.147	0.072
-299.764	-40.335	0.237	0.123
-298.749	-67.098	0.150	-0.059
-297.735	800.000	0.004	0.012
-296.720	-200.000	0.027	0.205
-295.705	-187.347	-0.077	0.001
-294.691	-74.430	0.258	-0.093
-293.676	-163.925	0.273	-0.013
-292.662	-132.955	-0.273	-0.035
-291.647	13.330	-0.121	0.094
-290.632	20.946	0.196	-0.159
-289.618	-23.198	-0.104	0.063
-288.603	-21.678	0.313	-0.191
-287.589	23.843	-0.239	-0.197
-286.574	68.849	0.060	0.062
-285.559	12.574	-0.063	0.049
-284.545	639.353	0.034	0.085
-283.530	-39.687	0.209	-0.109
-282.516	-200.000	0.036	0.260
-281.501	184.412	0.178	0.263
-280.486	800.000	0.091	-0.269
-279.472	-190.562	-0.262	-0.003
-278.457	-200.000	0.014	0.068
-277.443	-122.346	0.215	-0.035
-276.428	800.000	-0.061	0.184
-275.413	-200.000	-0.048	-0.248
-274.399	126.076	0.296	0.373
-273.384	800.000	0.017	0.076
-272.370	800.000	0.065	0.218
-271.355	69.887	0.058	0.059
-270.340	800.000	0.151	0.426
-269.326	-138.711	0.406	-0.044
-268.311	-200.000	0.005	0.425
-267.297	44.380	-0.047	-0.043
-266.282	-86.584	-0.163	0.050
-265.267	-64.790	-0.154	-0.062
-264.253	75.605	-0.139	-0.147
-263.238	-144.391	0.171	-0.016
-262.224	-4.583	-0.327	0.226
-261.209	103.473	0.044	0.051
-260.195	-22.054	0.182	0.111
-259.180	104.452	-0.138	0.162
-258.165	-200.000	-0.017	0.177
-257.151	800.000	-0.034	0.113
-256.136	800.000	-0.104	-0.389
-255.122	-104.506	-0.311	0.072
-254.107	23.607	0.093	0.077
-253.092	-200.000	-0.081	0.481
-252.078	-200.000	0.015	-0.113
-251.063	144.294	-0.209	0.278
-250.049	18.191	0.050	0.040
-249.034	-112.827	-0.280	-0.055
-248.019	-139.220	-0.161	0.017
-247.005	-89.141	-0.095	-0.028
-245.990	-36.700	0.217	0.116
-244.976	-47.891	-0.076	0.037
-243.961	-200.000	-0.023	-0.158
-242.946	-135.641	0.063	-0.007
-241.932	-200.000	0.015	0.300
-240.917	5.757	0.212	-0.157
-239.903	-59.493	-0.194	-0.083
-238.888	-28.673	-0.118	-0.068
-237.873	35.751	0.044	0.038
-236.859	-40.287	0.212	0.110
-235.844	-92.255	-0.584	-0.164
-234.830	-0.110	0.099	0.071
-233.815	-65.493	0.305	-0.122
-232.800	199.410	-0.088	0.135
-231.786	209.393	0.096	-0.150
-230.771	244.965	0.109	0.182
-229.757	253.797	-0.083	-0.141
-228.742	-13.524	-0.086	-0.056
-227.727	-200.000	-0.050	-0.224
-226.713	219.756	-0.090	-0.143
-225.698	-161.393	0.140	0.007
-224.684	192.635	0.103	0.155
-223.669	6.391	-0.136	-0.101
-222.655	374.778	-0.174	-0.353
-221.640	29.940	0.118	-0.101
-220.625	-6.345	-0.252	0.172
-219.611	-22.009	-0.146	-0.089
-218.596	-200.000	0.017	-0.382
-217.582	-58.845	-0.192	-0.083
-216.567	-200.000	0.064	-0.313
-215.552	156.664	0.121	-0.166
-214.538	-39.756	0.073	-0.038
-213.523	305.455	-0.135	-0.250
-212.509	128.588	0.054	-0.069
-211.494	75.322	-0.029	-0.030
-210.479	800.000	-0.073	-0.228
-209.465	514.869	0.079	-0.183
-208.450	23.058	-0.126	0.103
-207.436	-80.985	0.318	0.105
-206.421	118.220	0.090	0.110
-205.406	-71.812	-0.305	-0.113
-204.392	550.325	-0.095	-0.226
-203.377	800.000	0.007	0.022
-202.363	-200.000	-0.051	-0.237
-201.348	-67.900	0.255	0.099
-200.333	-49.998	-0.379	-0.179
-199.319	-93.876	0.054	-0.015
-198.304	800.000	0.071	-0.294
-197.290	-200.000	0.012	0.123
-196.275	-55.467	-0.047	-0.021
-195.260	-81.876	-0.121	-0.039
-194.246	-60.046	-0.247	0.105
-193.231	-200.000	-0.006	-0.124
-192.217	3.069	0.552	-0.399
-191.202	-113.409	0.299	0.059
-190.187	49.532	0.131	0.123
-189.173	-57.791	0.202	-0.088
-188.158	120.914	-0.063	0.078
-187.144	800.000	0.019	0.077
-186.129	-13.450	0.098	0.063
-185.114	-183.443	-0.058	0.001
-184.100	-22.939	0.043	0.026
-183.085	-61.456	0.203	-0.085
-182.071	-141.809	0.077	0.008
-181.056	800.000	0.075	-0.284
-180.042	91.253	-0.114	-0.128
-179.027	773.706	-0.116	0.314
-178.012	310.135	0.072	-0.134
-176.998	154.547	0.303	-0.414
-175.983	-24.225	-0.578	-0.343
-174.969	-97.053	0.210	0.055
-173.954	36.215	0.041	-0.036
-172.939	-200.000	0.023	-0.262
-171.925	-200.000	0.024	0.113
-170.910	20.250	0.148	0.119
-169.896	-200.000	-0.022	0.244
-168.881	800.000	0.027	-0.080
-167.866	-200.000	0.028	-0.142
-166.852	-107.275	-0.191	0.042
-165.837	462.945	-0.218	-0.484
-164.823	800.000	0.174	-0.487
-163.808	-101.427	-0.237	0.057
-162.793	-105.943	-0.355	0.080
-161.779	-57.179	0.221	-0.097
-160.764	6.491	-0.207	-0.153
-159.750	-104.276	-0.091	-0.021
-158.735	-119.603	0.298	0.051
-157.720	-138.458	-0.229	-0.025
-156.706	2.818	-0.126	0.091
-155.691	70.535	0.118	-0.121
-154.677	-66.428	0.190	0.075
-153.662	-167.457	-0.115	-0.005
-152.647	139.371	-0.127	0.167
-151.633	-57.347	-0.065	0.028
-150.618	-200.000	-0.027	0.163
-149.604	144.346	0.174	0.232
-148.589	-73.235	0.349	-0.127
-147.574	127.344	0.139	-0.176
-146.560	-5.994	-0.358	-0.243
-145.545	167.848	0.086	-0.121
-144.531	-76.313	0.385	-0.135
-143.516	-96.555	0.108	-0.028
-142.502	-200.000	-0.034	-0.169
-141.487	175.825	0.104	-0.150
-140.472	-200.000	0.023	-0.268
-139.458	-164.555	0.108	-0.005
-138.443	160.844	-0.036	0.049
-137.429	-108.346	-0.073	0.016
-136.414	2.015	0.236	0.169
-135.399	-143.628	0.319	-0.030
-134.385	101.213	-0.057	-0.065
-133.370	-121.104	0.012	0.002
-132.356	-45.802	-0.123	-0.060
-131.341	301.261	0.256	-0.470
-130.326	-24.893	0.207	-0.122
-129.312	723.338	0.070	0.186
-128.297	32.475	-0.493	0.423
-127.283	-147.232	0.201	-0.017
-126.268	800.000	0.055	0.235
-125.253	-200.000	-0.021	-0.126
-124.239	-33.794	0.343	0.188
-123.224	459.197	-0.148	-0.327
-122.210	6.965	-0.087	0.064
-121.195	12.062	-0.131	-0.101
-120.180	-200.000	0.001	0.054
-119.166	800.000	0.017	-0.054
-118.151	-200.000	-0.000	0.312
-117.137	800.000	0.067	-0.249
-116.122	-104.777	-0.071	-0.016
-115.107	-9.279	0.087	-0.058
-114.093	-116.709	-0.066	0.012
-113.078	-200.000	0.027	-0.202
-112.064	76.644	0.274	0.289
-111.049	745.505	0.075	0.202
-110.034	-91.707	-0.350	0.099
-109.020	13.007	0.107	0.082
-108.005	174.344	0.191	-0.274
-106.991	-93.072	-0.210	-0.058
-105.976	-117.467	0.278	-0.050
-104.962	-200.000	-0.019	-0.217
-103.947	-57.420	0.100	0.044
-102.932	735.160	-0.110	-0.292
-101.918	-176.132	0.280	-0.007
-100.903	140.703	0.255	-0.334
-99.889	-81.152	0.486	-0.160
-98.874	-95.855	-0.277	-0.073
-97.859	-24.517	0.103	0.061
-96.845	418.394	0.115	-0.244
-95.830	-184.013	0.448	-0.007
-94.816	800.000	-0.080	-0.244
-93.801	-179.624	0.170	0.004
-92.786	-165.750	0.284	0.012
-91.772	-200.000	0.020	0.223
-90.757	438.904	0.185	-0.400
-89.743	290.960	-0.046	-0.082
-88.728	-41.179	-0.135	0.069
-87.713	-155.514	-0.377	0.024
-86.699	-200.000	-0.021	0.221
-85.684	-118.768	0.156	-0.027
-84.670	272.579	0.114	-0.200
-83.655	734.442	-0.062	0.164
-82.640	-41.890	0.147	-0.075
-81.626	800.000	-0.081	0.277
-80.611	-160.336	-0.247	0.013
-79.597	-200.000	0.006	0.212
-78.582	-43.075	-0.228	0.114
-77.567	-95.890	0.353	0.093
-76.553	176.858	-0.057	-0.083
-75.538	-113.523	0.117	0.023
-74.524	95.011	0.086	0.097
-73.509	96.431	-0.400	-0.454
-72.494	-44.336	0.329	0.164
-71.480	-46.055	-0.197	0.096
-70.465	800.000	-0.095	0.379
-69.451	-145.596	0.126	-0.011
-68.436	208.569	0.054	0.083
-67.422	567.472	0.122	-0.294
-66.407	800.000	0.055	-0.189
-65.392	395.028	-0.101	-0.208
-64.378	-200.000	-0.042	0.251
-63.363	65.929	0.191	0.193
-62.349	-27.727	0.272	0.157
-61.334	34.101	-0.947	-0.818
-60.319	-6.852	0.574	0.387
-59.305	400.154	-0.482	-1.002
-58.290	5.431	0.944	0.690
-57.276	369.248	0.647	1.298
-56.261	-200.000	95.513	590.826
-55.246	535.418	1408.132	3310.459
-54.232	151.976	2595.667	3508.189
-53.217	102.519	2335.247	2706.528
-52.203	38.476	2091.436	1847.626
-51.188	33.386	2005.199	1725.144
-50.173	31.963	1986.352	1696.011
-49.159	47.204	2035.403	1877.627
-48.144	48.285	2053.346	1903.992
-47.130	34.144	2016.310	1741.374
-46.115	31.742	2005.369	1709.963
-45.100	31.679	2002.333	1706.735
-44.086	31.612	2000.277	1704.301
-43.071	31.528	1997.278	1700.915
-42.057	31.554	1994.920	1699.070
-41.042	31.590	1993.242	1697.902
-40.027	31.607	1991.108	1696.170
-39.013	31.703	1988.430	1694.693
-37.998	31.640	1987.767	1693.495
-36.984	31.719	1984.993	1691.772
-35.969	31.687	1983.724	1690.336
-34.954	31.732	1981.831	1689.062
-33.940	31.742	1980.290	1687.769
-32.925	31.876	1978.558	1687.432
-31.911	31.835	1976.682	1685.397
-30.896	31.822	1975.530	1684.238
-29.881	31.790	1973.992	1682.565
-28.867	31.863	1972.039	1681.488
-27.852	31.850	1970.272	1679.803
-26.838	31.782	1968.227	1677.383
-25.823	31.782	1966.313	1675.684
-24.809	31.740	1964.708	1673.879
-23.794	31.764	1963.114	1672.664
-22.779	31.699	1961.346	1670.513
-21.765	31.739	1959.222	1668.997
-20.750	31.721	1957.569	1667.356
-19.736	31.777	1955.608	1666.121
-18.721	31.827	1954.276	1665.368
-17.706	31.810	1952.936	1664.001
-16.692	31.802	1950.818	1662.061
-15.677	31.811	1949.937	1661.330
-14.663	31.770	1948.380	1659.567
-13.648	31.761	1947.280	1658.488
-12.633	31.769	1946.025	1657.428
-11.619	31.786	1944.969	1656.613
-10.604	31.805	1943.382	1655.361
-9.590	31.803	1941.594	1653.757
-8.575	31.797	1940.258	1652.494
-7.560	31.743	1939.218	1651.068
-6.546	31.743	1938.027	1649.990
-5.531	31.785	1936.677	1649.149
-4.517	31.783	1935.658	1648.191
-3.502	31.839	1934.276	1647.441
-2.487	31.795	1933.412	1646.259
-1.473	31.778	1932.416	1645.194
-0.458	31.898	1927.826	1642.271
0.556	30.605	1909.043	1618.796
1.571	27.023	1891.062	1572.456
2.586	23.058	1913.303	1555.991
3.600	21.710	1949.017	1572.801
4.615	21.196	1944.609	1564.504
5.629	16.682	1841.620	1443.116
6.644	6.800	1717.690	1266.959
7.659	1.010	1677.875	1192.015
8.673	0.497	1674.689	1185.614
9.688	0.528	1672.761	1184.389
10.702	0.394	1671.914	1182.632
11.717	0.301	1668.313	1179.255
12.731	0.989	1667.576	1184.007
13.746	7.761	1683.585	1248.584
14.761	16.019	1699.401	1325.403
15.775	18.032	1700.908	1342.291
16.790	17.253	1698.088	1333.837
17.804	16.172	1695.074	1322.872
18.819	15.222	1691.479	1312.513
19.834	14.711	1689.379	1306.772
20.848	14.284	1687.800	1302.096
21.863	14.091	1685.895	1299.003
22.877	13.837	1684.269	1295.655
23.892	13.595	1682.906	1292.603
24.907	13.496	1681.701	1290.795
25.921	13.451	1681.180	1289.925
26.936	13.434	1680.019	1288.792
27.950	13.531	1678.873	1288.550
28.965	13.553	1678.560	1288.367
29.980	13.564	1677.831	1287.777
30.994	13.629	1676.839	1287.412
32.009	13.636	1675.812	1286.558
33.023	13.753	1674.881	1286.642
34.038	13.805	1674.023	1286.268
35.053	13.804	1672.791	1285.203
36.067	13.715	1671.593	1283.482
37.082	13.736	1670.817	1282.929
38.096	13.639	1670.077	1281.499
39.111	13.733	1669.022	1281.304
40.126	13.712	1668.618	1280.720
41.140	13.660	1667.868	1279.625
42.155	13.581	1666.016	1277.481
43.169	13.517	1664.370	1275.619
44.184	13.543	1663.290	1274.876
45.199	13.540	1662.341	1274.010
46.213	13.545	1660.449	1272.486
47.228	13.489	1659.888	1271.516
48.242	13.578	1657.982	1270.628
49.257	13.686	1657.233	1270.770
50.271	13.593	1655.927	1268.939
51.286	13.514	1655.206	1267.670
52.301	13.607	1653.290	1266.800
53.315	13.659	1651.701	1265.873
54.330	13.585	1650.242	1264.074
55.344	13.490	1649.051	1262.327
56.359	13.512	1647.679	1261.335
57.374	13.498	1646.426	1260.158
58.388	13.572	1645.533	1259.922
59.403	13.513	1643.966	1258.163
60.417	13.427	1642.946	1256.616
61.432	13.458	1641.445	1255.596
62.447	13.421	1640.251	1254.288
63.461	13.467	1639.310	1253.810
64.476	13.412	1638.176	1252.411
65.490	13.422	1636.757	1251.292
66.505	13.403	1636.011	1250.469
67.520	13.389	1634.666	1249.224
68.534	13.521	1633.380	1249.126
69.549	13.429	1632.621	1247.743
70.563	13.533	1631.242	1247.360
71.578	13.442	1629.819	1245.482
72.593	13.410	1628.601	1244.196
73.607	13.344	1627.465	1242.727
74.622	13.353	1626.639	1242.052
75.636	13.329	1625.363	1240.783
76.651	13.339	1624.564	1240.140
77.666	13.368	1623.475	1239.418
78.680	13.382	1622.537	1238.694
79.695	13.394	1621.008	1237.509
80.709	13.300	1620.567	1236.358
81.724	13.381	1620.169	1236.553
82.739	13.420	1618.847	1235.727
83.753	13.404	1618.214	1235.015
84.768	13.463	1617.362	1234.695
85.782	13.522	1616.353	1234.253
86.797	13.589	1615.586	1234.060
87.812	13.655	1614.019	1233.242
88.826	13.622	1612.963	1232.085
89.841	13.515	1612.146	1230.553
90.855	13.530	1610.893	1229.603
91.870	13.522	1610.225	1228.919
92.884	13.606	1608.947	1228.463
93.899	13.625	1607.713	1227.553
94.914	13.639	1606.328	1226.489
95.928	13.607	1605.440	1225.462
96.943	13.624	1603.723	1224.168
97.957	13.608	1602.356	1222.900
98.972	13.663	1600.945	1222.124
99.987	13.612	1599.120	1220.246
101.001	13.658	1597.581	1219.302
102.016	13.671	1595.838	1217.957
103.030	13.666	1594.933	1217.126
104.045	13.656	1594.118	1216.323
105.060	13.609	1592.374	1214.537
106.074	13.653	1590.883	1213.614
107.089	13.510	1589.705	1211.563
108.103	13.467	1588.159	1209.963
109.118	13.451	1587.168	1208.983
110.133	13.461	1585.648	1207.795
111.147	13.480	1583.466	1206.164
112.162	13.386	1582.485	1204.626
113.176	13.470	1581.448	1204.338
114.191	13.513	1580.133	1203.547
115.206	13.569	1578.599	1202.677
116.220	13.573	1577.420	1201.699
117.235	13.509	1576.116	1200.138
118.249	13.494	1575.183	1199.213
119.264	13.537	1573.536	1198.163
120.279	13.526	1572.142	1196.912
121.293	13.454	1570.580	1195.097
122.308	13.543	1568.732	1194.231
123.322	13.451	1567.519	1192.541
124.337	13.457	1566.150	1191.435
125.352	13.506	1564.726	1190.601
126.366	13.434	1564.012	1189.429
127.381	13.470	1562.318	1188.294
128.395	13.453	1561.330	1187.319
129.410	13.465	1559.924	1186.228
130.424	13.487	1558.275	1185.029
131.439	13.510	1557.383	1184.408
132.454	13.512	1556.248	1183.453
133.468	13.511	1554.523	1182.034
134.483	13.491	1553.196	1180.774
135.497	13.595	1551.364	1180.024
136.512	13.631	1550.311	1179.370
137.527	13.581	1548.931	1177.859
138.541	13.555	1547.788	1176.702
139.556	13.558	1545.994	1175.256
140.570	13.679	1544.418	1174.813
141.585	13.568	1543.405	1173.151
142.600	13.674	1541.917	1172.667
143.614	13.688	1540.889	1171.879
144.629	13.639	1540.119	1170.844
145.643	13.768	1538.304	1170.268
146.658	13.864	1536.721	1169.643
147.673	13.809	1535.369	1168.121
148.687	13.731	1534.003	1166.427
149.702	13.658	1532.658	1164.792
150.716	13.709	1530.619	1163.494
151.731	13.714	1529.215	1162.362
152.746	13.724	1528.273	1161.610
153.760	13.591	1526.957	1159.578
154.775	13.658	1525.833	1159.092
155.789	13.842	1524.103	1158.957
156.804	13.893	1522.735	1158.170
157.819	13.824	1521.424	1156.589
158.833	13.806	1520.533	1155.682
159.848	13.854	1519.375	1155.039
160.862	13.905	1518.028	1154.264
161.877	14.007	1516.749	1153.901
162.892	13.926	1515.821	1152.528
163.906	13.842	1514.624	1150.933
164.921	13.830	1512.906	1149.445
165.935	13.852	1511.945	1148.762
166.950	13.905	1510.551	1147.969
167.964	13.825	1510.354	1147.163
168.979	13.842	1509.231	1146.328
169.994	13.766	1508.068	1144.818
171.008	13.885	1506.964	1144.702
172.023	13.889	1505.485	1143.504
173.037	13.888	1504.594	1142.718
174.052	14.002	1503.218	1142.359
175.067	13.988	1502.508	1141.618
176.081	13.942	1501.150	1140.172
177.096	13.881	1499.358	1138.289
178.110	13.890	1498.625	1137.695
179.125	13.861	1497.437	1136.497
180.140	13.888	1495.805	1135.342
181.154	14.014	1494.865	1135.388
182.169	13.959	1493.746	1134.063
183.183	13.965	1492.623	1133.146
184.198	14.033	1491.207	1132.440
185.213	14.096	1490.564	1132.277
186.227	14.072	1489.444	1131.160
187.242	14.129	1488.252	1130.548
188.256	14.132	1487.381	1129.807
189.271	14.168	1486.242	1129.080
190.286	14.232	1484.970	1128.454
191.300	14.233	1484.035	1127.647
192.315	14.031	1482.534	1125.039
193.329	13.945	1481.648	1123.684
194.344	13.961	1480.459	1122.794
195.359	14.002	1479.486	1122.230
196.373	14.025	1478.557	1121.586
197.388	14.082	1477.409	1120.998
198.402	14.179	1476.280	1120.699
199.417	14.204	1474.904	1119.718
200.432	14.202	1474.153	1119.037
201.446	14.271	1473.239	1118.706
202.461	14.255	1472.212	1117.726
203.475	14.374	1470.734	1117.298
204.490	14.421	1469.429	1116.523
205.504	14.507	1468.425	1116.241
206.519	14.326	1467.695	1114.374
207.534	14.314	1466.239	1113.089
208.548	14.299	1464.990	1111.945
209.563	14.365	1464.262	1111.731
210.577	14.464	1462.968	1111.311
211.592	14.331	1462.616	1110.056
212.607	14.307	1461.996	1109.331
213.621	14.482	1460.945	1109.601
214.636	14.536	1460.004	1109.145
215.650	14.493	1459.129	1108.097
216.665	14.486	1458.708	1107.632
217.680	14.504	1457.203	1106.509
218.694	14.506	1456.978	1106.256
219.709	14.594	1455.751	1105.807
220.723	14.553	1454.526	1104.512
221.738	14.576	1453.328	1103.652
222.753	14.580	1452.935	1103.288
223.767	14.498	1451.906	1101.864
224.782	14.536	1450.716	1101.115
225.796	14.595	1450.220	1101.029
226.811	14.764	1448.982	1101.105
227.826	14.711	1448.200	1100.066
228.840	14.733	1447.582	1099.642
229.855	14.663	1446.482	1098.248
230.869	14.594	1446.088	1097.401
231.884	14.655	1444.374	1096.400
232.899	14.655	1443.212	1095.423
233.913	14.576	1442.374	1094.175
234.928	14.634	1440.999	1093.416
235.942	14.687	1439.768	1092.732
236.957	14.653	1438.568	1091.501
237.972	14.639	1437.151	1090.235
238.986	14.649	1436.724	1089.878
240.001	14.683	1435.602	1089.154
241.015	14.641	1434.679	1088.086
242.030	14.716	1433.400	1087.506
243.045	14.795	1432.131	1086.961
244.059	14.829	1431.726	1086.777
245.074	14.807	1430.836	1085.862
246.088	14.872	1429.997	1085.554
247.103	14.845	1429.226	1084.701
248.117	14.847	1428.341	1083.944
249.132	14.944	1427.605	1083.915
250.147	14.916	1427.029	1083.200
251.161	14.874	1426.726	1082.605
252.176	15.121	1425.485	1083.162
253.190	15.152	1424.760	1082.719
254.205	15.168	1423.947	1082.111
255.220	15.094	1423.066	1080.862
256.234	15.191	1422.158	1080.706
257.249	15.151	1421.720	1080.017
258.263	15.223	1420.479	1079.442
259.278	15.290	1419.496	1079.031
260.293	15.313	1418.524	1078.347
261.307	15.222	1417.970	1077.247
262.322	15.207	1417.438	1076.647
263.336	15.246	1416.414	1076.026
264.351	15.353	1415.379	1075.830
265.366	15.371	1414.443	1075.139
266.380	15.407	1413.438	1074.512
267.395	15.502	1412.094	1074.001
268.409	15.373	1411.706	1072.786
269.424	15.356	1410.796	1071.890
270.439	15.385	1409.744	1071.185
271.453	15.275	1408.960	1069.794
272.468	15.420	1407.635	1069.616
273.482	15.423	1407.170	1069.184
274.497	15.505	1406.450	1069.068
275.512	15.323	1405.172	1066.842
276.526	15.472	1404.302	1067.034
277.541	15.371	1403.493	1065.684
278.555	15.406	1402.566	1065.108
279.570	15.473	1401.693	1064.776
280.585	15.489	1400.799	1064.101
281.599	15.531	1400.063	1063.718
282.614	15.574	1398.901	1063.010
283.628	15.575	1397.992	1062.233
284.643	15.582	1396.707	1061.211
285.657	15.522	1395.996	1060.193
286.672	15.503	1394.971	1059.202
287.687	15.528	1394.196	1058.675
288.701	15.506	1393.279	1057.751
289.716	15.571	1392.464	1057.448
290.730	15.562	1391.424	1056.509
291.745	15.657	1390.499	1056.306
292.760	15.657	1389.476	1055.436
293.774	15.703	1388.432	1054.837
294.789	15.636	1387.357	1053.506
295.803	15.740	1386.405	1053.343
296.818	15.805	1385.579	1053.031
297.833	15.750	1384.745	1051.962
298.847	15.693	1383.923	1050.889
299.862	15.833	1382.545	1050.618
300.876	15.748	1382.142	1049.689
301.891	15.768	1380.916	1048.791
302.906	15.811	1380.335	1048.523
303.920	15.880	1379.501	1048.228
304.935	15.837	1378.909	1047.421
305.949	15.850	1378.102	1046.792
306.964	15.971	1377.006	1046.623
307.979	16.077	1375.853	1046.307
308.993	15.975	1374.854	1044.823
310.008	15.943	1374.065	1043.932
311.022	16.046	1372.814	1043.527
312.037	16.023	1371.848	1042.558
313.052	16.043	1371.411	1042.262
314.066	15.996	1370.002	1040.807
315.081	16.009	1369.115	1040.118
316.095	15.960	1368.325	1039.125
317.110	15.996	1367.175	1038.381
318.125	15.885	1366.275	1036.921
319.139	16.032	1364.997	1036.767
320.154	15.996	1364.418	1036.014
321.168	15.984	1363.439	1035.106
322.183	16.040	1362.356	1034.536
323.197	15.949	1361.293	1033.079
324.212	16.093	1360.309	1033.120
325.227	16.153	1359.984	1033.153
326.241	16.128	1358.884	1032.071
327.256	16.047	1358.640	1031.298
328.270	16.160	1357.327	1030.904
329.285	16.071	1356.470	1029.619
330.300	16.169	1355.381	1029.294
331.314	16.023	1354.947	1027.984
332.329	16.111	1353.755	1027.527
333.343	16.179	1352.560	1026.943
334.358	16.128	1352.239	1026.297
335.373	16.091	1351.464	1025.390
336.387	16.191	1350.298	1025.024
337.402	16.233	1349.790	1024.804
338.416	16.210	1349.274	1024.183
339.431	16.278	1348.327	1023.786
340.446	16.338	1347.568	1023.479
341.460	16.318	1346.667	1022.587
342.475	16.434	1345.352	1022.201
343.489	16.406	1344.820	1021.534
344.504	16.440	1343.910	1020.960
345.519	16.541	1342.859	1020.678
346.533	16.604	1341.670	1020.065
347.548	16.412	1341.097	1018.381
348.562	16.478	1340.371	1018.140
349.577	16.475	1339.894	1017.668
350.592	16.552	1338.451	1016.942
351.606	16.611	1337.387	1016.402
352.621	16.510	1336.514	1015.043
353.635	16.430	1335.546	1013.734
354.650	16.501	1334.452	1013.243
355.665	16.509	1333.619	1012.566
356.679	16.602	1332.438	1012.134
357.694	16.618	1331.564	1011.481
358.708	16.520	1330.588	1010.065
359.723	16.637	1329.635	1009.950
360.738	16.659	1328.261	1008.947
361.752	16.594	1327.530	1007.915
362.767	16.691	1326.075	1007.296
363.781	16.687	1325.521	1006.766
364.796	16.780	1324.730	1006.629
365.810	16.622	1324.337	1005.303
366.825	16.756	1323.127	1005.091
367.840	16.771	1322.573	1004.669
368.854	16.777	1321.777	1004.013
369.869	16.734	1321.423	1003.395
370.883	16.936	1320.703	1003.961
371.898	16.979	1319.394	1003.129
372.913	16.869	1318.785	1001.925
373.927	16.919	1317.813	1001.397
374.942	16.953	1317.129	1000.986
375.956	16.900	1316.308	999.960
376.971	16.936	1316.051	999.891
377.986	16.896	1315.190	998.911
379.000	16.907	1314.308	998.217
380.015	17.004	1313.272	997.917
381.029	17.064	1312.663	997.713
382.044	17.061	1312.417	997.420
383.059	17.079	1311.156	996.482
384.073	17.072	1310.340	995.732
385.088	17.099	1309.752	995.359
386.102	17.069	1309.201	994.671
387.117	17.211	1308.351	994.769
388.132	17.106	1307.849	993.689
389.146	17.103	1306.755	992.753
390.161	17.148	1305.595	992.046
391.175	17.204	1304.944	991.788
392.190	17.153	1304.353	990.953
393.205	17.166	1303.574	990.351
394.219	17.141	1302.512	989.312
395.234	17.242	1301.097	988.734
396.248	17.194	1300.063	987.581
397.263	17.302	1298.339	986.814
398.278	17.253	1297.190	985.570
399.292	17.204	1296.158	984.410
400.307	17.143	1295.570	983.529
401.321	17.095	1294.749	982.536
402.336	17.195	1293.460	982.053
403.350	17.256	1292.113	981.292
404.365	17.259	1290.951	980.343
405.380	17.247	1290.409	979.772
406.394	17.260	1289.807	979.306
407.409	17.158	1289.552	978.437
408.423	17.323	1287.993	978.120
409.438	17.328	1287.819	977.927
410.453	17.450	1287.023	977.938
411.467	17.402	1286.333	977.051
412.482	17.420	1285.795	976.658
413.496	17.603	1284.774	976.847
414.511	17.499	1283.942	975.534
415.526	17.425	1283.844	974.945
416.540	17.597	1283.025	975.224
417.555	17.510	1282.196	974.008
418.569	17.568	1281.587	973.794
419.584	17.641	1280.937	973.629
420.599	17.627	1280.055	972.791
421.613	93.810	1348.290	1460.158
422.628	91.879	1358.200	1460.277
