DTS Sentinel unit serial number:	SN413079Multiplexer serial number:	ORYXHardware model number:	OX4-SRSoftware version number:	ORYX F/W v4.00 Oryx Data Collector v3.7.2.0data status	okinstallation	princeton_trtdifferential loss correction	single-endedforward channel	channel 4reverse channel	N/Adate	2019/09/16time	07:49:35forward acquisition time	60.00reverse acquisition time	0.00gamma	496.2192k internal	0.2316k external	0.2316temperature offset calibration	0.9981default loss term (dB/km)	0.3790temperature slope calibration	1.0000multiplexer offset coefficient	1.0000multiplexer slope coefficient	1.0000fibre end	0.00T internal ref (°C)	28.16T ext. ref 1 (°C)	11.72T ext. ref 2 (°C)	24.72length (m)	temperature (°C)	Stokes	anti-Stokes-747.200	62.002	0.240	-0.242
-746.185	-200.000	-0.072	0.345
-745.171	424.607	-0.040	-0.088
-744.156	800.000	0.049	0.146
-743.142	-115.574	-0.061	-0.012
-742.127	-101.458	-0.309	-0.076
-741.112	-200.000	-0.057	0.000
-740.098	-97.191	0.410	-0.108
-739.083	-73.291	0.192	-0.071
-738.069	-85.665	-0.154	-0.048
-737.054	1.638	-0.203	-0.148
-736.039	-120.661	-0.138	0.024
-735.025	-200.000	0.034	-0.207
-734.010	16.825	0.112	-0.090
-732.996	32.924	-0.174	0.153
-731.981	-200.000	-0.017	-0.213
-730.966	-53.042	0.411	-0.191
-729.952	-200.000	-0.042	0.400
-728.937	-104.178	0.097	0.023
-727.923	-200.000	-0.016	0.084
-726.908	-53.664	-0.359	-0.166
-725.894	24.560	0.236	-0.197
-724.879	-68.393	-0.110	0.043
-723.864	-147.016	-0.393	-0.034
-722.850	800.000	0.098	-0.315
-721.835	-200.000	0.002	-0.112
-720.821	-123.360	-0.232	-0.037
-719.806	-107.526	-0.238	0.053
-718.791	137.202	-0.121	0.160
-717.777	-98.212	0.107	0.028
-716.762	-74.385	-0.198	-0.072
-715.748	-110.960	-0.401	-0.083
-714.733	-200.000	-0.002	0.160
-713.718	800.000	-0.040	-0.169
-712.704	117.339	-0.084	0.105
-711.689	-200.000	0.016	0.263
-710.675	-200.000	-0.033	-0.246
-709.660	-174.980	-0.089	0.003
-708.645	51.059	-0.206	0.197
-707.631	-101.163	-0.360	-0.089
-706.616	-54.631	-0.229	0.105
-705.602	248.205	-0.116	0.199
-704.587	800.000	0.079	-0.277
-703.572	223.106	0.147	-0.239
-702.558	303.873	0.120	-0.225
-701.543	61.770	0.166	-0.167
-700.529	518.010	-0.080	-0.189
-699.514	193.128	-0.144	-0.219
-698.499	-135.042	-0.222	-0.027
-697.485	800.000	0.025	0.090
-696.470	800.000	0.066	0.247
-695.456	474.884	-0.140	0.319
-694.441	-45.066	-0.172	-0.087
-693.426	-41.745	0.145	-0.075
-692.412	-101.656	0.223	0.055
-691.397	-101.227	0.282	0.070
-690.383	60.694	-0.108	0.108
-689.368	39.098	0.136	-0.123
-688.354	451.179	0.029	0.064
-687.339	-65.756	0.188	-0.076
-686.324	627.467	-0.078	0.198
-685.310	-38.943	-0.257	-0.137
-684.295	800.000	-0.022	0.068
-683.281	308.759	0.143	0.269
-682.266	44.917	-0.153	-0.142
-681.251	22.417	0.193	-0.159
-680.237	94.555	0.281	0.323
-679.222	19.293	-0.146	-0.118
-678.208	40.326	-0.166	0.151
-677.193	-109.288	-0.138	0.030
-676.178	711.552	-0.014	-0.036
-675.164	-66.917	-0.481	-0.192
-674.149	-45.008	0.203	-0.102
-673.135	360.312	-0.065	-0.132
-672.120	8.747	0.351	0.267
-671.105	800.000	-0.092	-0.358
-670.091	-67.440	0.137	-0.054
-669.076	35.118	-0.068	0.060
-668.062	-64.211	-0.111	-0.046
-667.047	412.080	-0.058	0.124
-666.032	491.828	-0.094	-0.217
-665.018	-20.040	-0.342	-0.213
-664.003	-107.214	-0.179	-0.040
-662.989	800.000	0.018	0.060
-661.974	-124.492	-0.304	-0.048
-660.959	452.487	0.132	0.295
-659.945	-158.926	0.049	-0.003
-658.930	72.533	-0.161	-0.170
-657.916	-118.391	-0.353	0.063
-656.901	-7.835	-0.140	-0.095
-655.886	-200.000	0.037	-0.368
-654.872	-200.000	-0.016	-0.207
-653.857	158.474	-0.191	-0.267
-652.843	-7.035	0.146	-0.100
-651.828	31.833	-0.119	-0.103
-650.814	616.408	0.113	-0.287
-649.799	-57.571	-0.222	-0.098
-648.784	39.678	-0.065	-0.059
-647.770	-200.000	-0.020	0.217
-646.755	-90.200	-0.174	-0.051
-645.741	219.409	0.013	0.021
-644.726	289.264	0.093	-0.171
-643.711	800.000	-0.063	-0.225
-642.697	-52.204	0.088	0.041
-641.682	-200.000	0.022	0.134
-640.668	184.772	-0.237	0.355
-639.653	66.719	0.175	0.179
-638.638	-200.000	-0.139	0.000
-637.624	5.252	0.102	-0.076
-636.609	-96.933	-0.308	-0.082
-635.595	-97.303	0.107	-0.028
-634.580	365.583	0.043	0.088
-633.565	1.345	0.376	0.272
-632.551	430.201	-0.061	-0.133
-631.536	-200.000	-0.021	0.304
-630.522	28.631	-0.061	-0.052
-629.507	559.606	0.086	-0.209
-628.492	-18.320	-0.129	-0.082
-627.478	-78.219	0.164	0.057
-626.463	-187.545	0.077	0.001
-625.449	-95.199	-0.121	0.033
-624.434	306.745	-0.050	0.094
-623.419	-88.689	-0.086	0.026
-622.405	-200.000	-0.030	0.203
-621.390	68.852	0.346	-0.358
-620.376	-127.821	0.179	0.026
-619.361	15.910	-0.251	-0.199
-618.346	-106.836	-0.197	0.044
-617.332	47.237	0.154	0.144
-616.317	256.206	0.026	0.044
-615.303	69.444	0.100	0.103
-614.288	210.988	0.078	-0.123
-613.273	176.831	0.213	-0.312
-612.259	131.435	0.081	-0.105
-611.244	41.534	0.076	-0.070
-610.230	-200.000	-0.005	0.100
-609.215	-180.833	0.093	-0.002
-608.201	-147.769	0.246	0.021
-607.186	10.852	-0.117	-0.090
-606.171	-146.849	0.279	-0.024
-605.157	22.099	-0.420	-0.345
-604.142	112.776	0.067	-0.082
-603.128	210.546	0.064	0.102
-602.113	781.254	-0.080	-0.222
-601.098	62.193	0.156	0.156
-600.084	356.015	-0.042	0.084
-599.069	72.738	-0.177	-0.186
-598.055	-170.018	0.157	0.006
-597.040	-56.275	-0.085	0.038
-596.025	192.858	0.126	-0.192
-595.011	-27.369	-0.176	-0.103
-593.996	196.318	0.153	-0.234
-592.982	15.913	-0.135	-0.107
-591.967	282.643	0.135	-0.243
-590.952	-28.013	-0.207	-0.121
-589.938	800.000	-0.070	-0.274
-588.923	57.758	-0.223	-0.220
-587.909	397.203	0.095	-0.199
-586.894	60.799	-0.139	0.139
-585.879	260.478	-0.199	-0.346
-584.865	-74.511	0.233	-0.085
-583.850	86.937	-0.258	0.287
-582.836	34.527	-0.132	0.116
-581.821	183.166	0.038	0.056
-580.806	156.354	-0.035	-0.049
-579.792	209.306	-0.098	-0.154
-578.777	158.687	0.209	-0.291
-577.763	-147.115	-0.371	0.032
-576.748	374.802	0.122	0.250
-575.733	800.000	0.028	-0.084
-574.719	312.667	-0.114	0.216
-573.704	185.975	-0.181	-0.270
-572.690	-200.000	0.041	-0.190
-571.675	-200.000	0.027	0.196
-570.661	74.696	-0.248	-0.263
-569.646	800.000	0.046	-0.181
-568.631	-130.622	0.235	0.032
-567.617	24.896	-0.118	-0.098
-566.602	-200.000	0.006	0.137
-565.588	-200.000	0.014	-0.201
-564.573	-155.179	0.145	0.010
-563.558	-59.104	-0.171	-0.074
-562.544	800.000	0.144	-0.433
-561.529	6.463	0.188	0.141
-560.515	800.000	-0.106	0.332
-559.500	-200.000	0.022	-0.290
-558.485	286.789	-0.141	-0.256
-557.471	83.346	-0.251	-0.275
-556.456	-125.161	-0.143	-0.022
-555.442	342.050	-0.245	0.481
-554.427	-60.490	-0.221	-0.094
-553.412	-200.000	-0.043	0.213
-552.398	800.000	-0.025	-0.110
-551.383	800.000	0.018	-0.072
-550.369	-74.707	0.283	0.102
-549.354	-200.000	0.055	0.325
-548.339	29.454	-0.068	-0.058
-547.325	-102.278	0.082	-0.020
-546.310	-165.031	0.302	0.014
-545.296	-88.384	-0.305	-0.092
-544.281	278.813	0.036	0.065
-543.266	490.359	-0.074	-0.171
-542.252	-107.015	-0.216	0.048
-541.237	-200.000	-0.002	0.097
-540.223	-200.000	0.035	0.352
-539.208	-85.079	-0.185	0.058
-538.193	142.641	0.082	0.110
-537.179	207.540	-0.074	0.116
-536.164	-101.070	-0.130	0.032
-535.150	-200.000	-0.001	0.309
-534.135	800.000	0.077	-0.276
-533.121	23.896	0.131	0.109
-532.106	800.000	0.047	-0.145
-531.091	272.799	0.072	0.128
-530.077	-10.908	0.445	0.295
-529.062	-158.042	-0.382	0.023
-528.048	4.890	-0.132	-0.097
-527.033	304.435	-0.130	-0.242
-526.018	-200.000	0.077	-0.356
-525.004	-193.006	-0.213	0.002
-523.989	-200.000	0.087	0.544
-522.975	337.007	0.077	-0.150
-521.960	-140.008	0.307	0.033
-520.945	-200.000	-0.067	0.343
-519.931	-200.000	-0.001	0.141
-518.916	-147.938	-0.266	-0.022
-517.902	23.698	0.151	0.124
-516.887	109.683	0.155	-0.187
-515.872	-14.416	0.246	0.159
-514.858	147.844	0.208	0.281
-513.843	800.000	-0.042	-0.136
-512.829	388.257	0.093	-0.194
-511.814	-150.332	-0.261	0.020
-510.799	147.102	-0.053	-0.072
-509.785	84.984	-0.145	0.160
-508.770	-55.566	0.125	0.056
-507.756	800.000	-0.032	0.121
-506.741	-84.784	0.337	0.106
-505.726	222.716	-0.157	0.254
-504.712	-119.604	0.304	0.053
-503.697	322.094	0.111	-0.212
-502.683	9.469	-0.108	0.082
-501.668	422.688	0.160	0.345
-500.653	-34.606	-0.401	-0.220
-499.639	208.486	0.080	-0.126
-498.624	-200.000	-0.006	0.168
-497.610	41.417	-0.297	0.269
-496.595	-4.722	-0.289	0.200
-495.581	-168.193	0.175	-0.007
-494.566	-200.000	0.032	-0.152
-493.551	-73.510	0.167	-0.061
-492.537	-200.000	-0.073	-0.605
-491.522	-40.499	0.095	-0.050
-490.508	-200.000	0.033	-0.437
-489.493	-200.000	-0.018	0.113
-488.478	-63.930	-0.093	0.038
-487.464	-200.000	-0.019	0.097
-486.449	-200.000	0.022	0.202
-485.435	-53.385	0.317	0.146
-484.420	800.000	0.086	0.352
-483.405	-32.374	-0.150	0.084
-482.391	105.348	-0.186	-0.220
-481.376	-200.000	0.009	-0.059
-480.362	-12.459	0.201	0.131
-479.347	-200.000	-0.062	0.471
-478.332	-200.000	-0.021	-0.122
-477.318	-80.877	0.094	-0.031
-476.303	12.737	-0.183	-0.142
-475.289	263.141	0.126	-0.219
-474.274	28.828	-0.289	-0.245
-473.259	293.124	0.060	0.110
-472.245	653.539	-0.187	0.480
-471.230	-93.011	-0.073	0.020
-470.216	-200.000	-0.043	0.256
-469.201	-200.000	0.033	-0.360
-468.186	4.764	0.059	-0.043
-467.172	166.531	0.075	-0.106
-466.157	-13.445	0.306	0.199
-465.143	382.975	0.269	-0.554
-464.128	800.000	0.056	-0.190
-463.113	-54.223	-0.316	0.144
-462.099	174.466	0.023	-0.033
-461.084	116.195	-0.161	0.198
-460.070	792.486	-0.090	0.247
-459.055	564.272	-0.101	0.246
-458.040	380.627	-0.130	-0.267
-457.026	124.627	-0.035	0.045
-456.011	-100.199	0.269	-0.067
-454.997	189.733	-0.234	0.352
-453.982	238.031	0.071	0.119
-452.968	-72.156	-0.148	0.055
-451.953	800.000	-0.137	-0.393
-450.938	-108.184	0.192	-0.042
-449.924	-57.714	0.154	-0.068
-448.909	-45.215	0.096	-0.048
-447.895	-200.000	0.041	-0.314
-446.880	273.471	-0.210	0.372
-445.865	800.000	-0.032	-0.125
-444.851	-70.254	-0.259	-0.099
-443.836	-10.997	0.130	0.086
-442.822	12.497	-0.148	0.114
-441.807	173.280	0.092	-0.133
-440.792	-200.000	0.000	-0.156
-439.778	-200.000	-0.002	-0.010
-438.763	369.631	0.212	-0.430
-437.749	-200.000	0.001	-0.073
-436.734	159.780	-0.152	-0.212
-435.719	350.788	-0.032	-0.062
-434.705	115.042	0.321	-0.392
-433.690	128.153	0.169	0.215
-432.676	-37.114	0.151	-0.081
-431.661	-77.979	0.483	-0.167
-430.646	-79.485	0.066	0.022
-429.632	562.450	0.160	0.388
-428.617	-116.636	0.262	-0.048
-427.603	-200.000	0.025	-0.215
-426.588	-69.050	0.349	-0.134
-425.573	-124.493	0.096	-0.015
-424.559	-44.176	-0.191	-0.096
-423.544	293.241	-0.161	0.294
-422.530	-200.000	0.007	0.133
-421.515	-109.032	0.315	-0.067
-420.500	680.588	0.089	-0.232
-419.486	47.906	-0.198	0.185
-418.471	-200.000	0.047	-0.259
-417.457	464.798	-0.134	0.301
-416.442	-102.956	-0.300	-0.071
-415.428	59.627	-0.288	-0.284
-414.413	166.753	-0.195	-0.277
-413.398	29.137	0.194	-0.165
-412.384	-115.104	-0.166	-0.031
-411.369	57.052	0.025	0.025
-410.355	-120.252	0.100	-0.017
-409.340	276.665	0.069	0.122
-408.325	56.075	-0.223	0.217
-407.311	-6.283	0.135	-0.092
-406.296	3.091	-0.114	0.083
-405.282	-200.000	-0.054	-0.294
-404.267	800.000	-0.100	0.281
-403.252	-96.667	-0.072	-0.019
-402.238	34.958	0.381	-0.333
-401.223	-158.119	0.253	-0.015
-400.209	800.000	-0.039	0.164
-399.194	656.123	0.051	-0.130
-398.179	-19.061	-0.137	-0.085
-397.165	-118.624	0.189	-0.033
-396.150	-200.000	-0.024	0.218
-395.136	-200.000	0.056	-0.321
-394.121	-36.885	-0.039	-0.021
-393.106	159.361	-0.041	0.057
-392.092	-200.000	-0.049	-0.260
-391.077	-79.376	0.141	0.048
-390.063	-200.000	-0.029	-0.334
-389.048	-159.335	-0.241	-0.014
-388.033	437.599	-0.072	-0.157
-387.019	-200.000	-0.030	-0.243
-386.004	-200.000	-0.017	0.399
-384.990	-200.000	-0.060	-0.433
-383.975	-159.907	0.048	-0.003
-382.960	-54.427	-0.120	0.054
-381.946	174.209	-0.068	-0.098
-380.931	87.082	-0.109	-0.121
-379.917	-14.966	0.150	0.096
-378.902	117.142	-0.211	0.259
-377.888	-55.990	0.154	0.069
-376.873	3.249	0.050	-0.036
-375.858	-105.907	-0.373	-0.084
-374.844	112.926	-0.109	-0.132
-373.829	-200.000	-0.008	-0.100
-372.815	800.000	-0.015	-0.059
-371.800	213.708	0.129	-0.204
-370.785	10.353	0.484	-0.367
-369.771	140.517	0.076	0.100
-368.756	-26.631	0.221	0.129
-367.742	264.047	0.132	0.228
-366.727	-75.558	-0.212	-0.075
-365.712	466.018	-0.075	-0.167
-364.698	-108.355	-0.173	0.037
-363.683	-162.544	-0.430	-0.021
-362.669	800.000	-0.057	-0.236
-361.654	16.464	-0.271	0.213
-360.639	591.985	-0.113	0.279
-359.625	800.000	0.041	-0.158
-358.610	800.000	0.044	-0.189
-357.596	800.000	-0.031	0.101
-356.581	74.409	0.122	0.127
-355.566	93.326	-0.406	0.459
-354.552	551.921	0.193	0.462
-353.537	-200.000	0.058	0.410
-352.523	-78.725	-0.155	-0.053
-351.508	-101.306	0.450	0.110
-350.493	304.341	0.066	-0.122
-349.479	182.959	-0.105	-0.154
-348.464	-10.068	-0.266	0.176
-347.450	697.184	0.084	-0.220
-346.435	138.311	0.087	0.114
-345.420	-122.809	0.480	-0.077
-344.406	-69.505	-0.256	0.098
-343.391	340.226	-0.075	0.147
-342.377	-200.000	0.024	-0.117
-341.362	-69.876	0.124	-0.047
-340.348	-200.000	0.031	0.135
-339.333	-23.748	-0.011	0.007
-338.318	-104.989	-0.343	-0.078
-337.304	800.000	0.117	-0.429
-336.289	-120.194	-0.293	-0.050
-335.275	-176.051	-0.249	0.007
-334.260	255.118	0.070	0.120
-333.245	196.965	0.120	0.183
-332.231	2.294	0.053	0.038
-331.216	127.937	-0.207	0.262
-330.202	-156.371	0.169	0.011
-329.187	-101.704	-0.268	-0.065
-328.172	-15.378	0.434	-0.277
-327.158	-200.000	0.001	-0.366
-326.143	6.002	-0.391	0.289
-325.129	617.688	-0.106	0.266
-324.114	-200.000	0.001	0.072
-323.099	-170.555	0.248	-0.009
-322.085	163.149	0.172	0.240
-321.070	1.809	0.212	-0.152
-320.056	800.000	0.056	0.227
-319.041	-71.794	0.307	0.114
-318.026	466.816	-0.027	-0.061
-317.012	800.000	-0.067	-0.263
-315.997	419.022	-0.065	0.139
-314.983	-98.577	0.090	0.023
-313.968	-200.000	-0.008	0.101
-312.953	-78.984	-0.168	-0.057
-311.939	63.840	-0.048	0.048
-310.924	239.041	0.078	0.129
-309.910	-29.792	0.344	-0.195
-308.895	800.000	-0.082	-0.264
-307.880	-5.214	-0.090	-0.062
-306.866	338.374	0.075	-0.145
-305.851	-110.456	0.211	-0.044
-304.837	-200.000	-0.016	0.120
-303.822	-200.000	0.038	0.306
-302.807	-180.151	-0.262	0.006
-301.793	-200.000	0.018	0.290
-300.778	-200.000	0.010	-0.050
-299.764	231.231	0.122	0.198
-298.749	26.422	0.182	0.151
-297.735	164.743	-0.082	0.116
-296.720	-141.426	-0.081	-0.008
-295.705	-77.398	0.244	-0.084
-294.691	-5.762	-0.196	0.134
-293.676	-200.000	0.013	-0.120
-292.662	229.180	0.084	-0.136
-291.647	-90.396	-0.154	-0.044
-290.632	-42.280	-0.261	-0.132
-289.618	-200.000	-0.018	-0.122
-288.603	-68.448	-0.112	-0.043
-287.589	254.429	0.215	0.366
-286.574	42.060	-0.215	0.194
-285.559	-24.192	-0.206	-0.122
-284.545	245.497	-0.076	-0.127
-283.530	800.000	0.099	0.277
-282.516	-17.659	0.284	0.177
-281.501	-154.899	-0.502	0.033
-280.486	-200.000	-0.020	0.114
-279.472	48.304	0.101	0.094
-278.457	-200.000	0.092	-0.436
-277.443	-200.000	-0.002	-0.226
-276.428	-7.144	0.095	0.064
-275.413	484.587	0.082	0.186
-274.399	692.578	0.057	-0.150
-273.384	-85.909	0.219	-0.067
-272.370	-200.000	-0.027	0.336
-271.355	-67.145	-0.206	-0.081
-270.340	-125.368	-0.291	-0.044
-269.326	273.604	-0.131	-0.230
-268.311	-200.000	-0.005	-0.052
-267.297	138.619	0.230	0.300
-266.282	-45.362	-0.234	0.115
-265.267	800.000	0.051	-0.214
-264.253	-166.181	0.110	0.005
-263.238	155.573	-0.102	0.139
-262.224	-9.727	-0.186	0.123
-261.209	234.635	0.028	0.046
-260.195	-147.477	0.172	0.014
-259.180	-42.805	0.199	0.101
-258.165	-118.265	-0.200	0.035
-257.151	539.756	0.058	-0.138
-256.136	-107.707	-0.066	0.014
-255.122	-41.438	-0.189	0.097
-254.107	105.051	-0.165	-0.194
-253.092	-20.845	0.388	0.236
-252.078	-200.000	0.005	-0.175
-251.063	-200.000	-0.034	0.291
-250.049	60.941	-0.156	-0.154
-249.034	-26.862	0.062	-0.036
-248.019	205.806	0.034	0.052
-247.005	-46.146	0.220	0.108
-245.990	-121.339	0.097	-0.016
-244.976	-200.000	0.004	0.275
-243.961	-200.000	0.012	0.186
-242.946	800.000	-0.127	0.427
-241.932	800.000	-0.125	-0.349
-240.917	-104.013	0.408	-0.094
-239.903	800.000	-0.042	-0.180
-238.888	-200.000	-0.040	-0.199
-237.873	-180.436	0.131	0.003
-236.859	11.173	0.098	-0.074
-235.844	-200.000	-0.063	0.485
-234.830	-37.463	0.245	-0.130
-233.815	-98.538	0.224	-0.057
-232.800	27.908	0.146	-0.122
-231.786	-55.250	0.110	0.049
-230.771	32.029	0.259	-0.222
-229.757	-166.350	-0.252	-0.011
-228.742	-200.000	0.013	0.122
-227.727	-25.338	0.359	0.211
-226.713	236.933	-0.058	0.096
-225.698	12.308	0.234	-0.179
-224.684	64.335	-0.198	-0.198
-223.669	27.002	0.062	-0.052
-222.655	403.091	-0.091	-0.190
-221.640	55.569	-0.060	0.058
-220.625	201.365	-0.193	-0.295
-219.611	-27.560	0.074	-0.043
-218.596	7.989	0.197	-0.146
-217.582	295.884	0.085	0.154
-216.567	50.793	-0.152	0.143
-215.552	-180.134	-0.232	-0.005
-214.538	-200.000	-0.017	-0.165
-213.523	-106.945	0.071	-0.016
-212.509	-200.000	0.017	-0.143
-211.494	420.031	-0.035	-0.073
-210.479	147.436	-0.235	-0.314
-209.465	-117.786	0.045	-0.008
-208.450	-200.000	0.034	0.473
-207.436	-200.000	-0.014	-0.135
-206.421	-85.408	-0.083	0.026
-205.406	4.594	0.164	0.119
-204.392	-129.013	-0.266	0.037
-203.377	-200.000	0.025	0.160
-202.363	399.671	-0.052	-0.109
-201.348	285.895	-0.091	0.163
-200.333	-46.040	0.198	-0.097
-199.319	401.284	0.195	0.405
-198.304	-200.000	0.036	-0.174
-197.290	44.894	-0.013	0.012
-196.275	-25.130	0.224	0.132
-195.260	14.146	-0.260	0.201
-194.246	100.555	0.142	-0.163
-193.231	-200.000	0.012	0.084
-192.217	177.598	-0.231	0.334
-191.202	512.492	0.045	0.104
-190.187	-92.275	-0.205	0.057
-189.173	-200.000	0.006	-0.282
-188.158	40.184	0.017	0.015
-187.144	56.207	0.170	0.163
-186.129	275.803	0.110	0.193
-185.114	-200.000	0.013	-0.223
-184.100	416.678	-0.138	0.291
-183.085	-12.791	0.062	0.040
-182.071	-200.000	0.037	0.166
-181.056	-200.000	0.047	-0.302
-180.042	232.346	0.096	0.155
-179.027	32.806	0.105	-0.090
-178.012	36.607	0.019	0.017
-176.998	-24.717	-0.109	-0.064
-175.983	-147.257	-0.208	-0.018
-174.969	174.722	-0.197	-0.282
-173.954	-200.000	0.017	0.258
-172.939	231.243	-0.099	0.160
-171.925	185.706	0.086	0.127
-170.910	-62.294	0.148	-0.061
-169.896	222.887	-0.104	0.165
-168.881	-30.352	-0.363	-0.204
-167.866	683.852	-0.091	-0.236
-166.852	-200.000	-0.027	0.291
-165.837	-153.742	0.172	-0.012
-164.823	-117.703	-0.370	-0.066
-163.808	-30.265	0.161	-0.091
-162.793	-200.000	0.053	0.487
-161.779	526.396	-0.122	0.284
-160.764	407.653	0.069	0.144
-159.750	59.227	0.113	-0.110
-158.735	28.447	0.094	0.079
-157.720	-200.000	-0.003	0.443
-156.706	13.017	0.099	-0.076
-155.691	-133.178	0.210	-0.026
-154.677	13.085	0.077	0.059
-153.662	78.271	0.222	-0.235
-152.647	800.000	0.027	0.081
-151.633	-143.642	-0.161	-0.015
-150.618	-21.138	0.248	-0.150
-149.604	-200.000	-0.008	0.430
-148.589	-94.036	-0.268	0.073
-147.574	-2.993	0.348	-0.240
-146.560	800.000	-0.046	-0.154
-145.545	-200.000	-0.017	-0.084
-144.531	602.466	-0.258	0.634
-143.516	152.670	-0.111	0.149
-142.502	-137.739	0.113	-0.013
-141.487	-200.000	-0.056	0.478
-140.472	103.419	0.133	0.155
-139.458	-19.808	0.353	-0.216
-138.443	166.432	-0.299	0.419
-137.429	151.522	0.168	0.226
-136.414	22.419	0.306	0.247
-135.399	396.733	-0.080	0.165
-134.385	346.986	-0.100	-0.195
-133.370	-27.510	-0.216	0.124
-132.356	800.000	-0.008	0.024
-131.341	90.859	0.140	-0.156
-130.326	-12.274	0.295	-0.191
-129.312	301.842	-0.049	0.090
-128.297	139.997	-0.139	-0.181
-127.283	727.642	0.039	-0.103
-126.268	-18.806	0.227	-0.140
-125.253	37.637	0.137	-0.120
-124.239	-11.063	-0.339	0.221
-123.224	133.758	-0.096	0.123
-122.210	71.562	-0.183	-0.188
-121.195	-200.000	-0.008	0.328
-120.180	-200.000	0.016	0.364
-119.166	-200.000	-0.017	-0.310
-118.151	-200.000	0.020	0.088
-117.137	242.849	-0.158	-0.262
-116.122	-150.277	0.210	-0.016
-115.107	206.986	-0.146	0.225
-114.093	800.000	0.023	-0.081
-113.078	9.705	-0.252	-0.189
-112.064	-200.000	0.012	0.108
-111.049	13.018	-0.308	-0.236
-110.034	-200.000	0.013	-0.070
-109.020	40.879	0.267	0.238
-108.005	360.538	-0.141	0.279
-106.991	454.999	0.083	-0.182
-105.976	-200.000	0.010	0.119
-104.962	201.156	0.331	0.504
-103.947	-94.444	-0.232	-0.063
-102.932	-200.000	0.010	0.144
-101.918	-88.274	0.121	0.036
-100.903	-145.583	0.199	0.018
-99.889	47.712	-0.231	-0.213
-98.874	126.526	-0.216	-0.271
-97.859	-118.663	0.045	0.008
-96.845	800.000	-0.032	-0.111
-95.830	-54.317	0.205	-0.092
-94.816	130.173	0.135	-0.171
-93.801	-9.188	-0.249	0.164
-92.786	279.150	0.060	0.106
-91.772	-182.763	0.093	0.002
-90.757	-113.789	-0.455	-0.087
-89.743	190.292	0.055	0.082
-88.728	26.826	-0.025	-0.021
-87.713	-117.043	-0.013	-0.002
-86.699	800.000	-0.066	-0.241
-85.684	800.000	-0.041	0.141
-84.670	-6.429	0.238	0.160
-83.655	-145.403	0.182	-0.016
-82.640	800.000	-0.113	0.347
-81.626	330.734	0.039	0.074
-80.611	162.294	-0.253	-0.351
-79.597	241.233	-0.066	-0.109
-78.582	-98.372	-0.263	0.066
-77.567	-200.000	0.050	0.324
-76.553	449.756	0.143	-0.310
-75.538	-181.306	-0.352	0.007
-74.524	-139.900	-0.207	0.022
-73.509	-137.288	-0.346	-0.039
-72.494	800.000	-0.051	-0.186
-71.480	-69.112	-0.188	0.071
-70.465	-200.000	0.066	-0.437
-69.451	-133.741	-0.429	0.053
-68.436	-145.525	0.214	-0.019
-67.422	-35.198	0.179	0.096
-66.407	800.000	0.061	-0.216
-65.392	14.846	-0.103	-0.079
-64.378	-200.000	0.069	0.310
-63.363	-79.305	0.356	-0.119
-62.349	-144.393	0.301	-0.028
-61.334	66.022	-1.032	-1.032
-60.319	161.741	0.419	0.578
-59.305	-200.000	-0.156	-0.911
-58.290	342.048	0.818	1.578
-57.276	648.681	0.624	1.575
-56.261	-200.000	110.422	599.556
-55.246	429.939	1512.408	3225.684
-54.232	140.930	2701.953	3521.130
-53.217	93.572	2336.784	2608.529
-52.203	34.433	2084.024	1793.389
-51.188	29.885	1999.303	1679.257
-50.173	28.490	1982.917	1652.868
-49.159	44.958	2041.076	1852.508
-48.144	44.914	2056.898	1866.394
-47.130	30.405	2015.552	1697.393
-46.115	28.203	2004.595	1668.052
-45.100	28.068	2001.852	1664.477
-44.086	28.060	1999.114	1662.067
-43.071	28.000	1996.794	1659.521
-42.057	27.987	1994.932	1657.790
-41.042	28.042	1993.215	1656.795
-40.027	28.063	1991.570	1655.554
-39.013	28.099	1989.088	1653.750
-37.998	28.170	1987.422	1652.943
-36.984	28.068	1985.585	1650.432
-35.969	28.073	1983.569	1648.734
-34.954	28.051	1982.102	1647.250
-33.940	28.054	1980.941	1646.242
-32.925	28.201	1979.025	1645.910
-31.911	28.119	1977.766	1644.065
-30.896	28.060	1976.134	1642.107
-29.881	28.130	1974.054	1640.946
-28.867	28.237	1972.940	1640.909
-27.852	28.251	1970.782	1639.179
-26.838	28.219	1969.160	1637.479
-25.823	28.187	1967.396	1635.659
-24.809	28.174	1965.694	1634.063
-23.794	28.119	1963.885	1632.004
-22.779	28.221	1961.734	1631.058
-21.765	28.220	1959.696	1629.290
-20.750	28.198	1958.166	1627.760
-19.736	28.177	1957.139	1626.657
-18.721	28.218	1955.658	1625.719
-17.706	28.184	1953.526	1623.581
-16.692	28.171	1952.139	1622.254
-15.677	28.202	1950.614	1621.200
-14.663	28.174	1948.895	1619.456
-13.648	28.248	1947.624	1618.989
-12.633	28.176	1946.649	1617.475
-11.619	28.191	1945.675	1616.740
-10.604	28.169	1943.913	1615.014
-9.590	28.191	1942.203	1613.728
-8.575	28.160	1941.437	1612.751
-7.560	28.190	1939.869	1611.644
-6.546	28.130	1938.678	1610.069
-5.531	28.115	1937.369	1608.784
-4.517	28.196	1935.980	1608.275
-3.502	28.163	1935.114	1607.205
-2.487	28.112	1934.149	1605.895
-1.473	28.239	1932.844	1605.857
-0.458	28.346	1927.990	1602.699
0.556	26.688	1908.996	1577.895
1.571	23.054	1891.481	1531.859
2.586	19.617	1915.819	1521.216
3.600	18.835	1952.571	1543.240
4.615	18.906	1947.048	1539.375
5.629	17.200	1853.999	1451.120
6.644	13.890	1747.318	1340.810
7.659	11.891	1715.996	1300.797
8.673	11.710	1713.224	1297.141
9.688	11.732	1711.303	1295.753
10.702	11.713	1710.205	1294.652
11.717	11.705	1706.067	1291.344
12.731	11.913	1704.703	1291.837
13.746	14.361	1709.460	1314.672
14.761	17.253	1715.581	1342.132
15.775	17.977	1715.672	1347.801
16.790	17.340	1712.829	1340.423
17.804	16.352	1709.155	1329.655
18.819	15.240	1706.315	1318.586
19.834	14.563	1703.872	1311.267
20.848	14.216	1701.831	1306.855
21.863	14.012	1700.380	1304.024
22.877	13.823	1698.028	1300.619
23.892	13.518	1697.005	1297.338
24.907	13.469	1695.871	1295.969
25.921	13.501	1694.671	1295.184
26.936	13.493	1693.940	1294.452
27.950	13.424	1693.326	1293.326
28.965	13.497	1692.763	1293.352
29.980	13.458	1691.978	1292.334
30.994	13.515	1691.007	1291.921
32.009	13.608	1689.355	1291.269
33.023	13.739	1688.231	1291.317
34.038	13.689	1687.116	1289.960
35.053	13.700	1686.219	1289.246
36.067	13.647	1685.210	1287.949
37.082	13.655	1683.609	1286.680
38.096	13.642	1682.885	1285.909
39.111	13.589	1682.621	1285.179
40.126	13.656	1681.336	1284.607
41.140	13.617	1680.002	1283.173
42.155	13.532	1678.666	1281.382
43.169	13.498	1677.387	1280.027
44.184	13.486	1675.730	1278.553
45.199	13.320	1675.180	1276.744
46.213	13.412	1673.805	1276.293
47.228	13.400	1672.708	1275.247
48.242	13.456	1671.740	1274.826
49.257	13.604	1669.911	1274.460
50.271	13.470	1669.184	1272.763
51.286	13.470	1667.985	1271.739
52.301	13.518	1666.817	1271.098
53.315	13.440	1665.133	1269.106
54.330	13.499	1663.176	1267.952
55.344	13.450	1661.891	1266.488
56.359	13.388	1660.804	1265.073
57.374	13.423	1659.485	1264.223
58.388	13.428	1658.703	1263.554
59.403	13.351	1657.565	1261.985
60.417	13.374	1656.001	1260.861
61.432	13.312	1654.675	1259.266
62.447	13.363	1653.818	1258.893
63.461	13.285	1652.463	1257.153
64.476	13.221	1651.262	1255.644
65.490	13.246	1650.484	1255.135
66.505	13.269	1648.456	1253.656
67.520	13.294	1647.782	1253.217
68.534	13.378	1646.331	1252.638
69.549	13.433	1645.677	1252.452
70.563	13.431	1643.934	1251.000
71.578	13.297	1643.365	1249.440
72.593	13.294	1642.381	1248.557
73.607	13.244	1640.871	1246.923
74.622	13.248	1639.944	1246.139
75.636	13.186	1639.438	1245.179
76.651	13.231	1637.959	1244.280
77.666	13.305	1637.151	1244.115
78.680	13.275	1636.657	1243.408
79.695	13.245	1635.781	1242.404
80.709	13.218	1635.078	1241.557
81.724	13.300	1633.833	1241.114
82.739	13.402	1632.664	1240.881
83.753	13.388	1632.347	1240.430
84.768	13.491	1631.056	1240.110
85.782	13.467	1630.459	1239.365
86.797	13.490	1630.375	1239.364
87.812	13.673	1628.607	1239.278
88.826	13.515	1627.266	1236.966
89.841	13.481	1626.052	1235.680
90.855	13.503	1625.164	1235.063
91.870	13.551	1624.045	1234.462
92.884	13.555	1623.143	1233.692
93.899	13.630	1621.887	1233.187
94.914	13.550	1620.914	1231.744
95.928	13.607	1619.561	1231.035
96.943	13.631	1618.531	1230.320
97.957	13.664	1617.007	1229.292
98.972	13.685	1615.224	1227.989
99.987	13.625	1613.749	1226.312
101.001	13.587	1612.109	1224.679
102.016	13.484	1610.595	1222.656
103.030	13.628	1609.121	1222.494
104.045	13.600	1608.259	1221.527
105.060	13.633	1606.623	1220.415
106.074	13.600	1605.166	1218.956
107.089	13.483	1604.000	1217.104
108.103	13.352	1602.701	1215.048
109.118	13.288	1601.083	1213.245
110.133	13.312	1599.604	1212.196
111.147	13.326	1597.878	1210.884
112.162	13.398	1596.981	1210.623
113.176	13.407	1595.421	1209.401
114.191	13.356	1594.355	1208.112
115.206	13.490	1592.780	1207.785
116.220	13.499	1591.211	1206.557
117.235	13.477	1590.415	1205.685
118.249	13.330	1589.336	1203.688
119.264	13.447	1587.824	1203.290
120.279	13.454	1586.087	1201.921
121.293	13.382	1584.986	1200.454
122.308	13.487	1583.343	1199.866
123.322	13.348	1581.788	1197.578
124.337	13.382	1580.835	1196.990
125.352	13.325	1580.118	1195.934
126.366	13.346	1578.316	1194.613
127.381	13.356	1576.936	1193.533
128.395	13.382	1575.523	1192.551
129.410	13.396	1574.089	1191.459
130.424	13.410	1573.067	1190.678
131.439	13.493	1571.585	1190.047
132.454	13.444	1570.429	1188.718
133.468	13.437	1569.344	1187.742
134.483	13.512	1567.216	1186.562
135.497	13.493	1566.026	1185.423
136.512	13.509	1564.585	1184.340
137.527	13.450	1563.753	1183.183
138.541	13.556	1561.583	1182.195
139.556	13.517	1560.600	1181.064
140.570	13.457	1559.034	1179.352
141.585	13.600	1557.845	1179.365
142.600	13.635	1556.481	1178.471
143.614	13.689	1555.572	1178.068
144.629	13.745	1554.468	1177.520
145.643	13.666	1553.143	1175.854
146.658	13.761	1551.485	1175.170
147.673	13.774	1549.847	1173.917
148.687	13.648	1548.586	1171.969
149.702	13.655	1546.909	1170.641
150.716	13.599	1544.981	1168.683
151.731	13.597	1544.114	1167.913
152.746	13.601	1543.149	1167.111
153.760	13.692	1541.112	1166.102
154.775	13.608	1540.424	1164.886
155.789	13.699	1538.983	1164.338
156.804	13.725	1537.749	1163.481
157.819	13.745	1536.260	1162.395
158.833	13.755	1535.387	1161.701
159.848	13.737	1534.286	1160.638
160.862	13.823	1533.025	1160.185
161.877	13.950	1531.394	1159.728
162.892	13.797	1530.694	1158.031
163.906	13.762	1529.353	1156.668
164.921	13.664	1528.068	1154.913
165.935	13.741	1527.066	1154.592
166.950	13.769	1525.825	1153.741
167.964	13.825	1524.253	1152.844
168.979	13.823	1523.491	1152.148
169.994	13.797	1522.415	1151.057
171.008	13.765	1521.152	1149.775
172.023	13.829	1520.422	1149.566
173.037	13.870	1519.074	1148.724
174.052	13.865	1517.931	1147.730
175.067	13.941	1516.837	1147.324
176.081	13.815	1515.982	1145.706
177.096	13.749	1514.346	1143.912
178.110	13.796	1513.039	1143.151
179.125	13.814	1512.117	1142.476
180.140	13.882	1510.793	1141.837
181.154	13.809	1509.942	1140.597
182.169	13.916	1508.840	1140.398
183.183	13.958	1507.656	1139.686
184.198	14.024	1506.461	1139.135
185.213	13.974	1505.571	1138.020
186.227	13.997	1504.793	1137.492
187.242	14.047	1503.362	1136.650
188.256	14.027	1502.681	1135.897
189.271	14.061	1501.438	1135.085
190.286	14.238	1499.671	1134.862
191.300	14.067	1499.290	1133.304
192.315	13.926	1497.358	1130.783
193.329	13.855	1496.050	1129.210
194.344	13.865	1494.848	1128.274
195.359	13.862	1494.192	1127.656
196.373	13.979	1492.883	1127.366
197.388	13.916	1492.421	1126.492
198.402	14.095	1491.178	1126.668
199.417	14.137	1489.937	1125.908
200.432	14.327	1488.776	1126.219
201.446	14.313	1487.588	1125.124
202.461	14.272	1486.848	1124.187
203.475	14.303	1485.595	1123.355
204.490	14.398	1484.565	1123.114
205.504	14.314	1483.320	1121.508
206.519	14.337	1482.031	1120.590
207.534	14.264	1480.771	1119.044
208.548	14.289	1479.765	1118.352
209.563	14.327	1478.889	1117.847
210.577	14.228	1477.763	1116.233
211.592	14.283	1477.082	1115.992
212.607	14.297	1476.449	1115.509
213.621	14.234	1476.092	1114.714
214.636	14.426	1474.547	1114.733
215.650	14.408	1473.595	1113.796
216.665	14.368	1472.842	1112.865
217.680	14.400	1471.818	1112.204
218.694	14.487	1471.044	1112.103
219.709	14.557	1470.275	1111.890
220.723	14.518	1469.212	1110.727
221.738	14.441	1468.066	1109.246
222.753	14.396	1467.863	1108.697
223.767	14.473	1466.293	1107.927
224.782	14.552	1465.385	1107.666
225.796	14.525	1464.512	1106.732
226.811	14.598	1463.480	1106.332
227.826	14.505	1462.989	1105.250
228.840	14.675	1461.323	1105.021
229.855	14.653	1460.663	1104.279
230.869	14.628	1459.590	1103.202
231.884	14.637	1458.739	1102.519
232.899	14.593	1457.671	1101.326
233.913	14.487	1456.540	1099.671
234.928	14.549	1455.173	1098.956
235.942	14.555	1454.227	1098.178
236.957	14.547	1452.943	1097.061
237.972	14.511	1452.083	1096.077
238.986	14.508	1450.515	1094.779
240.001	14.529	1450.028	1094.452
241.015	14.632	1448.506	1093.883
242.030	14.580	1447.400	1092.606
243.045	14.652	1446.647	1092.415
244.059	14.735	1445.704	1092.147
245.074	14.691	1444.617	1090.946
246.088	14.693	1444.047	1090.429
247.103	14.804	1443.016	1090.276
248.117	14.725	1442.422	1089.220
249.132	14.828	1441.356	1088.989
250.147	14.885	1440.942	1088.953
251.161	14.969	1440.335	1088.939
252.176	15.034	1439.997	1089.014
253.190	15.071	1438.830	1088.278
254.205	14.935	1438.524	1087.066
255.220	15.071	1437.307	1086.928
256.234	15.033	1436.828	1086.223
257.249	15.173	1435.356	1085.924
258.263	15.151	1434.733	1085.217
259.278	15.203	1433.612	1084.607
260.293	15.220	1432.534	1083.808
261.307	15.211	1431.849	1083.132
262.322	15.226	1431.001	1082.492
263.336	15.267	1430.458	1082.249
264.351	15.209	1429.561	1081.100
265.366	15.224	1428.579	1080.359
266.380	15.285	1427.531	1079.862
267.395	15.366	1426.089	1079.203
268.409	15.316	1425.865	1078.611
269.424	15.263	1424.631	1077.244
270.439	15.218	1423.842	1076.266
271.453	15.241	1422.507	1075.309
272.468	15.215	1421.791	1074.500
273.482	15.216	1420.992	1073.811
274.497	15.201	1419.905	1072.799
275.512	15.335	1418.814	1072.733
276.526	15.241	1418.414	1071.736
277.541	15.334	1417.193	1071.313
278.555	15.431	1416.089	1071.007
279.570	15.285	1415.370	1069.434
280.585	15.401	1414.622	1069.511
281.599	15.593	1413.474	1069.772
282.614	15.428	1412.732	1068.065
283.628	15.364	1412.096	1067.083
284.643	15.486	1410.288	1066.398
285.657	15.427	1409.532	1065.359
286.672	15.463	1408.382	1064.621
287.687	15.486	1407.678	1064.142
288.701	15.410	1406.372	1062.580
289.716	15.458	1405.939	1062.464
290.730	15.571	1404.601	1062.070
291.745	15.536	1403.756	1061.119
292.760	15.431	1403.338	1060.043
293.774	15.624	1402.067	1060.212
294.789	15.500	1400.700	1058.298
295.803	15.655	1400.283	1058.867
296.818	15.633	1399.707	1058.199
297.833	15.661	1398.331	1057.240
298.847	15.626	1397.466	1056.275
299.862	15.610	1396.700	1055.501
300.876	15.684	1395.406	1054.894
301.891	15.600	1394.670	1053.720
302.906	15.708	1393.796	1053.639
303.920	15.642	1393.296	1052.756
304.935	15.825	1392.478	1053.192
305.949	15.794	1391.828	1052.414
306.964	15.889	1390.969	1052.267
307.979	15.909	1389.718	1051.347
308.993	15.860	1388.698	1050.181
310.008	15.876	1387.935	1049.609
311.022	15.895	1386.937	1048.877
312.037	15.992	1385.581	1048.363
313.052	15.936	1384.785	1047.320
314.066	15.928	1384.128	1046.681
315.081	15.875	1382.806	1045.263
316.095	15.916	1381.776	1044.642
317.110	15.741	1381.028	1042.899
318.125	15.796	1379.591	1042.064
319.139	15.821	1379.005	1041.687
320.154	15.853	1378.193	1041.176
321.168	15.806	1377.021	1039.909
322.183	15.891	1376.140	1039.674
323.197	15.899	1374.822	1038.635
324.212	15.851	1374.449	1037.966
325.227	15.904	1373.432	1037.435
326.241	15.895	1372.634	1036.683
327.256	15.907	1371.569	1035.864
328.270	15.992	1370.977	1035.845
329.285	15.920	1370.167	1034.698
330.300	15.940	1369.251	1034.038
331.314	15.982	1368.184	1033.401
332.329	15.938	1367.320	1032.388
333.343	16.052	1365.986	1031.986
334.358	15.969	1365.253	1030.832
335.373	15.989	1364.690	1030.439
336.387	16.111	1363.673	1030.324
337.402	16.093	1363.124	1029.712
338.416	16.200	1362.031	1029.448
339.431	16.077	1362.005	1028.582
340.446	16.253	1360.780	1028.639
341.460	16.167	1360.026	1027.454
342.475	16.280	1358.957	1027.245
343.489	16.338	1358.028	1026.803
344.504	16.363	1357.448	1026.428
345.519	16.350	1356.335	1025.416
346.533	16.362	1355.333	1024.638
347.548	16.436	1354.542	1024.403
348.562	16.443	1353.883	1023.854
349.577	16.530	1352.740	1023.424
350.592	16.448	1351.843	1022.162
351.606	16.521	1351.015	1021.887
352.621	16.394	1349.896	1020.183
353.635	16.347	1348.779	1018.965
354.650	16.366	1348.116	1018.486
355.665	16.435	1347.059	1018.014
356.679	16.337	1346.261	1016.732
357.694	16.372	1345.220	1016.063
358.708	16.432	1344.037	1015.444
359.723	16.517	1342.859	1014.971
360.738	16.474	1342.386	1014.267
361.752	16.507	1340.871	1013.229
362.767	16.576	1339.402	1012.446
363.781	16.590	1338.587	1011.820
364.796	16.546	1338.120	1011.116
365.810	16.599	1337.519	1010.892
366.825	16.609	1336.919	1010.409
367.840	16.707	1335.793	1010.050
368.854	16.702	1335.241	1009.512
369.869	16.778	1334.826	1009.566
370.883	16.750	1334.332	1008.937
371.898	16.796	1333.235	1008.288
372.913	16.841	1331.965	1007.508
373.927	16.756	1331.334	1006.434
374.942	16.710	1330.874	1005.726
375.956	16.773	1330.179	1005.487
376.971	16.842	1328.959	1004.885
377.986	16.797	1328.358	1004.073
379.000	16.764	1327.642	1003.250
380.015	17.000	1326.255	1003.510
381.029	16.824	1326.228	1002.354
382.044	16.960	1325.154	1002.260
383.059	17.069	1324.480	1002.308
384.073	17.036	1324.192	1001.805
385.088	16.945	1323.672	1000.784
386.102	16.975	1322.683	1000.123
387.117	16.929	1322.028	999.270
388.132	17.022	1321.423	999.276
389.146	17.007	1320.030	998.042
390.161	16.916	1319.265	996.843
391.175	16.979	1318.540	996.577
392.190	16.958	1318.120	996.045
393.205	16.923	1316.679	994.666
394.219	17.047	1315.893	994.706
395.234	16.970	1314.632	993.219
396.248	17.147	1312.990	992.921
397.263	17.036	1312.134	991.542
398.278	17.098	1309.874	990.104
399.292	17.066	1309.583	989.612
400.307	17.060	1308.552	988.708
401.321	16.965	1307.744	987.458
402.336	16.959	1306.370	986.302
403.350	17.024	1305.392	985.851
404.365	17.075	1304.512	985.395
405.380	17.032	1303.636	984.400
406.394	17.123	1303.091	984.425
407.409	17.083	1302.588	983.729
408.423	17.198	1301.565	983.535
409.438	17.251	1301.248	983.514
410.453	17.239	1300.535	982.816
411.467	17.331	1299.409	982.410
412.482	17.339	1298.974	982.040
413.496	17.325	1298.270	981.340
414.511	17.388	1297.400	980.959
415.526	17.521	1296.396	980.881
416.540	17.535	1295.606	980.279
417.555	17.507	1295.016	979.581
418.569	17.502	1294.642	979.184
419.584	17.493	1294.325	978.804
420.599	17.523	1293.354	978.156
421.613	95.815	1356.234	1473.359
422.628	94.026	1365.350	1473.441
