DTS Sentinel unit serial number:	SN413079Multiplexer serial number:	ORYXHardware model number:	OX4-SRSoftware version number:	ORYX F/W v4.00 Oryx Data Collector v3.7.2.0data status	okinstallation	princeton_trtdifferential loss correction	single-endedforward channel	channel 4reverse channel	N/Adate	2019/09/16time	05:09:35forward acquisition time	60.00reverse acquisition time	0.00gamma	496.2192k internal	0.2321k external	0.2321temperature offset calibration	0.9982default loss term (dB/km)	0.3790temperature slope calibration	1.0000multiplexer offset coefficient	1.0000multiplexer slope coefficient	1.0000fibre end	0.00T internal ref (°C)	27.19T ext. ref 1 (°C)	11.02T ext. ref 2 (°C)	22.20length (m)	temperature (°C)	Stokes	anti-Stokes-747.200	800.000	-0.048	-0.164
-746.185	-12.520	-0.142	0.094
-745.171	143.465	0.117	0.158
-744.156	800.000	-0.211	0.664
-743.142	-56.319	-0.185	0.083
-742.127	214.318	0.044	0.071
-741.112	-34.031	0.245	-0.136
-740.098	-56.496	0.118	0.053
-739.083	-63.616	-0.096	-0.040
-738.069	117.136	-0.114	0.142
-737.054	428.734	0.073	0.159
-736.039	2.457	0.066	0.048
-735.025	-24.984	0.172	0.103
-734.010	-125.865	0.211	0.032
-732.996	-200.000	-0.244	-0.000
-731.981	-27.343	0.188	0.110
-730.966	-200.000	-0.033	0.157
-729.952	-99.532	0.266	-0.068
-728.937	617.790	0.041	-0.104
-727.923	-200.000	0.019	-0.168
-726.908	-159.209	0.237	-0.013
-725.894	14.726	0.210	-0.165
-724.879	410.188	-0.148	-0.318
-723.864	-200.000	-0.019	-0.162
-722.850	-200.000	-0.027	-0.375
-721.835	-200.000	0.009	0.067
-720.821	-20.786	-0.250	0.155
-719.806	127.133	0.218	0.280
-718.791	-106.689	-0.438	0.098
-717.777	405.822	0.098	0.209
-716.762	-200.000	0.018	-0.090
-715.748	800.000	-0.122	-0.370
-714.733	-122.918	0.068	0.011
-713.718	800.000	-0.072	-0.251
-712.704	322.200	-0.194	-0.373
-711.689	-200.000	-0.008	-0.056
-710.675	-200.000	0.025	0.218
-709.660	-60.122	-0.261	-0.113
-708.645	-200.000	0.002	-0.235
-707.631	-86.029	-0.295	-0.092
-706.616	675.395	-0.027	0.071
-705.602	-8.236	0.041	-0.028
-704.587	479.719	-0.077	-0.176
-703.572	717.452	0.119	0.318
-702.558	-127.361	0.425	0.062
-701.543	-86.976	0.179	0.055
-700.529	-35.558	-0.121	0.066
-699.514	-200.000	-0.028	-0.186
-698.499	800.000	-0.036	0.117
-697.485	770.661	-0.007	-0.018
-696.470	-57.507	0.310	0.137
-695.456	-200.000	-0.030	0.154
-694.441	223.855	-0.167	0.271
-693.426	-30.180	-0.052	-0.030
-692.412	43.284	0.152	0.140
-691.397	-200.000	-0.084	0.000
-690.383	226.638	-0.197	-0.322
-689.368	-19.212	0.104	-0.065
-688.354	40.457	0.175	0.159
-687.339	42.326	0.136	-0.125
-686.324	-200.000	-0.025	-0.330
-685.310	-120.688	-0.388	0.066
-684.295	327.765	-0.087	0.169
-683.281	-200.000	0.063	0.442
-682.266	-131.200	0.039	-0.005
-681.251	800.000	-0.068	0.271
-680.237	-167.914	-0.077	-0.003
-679.222	-200.000	0.014	-0.196
-678.208	661.669	-0.088	-0.228
-677.193	-177.262	-0.271	-0.007
-676.178	49.541	0.307	0.292
-675.164	-55.639	-0.187	0.084
-674.149	-61.471	0.420	0.178
-673.135	-32.386	-0.184	-0.103
-672.120	163.801	0.190	-0.270
-671.105	-89.802	0.151	-0.044
-670.091	-31.392	0.072	0.041
-669.076	-140.274	-0.261	-0.028
-668.062	-200.000	-0.043	-0.296
-667.047	800.000	0.122	-0.397
-666.032	88.123	0.068	0.076
-665.018	750.160	0.096	0.261
-664.003	174.887	0.064	-0.094
-662.989	79.574	-0.196	0.212
-661.974	-125.527	-0.129	0.020
-660.959	-84.887	0.262	-0.083
-659.945	327.720	-0.050	0.096
-658.930	-193.617	-0.389	-0.003
-657.916	8.693	0.144	-0.109
-656.901	-178.117	0.550	0.013
-655.886	800.000	-0.088	-0.285
-654.872	800.000	0.069	-0.216
-653.857	104.328	0.184	-0.218
-652.843	-200.000	0.013	-0.190
-651.828	199.960	-0.300	-0.464
-650.814	242.818	0.175	-0.295
-649.799	223.635	0.139	-0.227
-648.784	240.655	0.102	0.171
-647.770	-166.241	0.208	-0.009
-646.755	145.173	-0.052	0.070
-645.741	63.193	0.059	-0.060
-644.726	293.146	0.095	-0.174
-643.711	-88.002	-0.270	-0.082
-642.697	348.948	0.062	-0.123
-641.682	131.339	-0.095	-0.123
-640.668	-200.000	0.001	-0.215
-639.653	748.172	-0.106	-0.288
-638.638	-200.000	-0.030	0.207
-637.624	42.523	-0.101	0.093
-636.609	25.738	0.168	0.141
-635.595	-113.449	-0.275	-0.054
-634.580	611.975	0.113	0.285
-633.565	714.652	0.110	0.293
-632.551	-15.752	0.145	-0.093
-631.536	114.510	-0.097	0.119
-630.522	-43.149	0.146	-0.074
-629.507	69.237	-0.129	0.134
-628.492	800.000	0.079	0.248
-627.478	-4.010	0.150	0.105
-626.463	-20.915	-0.098	-0.061
-625.449	-99.070	0.195	-0.050
-624.434	100.682	-0.253	0.296
-623.419	-47.914	0.089	-0.043
-622.405	-55.664	-0.140	0.063
-621.390	13.600	-0.180	0.141
-620.376	66.213	0.073	-0.075
-619.361	-36.556	0.125	-0.068
-618.346	-200.000	-0.013	-0.103
-617.332	294.297	0.194	-0.357
-616.317	-200.000	-0.004	-0.121
-615.303	243.034	-0.124	0.208
-614.288	337.555	0.157	-0.307
-613.273	-47.933	-0.288	0.140
-612.259	-73.506	-0.192	0.070
-611.244	-145.850	-0.122	0.011
-610.230	-44.049	0.164	-0.083
-609.215	-24.931	0.036	-0.022
-608.201	523.813	-0.118	0.279
-607.186	10.496	0.281	-0.215
-606.171	-95.594	-0.290	0.078
-605.157	800.000	0.067	0.250
-604.142	800.000	-0.061	-0.240
-603.128	400.758	-0.174	-0.367
-602.113	-200.000	0.007	0.064
-601.098	-81.173	0.242	0.080
-600.084	603.249	-0.099	-0.247
-599.069	800.000	-0.094	-0.303
-598.055	-12.279	0.203	0.134
-597.040	4.203	0.005	0.004
-596.025	60.014	-0.177	0.176
-595.011	278.075	-0.136	0.243
-593.996	-200.000	0.027	0.201
-592.982	187.325	-0.179	-0.268
-591.967	-80.995	0.174	0.058
-590.952	-5.688	0.049	-0.034
-589.938	47.942	-0.083	0.078
-588.923	73.062	0.161	0.169
-587.909	-78.623	0.276	0.095
-586.894	-32.481	0.055	0.031
-585.879	800.000	-0.056	0.172
-584.865	-28.286	-0.135	0.078
-583.850	119.138	0.080	0.100
-582.836	-200.000	0.051	-0.257
-581.821	-200.000	0.059	-0.418
-580.806	28.836	0.047	-0.040
-579.792	-49.927	-0.276	-0.132
-578.777	-200.000	0.034	0.236
-577.763	-68.828	-0.180	-0.070
-576.748	-98.167	0.185	-0.048
-575.733	288.776	0.185	0.337
-574.719	-200.000	0.004	-0.391
-573.704	800.000	-0.066	-0.270
-572.690	416.884	-0.096	0.206
-571.675	-14.034	-0.040	-0.026
-570.661	-40.044	0.185	-0.097
-569.646	-108.611	0.095	-0.021
-568.631	752.737	0.093	0.252
-567.617	64.305	-0.121	-0.122
-566.602	800.000	-0.062	-0.209
-565.588	-2.243	-0.236	0.166
-564.573	189.464	-0.152	0.228
-563.558	-200.000	0.004	0.042
-562.544	-90.088	0.163	0.048
-561.529	-159.087	-0.247	-0.014
-560.515	20.031	0.056	0.045
-559.500	-200.000	0.026	0.151
-558.485	-57.036	0.265	0.117
-557.471	-200.000	0.042	0.239
-556.456	24.377	0.121	0.100
-555.442	226.855	-0.160	0.261
-554.427	216.540	0.072	-0.115
-553.412	-65.991	0.091	-0.036
-552.398	-55.601	-0.464	0.208
-551.383	-200.000	-0.011	0.052
-550.369	-43.582	0.124	-0.063
-549.354	-164.308	-0.101	0.005
-548.339	95.978	-0.197	-0.226
-547.325	-23.041	-0.029	0.018
-546.310	-58.572	-0.169	-0.073
-545.296	410.206	-0.046	0.097
-544.281	800.000	-0.010	-0.030
-543.266	399.900	0.132	0.278
-542.252	-101.398	0.215	-0.052
-541.237	800.000	-0.111	0.320
-540.223	-22.836	0.407	0.247
-539.208	105.909	0.150	-0.178
-538.193	-99.804	-0.347	-0.087
-537.179	50.375	0.115	0.109
-536.164	52.078	0.190	-0.182
-535.150	-153.546	-0.202	-0.014
-534.135	800.000	-0.012	-0.042
-533.121	251.175	-0.162	0.276
-532.106	-70.122	0.172	-0.066
-531.091	106.659	-0.086	0.102
-530.077	258.380	0.072	0.123
-529.062	124.551	-0.078	0.098
-528.048	-82.499	-0.287	0.093
-527.033	-63.524	0.086	-0.036
-526.018	-50.084	0.433	0.205
-525.004	-200.000	-0.018	0.189
-523.989	-110.516	-0.144	-0.030
-522.975	-36.816	-0.336	-0.181
-521.960	-69.363	0.253	0.097
-520.945	325.559	0.069	0.132
-519.931	65.925	0.210	-0.213
-518.916	800.000	-0.032	-0.107
-517.902	193.873	0.032	0.049
-516.887	366.687	-0.166	0.336
-515.872	98.144	0.179	0.207
-514.858	-200.000	-0.002	-0.354
-513.843	-150.487	0.173	-0.013
-512.829	168.743	-0.162	-0.231
-511.814	14.920	0.072	-0.056
-510.799	-167.878	-0.051	-0.002
-509.785	-200.000	-0.056	-0.295
-508.770	-200.000	-0.000	0.054
-507.756	160.919	0.198	0.277
-506.741	-113.169	-0.353	0.070
-505.726	-5.482	-0.104	0.072
-504.712	393.522	0.071	-0.148
-503.697	-67.340	0.185	-0.073
-502.683	-200.000	-0.021	0.170
-501.668	408.490	0.052	0.109
-500.653	-72.465	-0.257	0.095
-499.639	-200.000	-0.011	0.102
-498.624	-91.830	-0.223	-0.063
-497.610	-44.009	-0.192	0.097
-496.595	53.845	-0.195	0.188
-495.581	-200.000	-0.004	0.199
-494.566	-62.683	0.023	-0.010
-493.551	29.602	0.202	-0.172
-492.537	289.386	0.132	0.240
-491.522	32.717	-0.118	-0.103
-490.508	69.424	-0.275	-0.283
-489.493	-158.458	0.316	0.018
-488.478	-80.131	0.272	-0.091
-487.464	120.877	0.191	-0.238
-486.449	351.105	-0.046	-0.090
-485.435	-70.462	-0.107	0.041
-484.420	369.688	-0.137	-0.277
-483.405	-39.843	0.071	0.037
-482.391	-45.605	0.242	-0.120
-481.376	-80.851	-0.217	-0.072
-480.362	-200.000	0.037	0.231
-479.347	-200.000	-0.006	0.143
-478.332	-143.868	0.026	-0.002
-477.318	-127.766	-0.152	-0.022
-476.303	322.043	-0.059	-0.112
-475.289	-200.000	0.004	-0.071
-474.274	-50.628	-0.306	-0.144
-473.259	-200.000	0.102	0.475
-472.245	-200.000	-0.030	-0.201
-471.230	800.000	0.031	-0.090
-470.216	79.355	-0.075	0.080
-469.201	98.123	0.262	0.302
-468.186	-175.197	0.388	0.011
-467.172	800.000	-0.025	-0.072
-466.157	-200.000	-0.064	0.285
-465.143	-200.000	0.034	0.247
-464.128	800.000	0.078	-0.242
-463.113	-44.189	-0.221	-0.111
-462.099	-60.058	0.258	0.110
-461.084	-157.747	0.041	0.002
-460.070	-115.166	0.170	-0.032
-459.055	227.064	-0.121	-0.197
-458.040	-58.649	-0.096	0.041
-457.026	-200.000	0.030	0.144
-456.011	-200.000	0.013	-0.121
-454.997	-160.908	0.179	-0.009
-453.982	-199.626	0.098	0.001
-452.968	214.986	-0.095	0.151
-451.953	-158.701	0.172	0.010
-450.938	-134.882	0.089	0.011
-449.924	-173.990	-0.330	0.010
-448.909	-200.000	-0.006	-0.099
-447.895	-200.000	0.052	0.244
-446.880	382.149	-0.061	-0.126
-445.865	-60.178	-0.189	0.081
-444.851	243.867	0.163	0.273
-443.836	272.528	-0.087	0.154
-442.822	-34.476	-0.240	0.131
-441.807	-125.640	-0.262	0.040
-440.792	84.069	-0.206	0.225
-439.778	-71.427	0.226	-0.085
-438.763	14.629	-0.060	0.047
-437.749	233.679	0.193	0.317
-436.734	18.692	-0.111	-0.089
-435.719	90.514	-0.045	-0.050
-434.705	-200.000	-0.059	0.312
-433.690	93.354	0.110	0.124
-432.676	800.000	0.087	-0.312
-431.661	463.005	-0.017	0.038
-430.646	170.212	0.069	0.099
-429.632	-200.000	0.076	0.450
-428.617	800.000	0.031	0.133
-427.603	372.556	0.043	0.087
-426.588	-200.000	0.004	-0.135
-425.573	116.538	-0.067	-0.082
-424.559	800.000	0.127	-0.464
-423.544	-79.039	0.332	0.112
-422.530	-200.000	-0.030	0.186
-421.515	-27.609	-0.274	0.159
-420.500	800.000	-0.042	0.177
-419.486	-200.000	0.050	0.286
-418.471	-61.215	-0.168	0.071
-417.457	-200.000	-0.011	0.246
-416.442	-138.971	-0.321	-0.035
-415.428	-84.831	-0.145	-0.045
-414.413	148.221	-0.159	-0.214
-413.398	-84.110	-0.116	-0.037
-412.384	255.766	0.104	0.178
-411.369	800.000	-0.081	0.346
-410.355	56.288	-0.080	0.077
-409.340	-7.871	0.364	-0.245
-408.325	-149.964	-0.184	-0.014
-407.311	-200.000	0.004	-0.129
-406.296	-40.756	-0.193	-0.100
-405.282	-200.000	-0.017	0.101
-404.267	31.982	-0.122	-0.105
-403.252	-47.629	0.431	-0.209
-402.238	59.747	0.176	0.173
-401.223	-200.000	-0.002	-0.342
-400.209	800.000	0.086	-0.280
-399.194	800.000	0.077	-0.245
-398.179	225.708	-0.222	-0.359
-397.165	-60.090	-0.359	-0.153
-396.150	98.363	-0.142	0.163
-395.136	-21.358	0.155	0.094
-394.121	-120.231	0.139	0.024
-393.106	800.000	0.022	-0.064
-392.092	176.014	0.069	0.100
-391.077	69.462	-0.326	-0.335
-390.063	800.000	-0.032	-0.114
-389.048	608.317	-0.098	0.243
-388.033	-165.063	-0.307	-0.014
-387.019	-187.649	0.252	0.003
-386.004	-200.000	-0.003	0.064
-384.990	86.523	-0.024	-0.026
-383.975	694.066	-0.029	0.077
-382.960	-1.676	0.050	-0.035
-381.946	800.000	-0.083	-0.244
-380.931	-128.799	-0.203	0.029
-379.917	-174.490	-0.377	-0.011
-378.902	573.809	0.174	-0.423
-377.888	-66.811	-0.302	0.119
-376.873	800.000	-0.053	-0.185
-375.858	145.281	-0.210	-0.280
-374.844	30.950	0.197	0.169
-373.829	304.892	0.087	0.161
-372.815	-200.000	0.020	-0.253
-371.800	33.327	0.222	0.192
-370.785	-64.755	0.419	0.169
-369.771	800.000	0.052	-0.170
-368.756	-200.000	-0.078	0.415
-367.742	-92.542	-0.134	0.038
-366.727	244.469	0.067	0.112
-365.712	179.825	0.097	0.142
-364.698	67.181	-0.308	-0.313
-363.683	800.000	-0.085	-0.263
-362.669	800.000	0.012	-0.034
-361.654	-24.365	0.282	0.168
-360.639	3.268	-0.222	0.161
-359.625	800.000	-0.073	-0.317
-358.610	-6.924	-0.245	0.166
-357.596	154.815	-0.079	0.108
-356.581	-200.000	0.027	-0.184
-355.566	-200.000	0.042	-0.240
-354.552	186.449	0.087	0.129
-353.537	-200.000	0.024	0.353
-352.523	-200.000	0.032	-0.286
-351.508	-91.170	-0.301	0.086
-350.493	-73.452	-0.209	0.076
-349.479	21.018	-0.316	0.255
-348.464	231.874	-0.026	0.043
-347.450	-200.000	-0.050	-0.261
-346.435	278.213	-0.084	-0.148
-345.420	-120.234	0.198	-0.034
-344.406	515.508	-0.047	0.110
-343.391	454.923	-0.019	-0.041
-342.377	-133.938	0.106	0.013
-341.362	148.467	0.056	0.076
-340.348	-161.965	0.016	0.001
-339.333	-200.000	-0.028	-0.126
-338.318	-78.731	0.167	0.057
-337.304	800.000	0.032	0.107
-336.289	-5.009	-0.277	-0.190
-335.275	128.596	-0.184	0.233
-334.260	-50.143	-0.151	0.071
-333.245	-17.218	0.160	-0.100
-332.231	490.697	-0.132	-0.300
-331.216	-200.000	-0.058	0.290
-330.202	-200.000	-0.054	0.270
-329.187	142.894	0.145	0.191
-328.172	-32.785	-0.170	-0.094
-327.158	227.402	0.160	0.258
-326.143	-30.899	0.175	0.098
-325.129	-49.462	0.016	-0.008
-324.114	-90.024	0.223	0.065
-323.099	800.000	-0.080	-0.288
-322.085	-200.000	0.052	-0.243
-321.070	-35.769	0.260	-0.140
-320.056	563.008	-0.099	-0.238
-319.041	-55.131	-0.060	-0.027
-318.026	-40.418	0.154	-0.079
-317.012	716.253	0.052	0.137
-315.997	-44.170	0.330	-0.165
-314.983	239.771	0.129	0.214
-313.968	105.356	0.031	-0.037
-312.953	-101.001	0.195	-0.048
-311.939	-18.231	0.189	0.117
-310.924	-22.033	0.125	-0.076
-309.910	-158.778	0.270	-0.015
-308.895	-94.895	0.219	-0.059
-307.880	162.150	0.069	-0.096
-306.866	800.000	-0.024	-0.099
-305.851	800.000	-0.030	-0.114
-304.837	-76.280	-0.098	0.034
-303.822	-26.972	-0.394	-0.228
-302.807	-89.327	0.241	0.071
-301.793	-18.091	-0.084	0.052
-300.778	-6.015	-0.008	-0.006
-299.764	84.347	-0.056	-0.061
-298.749	-106.450	0.086	-0.019
-297.735	-200.000	0.043	0.238
-296.720	72.221	-0.201	0.207
-295.705	800.000	-0.051	0.174
-294.691	99.192	-0.032	-0.037
-293.676	112.787	0.099	-0.119
-292.662	-108.640	0.345	0.074
-291.647	16.907	-0.267	-0.210
-290.632	218.277	-0.339	-0.538
-289.618	-200.000	0.025	0.115
-288.603	191.460	0.085	0.126
-287.589	171.071	0.128	0.182
-286.574	-54.761	-0.512	0.230
-285.559	58.367	-0.069	-0.067
-284.545	-96.603	0.090	-0.024
-283.530	49.136	-0.061	0.057
-282.516	382.091	-0.131	-0.267
-281.501	79.383	0.070	-0.075
-280.486	317.852	0.016	-0.031
-279.472	-139.022	-0.238	-0.026
-278.457	-79.857	-0.135	0.045
-277.443	59.685	0.266	-0.261
-276.428	25.935	-0.221	0.183
-275.413	-1.313	-0.263	-0.184
-274.399	-200.000	-0.070	0.374
-273.384	-200.000	0.012	-0.218
-272.370	32.531	-0.117	0.100
-271.355	-200.000	0.015	-0.194
-270.340	-25.222	0.144	-0.085
-269.326	-200.000	-0.059	-0.433
-268.311	143.345	0.287	0.378
-267.297	-200.000	-0.031	0.270
-266.282	96.297	0.151	-0.171
-265.267	-97.052	0.198	-0.051
-264.253	-60.994	-0.202	0.085
-263.238	-200.000	0.043	0.191
-262.224	211.236	-0.134	-0.209
-261.209	800.000	0.044	0.131
-260.195	-78.306	0.140	0.048
-259.180	-200.000	-0.013	0.261
-258.165	95.093	0.075	0.085
-257.151	75.506	0.217	-0.227
-256.136	21.755	-0.063	0.051
-255.122	-200.000	-0.002	-0.119
-254.107	73.853	-0.134	-0.139
-253.092	111.088	0.164	-0.196
-252.078	166.001	-0.199	0.280
-251.063	526.385	0.062	0.144
-250.049	-65.506	-0.056	-0.022
-249.034	109.632	-0.177	-0.211
-248.019	-73.861	0.162	-0.058
-247.005	-134.223	-0.373	-0.045
-245.990	101.462	-0.187	-0.215
-244.976	-44.482	0.087	-0.043
-243.961	800.000	0.091	-0.273
-242.946	-41.441	0.346	-0.176
-241.932	-200.000	-0.000	-0.073
-240.917	-102.771	-0.064	0.015
-239.903	525.456	-0.019	0.044
-238.888	-120.454	-0.212	-0.036
-237.873	-140.200	0.179	-0.019
-236.859	643.027	0.084	0.212
-235.844	-95.519	0.325	-0.086
-234.830	-101.991	0.158	0.038
-233.815	-200.000	0.038	0.300
-232.800	21.777	0.160	0.129
-231.786	596.962	0.057	-0.139
-230.771	-200.000	-0.187	-0.001
-229.757	54.294	0.124	0.118
-228.742	154.781	0.026	-0.035
-227.727	156.087	0.015	0.020
-226.713	410.620	-0.151	-0.316
-225.698	423.977	-0.061	0.130
-224.684	-200.000	-0.002	-0.495
-223.669	-187.143	0.270	-0.004
-222.655	-62.194	-0.049	0.020
-221.640	-116.293	0.025	-0.005
-220.625	800.000	-0.105	0.356
-219.611	286.780	-0.018	-0.032
-218.596	-200.000	-0.011	0.320
-217.582	414.940	-0.054	-0.114
-216.567	224.786	0.027	-0.043
-215.552	8.796	-0.273	-0.203
-214.538	-200.000	0.013	0.367
-213.523	-166.787	-0.129	-0.005
-212.509	-200.000	0.015	0.130
-211.494	-200.000	0.017	0.108
-210.479	-133.951	0.149	-0.018
-209.465	233.418	0.075	0.123
-208.450	-68.972	-0.179	0.068
-207.436	-200.000	-0.029	0.149
-206.421	800.000	-0.050	-0.189
-205.406	20.041	0.144	-0.115
-204.392	-95.507	0.272	-0.072
-203.377	-200.000	-0.013	-0.082
-202.363	-101.422	0.268	0.065
-201.348	75.882	0.181	0.189
-200.333	-159.159	-0.259	0.014
-199.319	-200.000	0.028	-0.277
-198.304	-182.980	0.238	0.004
-197.290	8.190	-0.028	0.021
-196.275	-146.716	0.133	-0.011
-195.260	41.570	0.119	0.107
-194.246	172.558	0.085	-0.120
-193.231	69.606	0.255	-0.260
-192.217	47.885	0.118	-0.109
-191.202	-200.000	0.013	-0.131
-190.187	-57.983	0.409	-0.176
-189.173	440.136	0.096	-0.208
-188.158	-142.151	0.081	0.008
-187.144	-197.739	0.164	-0.001
-186.129	44.274	0.170	0.154
-185.114	800.000	-0.119	0.327
-184.100	419.614	0.102	-0.216
-183.085	12.279	0.241	0.184
-182.071	-200.000	0.030	0.213
-181.056	184.772	-0.036	-0.052
-180.042	410.380	0.101	0.211
-179.027	243.060	0.031	0.051
-178.012	47.480	-0.078	-0.072
-176.998	-8.407	-0.292	-0.194
-175.983	84.444	0.012	-0.013
-174.969	-59.311	-0.242	0.103
-173.954	98.274	0.037	-0.042
-172.939	-148.005	-0.131	0.011
-171.925	800.000	0.069	-0.264
-170.910	-200.000	-0.032	-0.265
-169.896	331.658	0.139	-0.264
-168.881	-145.530	-0.180	-0.016
-167.866	138.378	0.194	-0.252
-166.852	-41.374	-0.203	-0.103
-165.837	-200.000	0.043	0.245
-164.823	-200.000	-0.021	-0.123
-163.808	429.390	0.060	0.128
-162.793	-64.398	-0.261	0.105
-161.779	184.814	0.129	-0.189
-160.764	219.879	-0.255	-0.404
-159.750	18.151	0.068	-0.053
-158.735	-100.182	0.238	0.058
-157.720	-97.114	-0.133	0.034
-156.706	-140.466	0.344	-0.035
-155.691	-200.000	0.021	0.180
-154.677	748.562	-0.102	-0.270
-153.662	-77.886	-0.298	0.102
-152.647	-200.000	-0.013	-0.158
-151.633	800.000	-0.113	-0.333
-150.618	168.044	0.050	-0.070
-149.604	-200.000	-0.008	0.078
-148.589	-94.722	-0.157	-0.042
-147.574	-152.995	0.153	-0.011
-146.560	-86.374	-0.231	0.070
-145.545	-146.762	-0.166	-0.014
-144.531	-48.332	-0.229	-0.109
-143.516	800.000	0.045	0.190
-142.502	-180.903	-0.243	-0.005
-141.487	-200.000	0.034	0.347
-140.472	800.000	0.060	-0.165
-139.458	-113.346	0.332	-0.064
-138.443	562.966	0.056	-0.134
-137.429	196.273	-0.155	-0.234
-136.414	-79.715	-0.114	0.038
-135.399	-105.312	0.296	0.067
-134.385	-41.080	-0.014	0.007
-133.370	129.005	0.095	-0.120
-132.356	-110.860	0.352	-0.072
-131.341	13.076	0.266	-0.203
-130.326	235.625	-0.016	-0.026
-129.312	394.497	-0.166	0.341
-128.297	800.000	-0.083	-0.290
-127.283	800.000	0.082	0.313
-126.268	10.427	0.213	-0.160
-125.253	-78.896	0.385	-0.129
-124.239	-165.869	-0.022	0.001
-123.224	634.766	-0.218	-0.547
-122.210	800.000	0.109	-0.371
-121.195	800.000	-0.012	0.033
-120.180	-125.661	-0.211	-0.032
-119.166	645.969	-0.047	-0.118
-118.151	535.679	0.071	-0.167
-117.137	-185.271	0.227	0.003
-116.122	-120.947	-0.143	0.024
-115.107	62.282	-0.209	-0.206
-114.093	-194.956	0.046	0.000
-113.078	213.624	-0.069	0.108
-112.064	-91.507	0.364	-0.102
-111.049	-200.000	0.016	0.088
-110.034	13.975	0.076	-0.058
-109.020	-30.434	-0.185	0.104
-108.005	32.865	0.024	0.021
-106.991	12.218	-0.275	0.209
-105.976	160.084	0.040	0.055
-104.962	-3.146	-0.305	-0.210
-103.947	77.116	-0.106	-0.111
-102.932	131.295	0.258	0.327
-101.918	561.570	-0.233	-0.554
-100.903	-200.000	-0.006	-0.209
-99.889	-51.252	0.244	-0.113
-98.874	-83.189	0.141	0.045
-97.859	69.966	0.041	-0.041
-96.845	-93.645	-0.270	-0.073
-95.830	-43.674	0.371	0.184
-94.816	-146.112	-0.342	0.030
-93.801	1.633	0.237	-0.168
-92.786	-16.903	0.261	0.163
-91.772	-200.000	0.028	0.254
-90.757	-89.000	-0.078	0.023
-89.743	99.950	-0.236	-0.270
-88.728	-45.046	0.014	-0.007
-87.713	800.000	-0.090	-0.325
-86.699	-200.000	-0.019	0.215
-85.684	-200.000	0.056	0.259
-84.670	-126.180	0.047	-0.007
-83.655	-200.000	-0.005	0.096
-82.640	52.902	-0.200	-0.189
-81.626	800.000	-0.051	0.158
-80.611	59.176	-0.090	0.087
-79.597	17.747	-0.078	0.061
-78.582	-68.301	-0.144	0.055
-77.567	-130.455	-0.069	0.009
-76.553	-108.791	-0.122	-0.026
-75.538	366.412	0.100	-0.198
-74.524	668.261	-0.086	0.220
-73.509	-131.560	-0.349	0.045
-72.494	-4.428	-0.190	0.129
-71.480	-39.274	-0.116	-0.060
-70.465	-53.726	-0.152	-0.068
-69.451	-88.396	-0.188	0.055
-68.436	-29.090	-0.109	0.061
-67.422	-200.000	0.076	-0.385
-66.407	92.758	-0.236	-0.262
-65.392	609.704	0.053	0.130
-64.378	133.265	-0.231	-0.293
-63.363	-200.000	-0.000	-0.035
-62.349	-200.000	0.039	0.209
-61.334	76.814	-1.122	-1.172
-60.319	41.776	0.492	0.439
-59.305	800.000	-0.469	-1.307
-58.290	280.898	0.462	0.814
-57.276	227.867	0.695	1.113
-56.261	-200.000	114.648	646.111
-55.246	462.247	1511.210	3317.604
-54.232	143.837	2688.000	3524.858
-53.217	93.345	2326.611	2589.516
-52.203	33.578	2074.402	1773.343
-51.188	28.915	1989.136	1658.445
-50.173	27.503	1972.112	1631.545
-49.159	45.852	2029.846	1846.479
-48.144	44.730	2045.355	1850.323
-47.130	29.447	2005.371	1676.553
-46.115	27.163	1994.532	1646.751
-45.100	27.129	1992.030	1644.316
-44.086	27.117	1989.589	1642.127
-43.071	27.026	1986.735	1638.884
-42.057	27.002	1985.086	1637.245
-41.042	27.047	1983.231	1636.052
-40.027	26.961	1981.475	1633.767
-39.013	27.043	1978.814	1632.246
-37.998	27.039	1977.611	1631.152
-36.984	27.043	1976.128	1629.899
-35.969	27.083	1973.804	1628.278
-34.954	27.127	1972.016	1627.136
-33.940	27.177	1970.728	1626.456
-32.925	27.140	1968.759	1624.428
-31.911	27.177	1967.067	1623.306
-30.896	27.140	1965.609	1621.707
-29.881	27.191	1963.674	1620.496
-28.867	27.168	1962.624	1619.366
-27.852	27.251	1960.312	1618.132
-26.838	27.234	1959.093	1616.908
-25.823	27.229	1957.285	1615.310
-24.809	27.247	1955.575	1613.988
-23.794	27.214	1953.586	1611.996
-22.779	27.221	1952.152	1610.808
-21.765	27.257	1949.695	1609.033
-20.750	27.333	1948.135	1608.355
-19.736	27.292	1946.489	1606.569
-18.721	27.266	1945.220	1605.228
-17.706	27.224	1943.618	1603.478
-16.692	27.164	1942.016	1601.561
-15.677	27.203	1940.487	1600.581
-14.663	27.211	1939.136	1599.473
-13.648	27.203	1937.922	1598.339
-12.633	27.253	1936.182	1597.274
-11.619	27.185	1935.267	1595.864
-10.604	27.123	1933.979	1594.188
-9.590	27.177	1932.940	1593.742
-8.575	27.197	1930.975	1592.234
-7.560	27.242	1929.383	1591.260
-6.546	27.262	1927.992	1590.216
-5.531	27.286	1926.990	1589.543
-4.517	27.206	1925.951	1587.924
-3.502	27.165	1925.063	1586.767
-2.487	27.229	1923.201	1585.726
-1.473	27.235	1922.667	1585.281
-0.458	27.188	1917.778	1580.773
0.556	25.423	1898.042	1554.360
1.571	21.443	1879.854	1505.155
2.586	17.825	1902.662	1491.709
3.600	16.954	1937.806	1511.364
4.615	17.044	1932.596	1507.966
5.629	15.799	1840.245	1425.242
6.644	12.910	1737.011	1322.040
7.659	11.223	1706.564	1285.456
8.673	11.043	1703.502	1281.622
9.688	11.074	1702.552	1281.034
10.702	10.973	1700.594	1278.658
11.717	10.999	1697.108	1276.126
12.731	11.279	1694.959	1276.590
13.746	13.241	1699.604	1295.362
14.761	16.260	1705.571	1323.501
15.775	17.667	1707.325	1335.783
16.790	17.396	1704.771	1331.543
17.804	16.314	1701.111	1320.111
18.819	15.353	1697.896	1309.997
19.834	14.594	1695.780	1302.331
20.848	14.274	1693.970	1298.330
21.863	13.972	1692.655	1294.854
22.877	13.860	1690.784	1292.435
23.892	13.612	1689.684	1289.553
24.907	13.438	1688.761	1287.383
25.921	13.452	1687.265	1286.231
26.936	13.433	1686.219	1285.174
27.950	13.456	1685.282	1284.529
28.965	13.530	1685.028	1284.790
29.980	13.576	1684.053	1284.292
30.994	13.580	1682.805	1283.254
32.009	13.741	1681.515	1283.404
33.023	13.666	1681.221	1282.488
34.038	13.673	1679.729	1281.290
35.053	13.617	1678.827	1280.057
36.067	13.657	1677.238	1279.036
37.082	13.561	1676.336	1277.498
38.096	13.479	1675.668	1276.243
39.111	13.579	1674.533	1276.033
40.126	13.639	1673.505	1275.606
41.140	13.668	1672.182	1274.701
42.155	13.521	1671.116	1272.649
43.169	13.431	1669.858	1270.887
44.184	13.347	1668.700	1269.250
45.199	13.322	1667.774	1268.242
46.213	13.387	1665.894	1267.195
47.228	13.437	1664.682	1266.547
48.242	13.498	1663.305	1265.851
49.257	13.488	1662.274	1264.879
50.271	13.531	1661.358	1264.397
51.286	13.427	1659.779	1262.292
52.301	13.516	1658.681	1262.023
53.315	13.553	1657.419	1261.237
54.330	13.545	1655.887	1259.896
55.344	13.405	1654.012	1257.297
56.359	13.469	1652.673	1256.653
57.374	13.424	1651.296	1255.152
58.388	13.468	1650.226	1254.557
59.403	13.430	1649.061	1253.272
60.417	13.323	1647.877	1251.458
61.432	13.352	1646.344	1250.400
62.447	13.391	1644.931	1249.510
63.461	13.380	1644.553	1249.029
64.476	13.399	1643.153	1247.999
65.490	13.289	1642.184	1246.325
66.505	13.245	1640.926	1244.930
67.520	13.309	1639.758	1244.416
68.534	13.359	1638.604	1243.804
69.549	13.344	1638.070	1243.176
70.563	13.347	1636.528	1241.915
71.578	13.362	1634.949	1240.724
72.593	13.275	1634.026	1239.258
73.607	13.281	1632.896	1238.333
74.622	13.223	1632.270	1237.321
75.636	13.211	1630.964	1236.128
76.651	13.250	1630.141	1235.686
77.666	13.202	1629.824	1234.981
78.680	13.277	1628.372	1234.333
79.695	13.263	1627.971	1233.813
80.709	13.329	1626.611	1233.167
81.724	13.322	1625.643	1232.270
82.739	13.362	1625.259	1232.170
83.753	13.388	1624.099	1231.372
84.768	13.499	1623.000	1231.254
85.782	13.518	1622.689	1231.050
86.797	13.540	1621.825	1230.452
87.812	13.586	1620.764	1229.878
88.826	13.542	1619.101	1228.182
89.841	13.510	1618.069	1227.054
90.855	13.559	1616.890	1226.413
91.870	13.497	1615.903	1225.096
92.884	13.604	1615.091	1225.167
93.899	13.644	1613.942	1224.480
94.914	13.580	1613.178	1223.320
95.928	13.627	1612.185	1222.804
96.943	13.616	1610.797	1221.561
97.957	13.621	1609.210	1220.285
98.972	13.601	1607.265	1218.560
99.987	13.550	1605.896	1217.034
101.001	13.564	1604.350	1215.862
102.016	13.594	1602.799	1214.797
103.030	13.517	1601.256	1212.959
104.045	13.559	1600.430	1212.530
105.060	13.588	1598.627	1211.270
106.074	13.514	1597.026	1209.409
107.089	13.408	1595.501	1207.375
108.103	13.375	1593.936	1205.841
109.118	13.336	1592.864	1204.640
110.133	13.336	1591.777	1203.709
111.147	13.330	1589.790	1202.063
112.162	13.323	1588.335	1200.799
113.176	13.367	1587.035	1200.035
114.191	13.401	1585.507	1199.016
115.206	13.386	1584.597	1198.118
116.220	13.436	1582.743	1196.970
117.235	13.420	1581.951	1196.151
118.249	13.378	1580.151	1194.380
119.264	13.400	1578.820	1193.423
120.279	13.463	1577.516	1192.787
121.293	13.412	1575.598	1190.864
122.308	13.335	1574.558	1189.418
123.322	13.362	1573.084	1188.395
124.337	13.313	1571.459	1186.708
125.352	13.298	1570.289	1185.616
126.366	13.341	1569.142	1184.951
127.381	13.258	1568.310	1183.625
128.395	13.247	1567.037	1182.478
129.410	13.249	1565.412	1181.161
130.424	13.346	1563.924	1180.632
131.439	13.339	1562.441	1179.357
132.454	13.356	1561.346	1178.541
133.468	13.362	1560.095	1177.541
134.483	13.371	1558.719	1176.459
135.497	13.451	1557.034	1175.651
136.512	13.452	1555.897	1174.699
137.527	13.451	1553.832	1173.028
138.541	13.447	1552.795	1172.115
139.556	13.505	1551.757	1171.633
140.570	13.487	1550.277	1170.290
141.585	13.514	1548.852	1169.299
142.600	13.645	1547.338	1168.977
143.614	13.678	1546.041	1168.127
144.629	13.727	1545.105	1167.657
145.643	13.680	1544.132	1166.494
146.658	13.786	1542.374	1165.803
147.673	13.769	1540.919	1164.482
148.687	13.724	1539.147	1162.727
149.702	13.614	1538.065	1161.034
150.716	13.590	1536.360	1159.473
151.731	13.579	1535.130	1158.371
152.746	13.574	1533.686	1157.140
153.760	13.529	1532.706	1155.985
154.775	13.630	1531.264	1155.499
155.789	13.647	1529.946	1154.523
156.804	13.715	1528.515	1153.813
157.819	13.776	1527.131	1153.089
158.833	13.734	1526.556	1152.264
159.848	13.786	1525.044	1151.376
160.862	13.806	1524.049	1150.663
161.877	13.844	1522.692	1149.798
162.892	13.752	1521.990	1148.535
163.906	13.735	1520.411	1147.125
164.921	13.659	1519.096	1145.505
165.935	13.674	1518.141	1144.786
166.950	13.660	1516.959	1143.698
167.964	13.734	1515.791	1143.228
168.979	13.719	1515.558	1142.841
169.994	13.785	1514.104	1142.101
171.008	13.752	1512.883	1140.855
172.023	13.830	1511.652	1140.356
173.037	13.793	1510.868	1139.411
174.052	13.886	1509.841	1139.172
175.067	13.917	1508.905	1138.578
176.081	13.920	1506.948	1137.023
177.096	13.927	1505.873	1136.160
178.110	13.757	1504.206	1133.637
179.125	13.725	1503.327	1132.660
180.140	13.775	1502.395	1132.196
181.154	13.888	1501.361	1132.086
182.169	13.907	1500.116	1131.182
183.183	13.871	1499.096	1130.066
184.198	13.992	1497.985	1129.950
185.213	14.023	1496.726	1129.114
186.227	14.034	1495.759	1128.356
187.242	14.086	1494.496	1127.659
188.256	14.061	1493.245	1126.441
189.271	14.006	1492.663	1125.530
190.286	14.066	1491.300	1124.808
191.300	14.086	1490.394	1124.165
192.315	13.841	1489.162	1121.479
193.329	13.809	1487.625	1120.009
194.344	13.789	1486.706	1119.079
195.359	13.818	1485.424	1118.213
196.373	13.887	1484.571	1117.938
197.388	13.958	1483.658	1117.627
198.402	14.086	1482.104	1117.216
199.417	14.142	1481.129	1116.760
200.432	14.154	1480.479	1116.253
201.446	14.278	1479.371	1116.149
202.461	14.282	1478.468	1115.394
203.475	14.282	1477.071	1114.245
204.490	14.406	1475.553	1113.831
205.504	14.306	1474.807	1112.498
206.519	14.232	1474.245	1111.483
207.534	14.211	1472.899	1110.229
208.548	14.217	1471.390	1109.034
209.563	14.223	1470.103	1108.005
210.577	14.305	1469.532	1108.024
211.592	14.339	1468.042	1107.029
212.607	14.281	1468.077	1106.571
213.621	14.379	1467.101	1106.386
214.636	14.387	1466.174	1105.643
215.650	14.331	1465.250	1104.477
216.665	14.403	1464.253	1104.105
217.680	14.403	1463.789	1103.657
218.694	14.554	1462.762	1103.787
219.709	14.449	1462.443	1102.752
220.723	14.499	1461.099	1101.972
221.738	14.438	1460.188	1100.782
222.753	14.525	1458.917	1100.302
223.767	14.492	1458.341	1099.549
224.782	14.470	1457.085	1098.360
225.796	14.587	1455.830	1098.092
226.811	14.565	1455.533	1097.621
227.826	14.624	1454.983	1097.501
228.840	14.600	1453.703	1096.276
229.855	14.554	1452.927	1095.299
230.869	14.528	1452.032	1094.356
231.884	14.657	1450.824	1094.191
232.899	14.536	1449.440	1092.260
233.913	14.568	1448.540	1091.692
234.928	14.503	1447.392	1090.303
235.942	14.462	1446.413	1089.202
236.957	14.561	1444.881	1088.604
237.972	14.624	1443.445	1087.836
238.986	14.599	1442.527	1086.884
240.001	14.494	1442.167	1085.833
241.015	14.502	1441.262	1085.107
242.030	14.618	1439.468	1084.415
243.045	14.546	1439.021	1083.516
244.059	14.695	1437.840	1083.494
245.074	14.727	1437.259	1083.168
246.088	14.817	1436.016	1082.721
247.103	14.721	1435.491	1081.607
248.117	14.799	1434.521	1081.281
249.132	14.856	1433.794	1081.007
250.147	14.884	1433.423	1080.811
251.161	14.911	1432.696	1080.347
252.176	15.043	1431.989	1080.567
253.190	15.112	1431.163	1080.292
254.205	15.093	1430.125	1079.292
255.220	15.165	1429.115	1078.899
256.234	15.149	1428.267	1078.060
257.249	15.109	1427.884	1077.417
258.263	15.102	1427.144	1076.723
259.278	15.220	1425.728	1076.315
260.293	15.224	1424.844	1075.578
261.307	15.236	1424.002	1074.925
262.322	15.321	1422.980	1074.600
263.336	15.228	1422.770	1073.751
264.351	15.254	1421.284	1072.701
265.366	15.302	1420.301	1072.169
266.380	15.331	1419.665	1071.780
267.395	15.367	1418.713	1071.200
268.409	15.375	1418.099	1070.691
269.424	15.294	1416.718	1069.039
270.439	15.317	1415.675	1068.300
271.453	15.305	1414.658	1067.364
272.468	15.258	1413.936	1066.428
273.482	15.193	1413.437	1065.542
274.497	15.295	1412.417	1065.328
275.512	15.179	1411.933	1064.130
276.526	15.314	1410.498	1063.810
277.541	15.343	1409.482	1063.136
278.555	15.358	1408.538	1062.422
279.570	15.367	1407.972	1061.963
280.585	15.411	1406.827	1061.281
281.599	15.415	1406.292	1060.808
282.614	15.443	1405.107	1059.998
283.628	15.438	1404.213	1059.200
284.643	15.483	1402.714	1058.256
285.657	15.426	1401.404	1056.818
286.672	15.493	1400.491	1056.458
287.687	15.497	1400.148	1056.128
288.701	15.465	1399.412	1055.280
289.716	15.461	1398.439	1054.427
290.730	15.495	1397.286	1053.677
291.745	15.565	1396.146	1053.165
292.760	15.546	1395.257	1052.279
293.774	15.577	1394.403	1051.738
294.789	15.634	1393.032	1050.969
295.803	15.687	1392.717	1050.966
296.818	15.689	1391.253	1049.783
297.833	15.619	1390.818	1048.922
298.847	15.725	1389.550	1048.536
299.862	15.594	1388.379	1046.743
300.876	15.703	1387.841	1046.923
301.891	15.594	1387.200	1045.671
302.906	15.788	1385.827	1045.746
303.920	15.769	1385.588	1045.359
304.935	15.786	1384.762	1044.746
305.949	15.677	1384.165	1043.528
306.964	15.837	1382.920	1043.490
307.979	15.840	1382.332	1042.972
308.993	15.908	1381.196	1042.446
310.008	15.858	1380.276	1041.348
311.022	15.986	1379.249	1041.269
312.037	15.991	1378.424	1040.590
313.052	15.904	1377.179	1039.017
314.066	15.968	1376.196	1038.578
315.081	15.847	1375.718	1037.378
316.095	15.859	1374.123	1036.157
317.110	15.883	1372.746	1035.178
318.125	15.806	1372.409	1034.357
319.139	15.823	1371.321	1033.554
320.154	15.826	1370.384	1032.774
321.168	15.880	1369.412	1032.278
322.183	15.907	1368.239	1031.467
323.197	15.790	1367.474	1030.085
324.212	15.805	1366.536	1029.382
325.227	15.928	1365.437	1029.210
326.241	15.969	1364.741	1028.849
327.256	15.967	1363.936	1028.134
328.270	16.026	1362.845	1027.585
329.285	15.987	1362.295	1026.841
330.300	15.984	1361.216	1025.915
331.314	16.023	1360.187	1025.286
332.329	16.000	1359.772	1024.747
333.343	16.007	1358.580	1023.798
334.358	15.994	1357.712	1022.975
335.373	16.020	1356.853	1022.395
336.387	16.223	1355.559	1022.559
337.402	16.129	1355.576	1021.911
338.416	16.161	1354.830	1021.454
339.431	16.160	1354.309	1020.961
340.446	16.181	1353.250	1020.201
341.460	16.249	1352.348	1019.844
342.475	16.278	1351.442	1019.242
343.489	16.334	1350.865	1019.059
344.504	16.287	1350.132	1018.131
345.519	16.358	1349.393	1017.911
346.533	16.428	1348.036	1017.222
347.548	16.487	1347.032	1016.724
348.562	16.414	1346.723	1015.966
349.577	16.450	1345.798	1015.391
350.592	16.463	1344.775	1014.610
351.606	16.381	1344.062	1013.488
352.621	16.437	1342.576	1012.614
353.635	16.324	1341.652	1011.154
354.650	16.325	1340.967	1010.552
355.665	16.380	1339.880	1009.970
356.679	16.371	1338.288	1008.630
357.694	16.428	1337.590	1008.354
358.708	16.456	1336.479	1007.596
359.723	16.425	1335.662	1006.705
360.738	16.566	1334.297	1006.424
361.752	16.484	1333.358	1005.142
362.767	16.575	1331.991	1004.563
363.781	16.541	1331.293	1003.742
364.796	16.499	1330.968	1003.163
365.810	16.626	1330.148	1003.208
366.825	16.583	1329.702	1002.530
367.840	16.724	1328.615	1002.454
368.854	16.679	1328.033	1001.662
369.869	16.792	1327.475	1001.818
370.883	16.772	1326.707	1001.031
371.898	16.792	1326.027	1000.551
372.913	16.718	1325.335	999.504
373.927	16.844	1324.036	999.177
374.942	16.773	1323.530	998.288
375.956	16.820	1322.798	997.923
376.971	16.879	1321.948	997.541
377.986	16.632	1321.647	995.775
379.000	16.823	1320.363	995.840
380.015	16.828	1319.422	995.074
381.029	16.890	1318.842	994.909
382.044	16.917	1317.811	994.205
383.059	17.011	1317.061	994.102
384.073	17.022	1316.767	993.855
385.088	16.988	1316.049	993.026
386.102	16.995	1315.083	992.247
387.117	17.094	1314.516	992.311
388.132	17.044	1313.990	991.538
389.146	16.924	1313.004	990.004
390.161	16.912	1312.200	989.240
391.175	16.983	1311.352	988.926
392.190	16.984	1310.670	988.332
393.205	16.981	1309.782	987.554
394.219	17.102	1308.535	987.233
395.234	17.114	1307.495	986.432
396.248	17.063	1305.992	984.913
397.263	16.925	1305.135	983.377
398.278	16.966	1303.807	982.529
399.292	17.113	1302.128	982.029
400.307	17.037	1301.291	980.867
401.321	17.060	1300.374	980.222
402.336	16.985	1299.403	978.971
403.350	17.007	1298.421	978.275
404.365	17.009	1297.683	977.641
405.380	17.121	1296.210	977.090
406.394	17.102	1295.995	976.735
407.409	17.157	1295.351	976.479
408.423	17.082	1294.647	975.427
409.438	17.216	1293.846	975.510
410.453	17.284	1292.614	974.885
411.467	17.242	1292.535	974.499
412.482	17.277	1292.038	974.236
413.496	17.312	1291.153	973.680
414.511	17.280	1290.596	972.991
415.526	17.455	1289.593	973.154
416.540	17.446	1289.183	972.706
417.555	17.550	1288.381	972.609
418.569	17.555	1287.657	972.005
419.584	17.465	1287.308	971.141
420.599	17.504	1286.368	970.565
421.613	97.068	1356.596	1477.133
422.628	95.062	1366.752	1477.232
