DTS Sentinel unit serial number:	SN413079Multiplexer serial number:	ORYXHardware model number:	OX4-SRSoftware version number:	ORYX F/W v4.00 Oryx Data Collector v3.7.2.0data status	okinstallation	princeton_trtdifferential loss correction	single-endedforward channel	channel 4reverse channel	N/Adate	2019/09/18time	18:33:35forward acquisition time	60.00reverse acquisition time	0.00gamma	496.2192k internal	0.2294k external	0.2294temperature offset calibration	1.0021default loss term (dB/km)	0.3790temperature slope calibration	1.0000multiplexer offset coefficient	1.0000multiplexer slope coefficient	1.0000fibre end	0.00T internal ref (°C)	38.19T ext. ref 1 (°C)	0.94T ext. ref 2 (°C)	30.51length (m)	temperature (°C)	Stokes	anti-Stokes-747.200	-13.762	0.132	0.087
-746.185	46.970	-0.335	0.319
-745.171	29.664	0.266	0.231
-744.156	-200.000	-0.063	0.370
-743.142	-66.967	-0.153	0.062
-742.127	-200.000	0.005	0.209
-741.112	59.579	-0.054	-0.054
-740.098	-200.000	0.009	0.346
-739.083	51.066	0.070	-0.068
-738.069	-127.181	0.313	-0.047
-737.054	-200.000	0.033	-0.348
-736.039	-142.883	-0.464	-0.046
-735.025	-200.000	-0.008	0.092
-734.010	-81.226	-0.057	0.019
-732.996	-141.595	-0.224	0.023
-731.981	296.482	0.040	0.075
-730.966	277.646	-0.022	0.040
-729.952	-200.000	-0.032	-0.199
-728.937	-107.653	0.249	-0.056
-727.923	800.000	0.049	0.141
-726.908	355.118	-0.035	-0.071
-725.894	234.655	0.088	0.148
-724.879	800.000	0.025	-0.080
-723.864	24.448	-0.255	0.216
-722.850	-49.570	-0.160	0.078
-721.835	19.549	-0.162	0.133
-720.821	-56.095	-0.316	0.144
-719.806	70.792	-0.294	0.311
-718.791	-200.000	-0.002	0.266
-717.777	-200.000	0.008	0.356
-716.762	-200.000	-0.135	0.631
-715.748	-200.000	0.026	0.332
-714.733	74.614	-0.307	-0.330
-713.718	-200.000	0.024	-0.322
-712.704	-57.210	0.191	0.086
-711.689	176.989	-0.145	-0.216
-710.675	221.883	-0.170	-0.280
-709.660	384.400	-0.094	-0.198
-708.645	-200.000	-0.016	0.145
-707.631	-86.562	0.110	-0.034
-706.616	-122.014	-0.054	0.009
-705.602	525.104	-0.147	0.352
-704.587	-200.000	0.022	-0.262
-703.572	133.852	-0.077	-0.102
-702.558	348.424	-0.139	-0.280
-701.543	-200.000	-0.023	0.400
-700.529	123.716	0.117	0.149
-699.514	800.000	0.008	0.027
-698.499	11.973	0.055	-0.043
-697.485	-116.015	-0.277	0.053
-696.470	-116.479	-0.155	-0.029
-695.456	-101.872	0.267	0.066
-694.441	223.869	-0.158	0.260
-693.426	39.971	0.188	-0.172
-692.412	63.243	0.282	-0.288
-691.397	-200.000	-0.009	0.060
-690.383	-70.440	0.184	-0.071
-689.368	-53.742	-0.301	0.140
-688.354	800.000	0.016	-0.064
-687.339	-200.000	0.015	0.110
-686.324	-200.000	0.010	-0.119
-685.310	48.303	0.027	0.025
-684.295	800.000	0.036	-0.145
-683.281	-120.724	0.209	0.036
-682.266	81.955	0.065	0.072
-681.251	-156.226	-0.235	0.015
-680.237	178.133	0.112	-0.167
-679.222	26.351	-0.042	-0.036
-678.208	170.186	-0.254	-0.371
-677.193	-200.000	-0.008	-0.309
-676.178	800.000	0.041	0.137
-675.164	-34.002	-0.204	0.114
-674.149	-11.177	0.241	0.162
-673.135	-48.698	0.264	-0.129
-672.120	-106.767	-0.346	0.078
-671.105	800.000	0.028	0.083
-670.091	-62.106	-0.117	0.050
-669.076	4.876	-0.233	0.175
-668.062	77.373	-0.326	-0.354
-667.047	592.447	-0.087	0.218
-666.032	221.233	-0.258	0.422
-665.018	195.262	-0.071	0.110
-664.003	-75.725	-0.118	0.043
-662.989	800.000	-0.039	-0.124
-661.974	117.502	-0.172	0.215
-660.959	199.498	0.237	0.370
-659.945	-200.000	-0.073	0.484
-658.930	-54.726	0.151	-0.069
-657.916	-73.121	-0.364	-0.136
-656.901	-47.656	-0.619	-0.306
-655.886	-11.048	-0.140	-0.094
-654.872	-174.224	-0.007	-0.000
-653.857	-119.878	-0.053	0.009
-652.843	137.236	-0.131	-0.174
-651.828	800.000	0.072	0.206
-650.814	173.489	-0.104	-0.152
-649.799	3.013	-0.075	-0.055
-648.784	-131.580	-0.224	0.030
-647.770	-200.000	0.010	-0.459
-646.755	35.998	-0.311	-0.279
-645.741	55.053	0.182	-0.179
-644.726	66.238	0.174	-0.180
-643.711	-200.000	-0.007	-0.375
-642.697	-180.446	0.096	0.002
-641.682	-27.599	-0.062	0.037
-640.668	127.988	-0.127	0.165
-639.653	-102.287	-0.249	0.061
-638.638	39.748	-0.030	0.028
-637.624	-33.646	-0.239	0.134
-636.609	-108.218	0.405	0.089
-635.595	-114.389	-0.347	-0.068
-634.580	35.912	0.215	0.193
-633.565	-125.413	0.167	-0.026
-632.551	800.000	0.092	0.384
-631.536	96.200	0.065	-0.075
-630.522	-80.987	-0.335	-0.113
-629.507	-162.327	-0.270	-0.014
-628.492	-135.646	0.330	0.040
-627.478	-144.756	-0.508	-0.048
-626.463	-200.000	0.002	-0.439
-625.449	69.703	-0.130	-0.137
-624.434	-139.578	0.057	0.006
-623.419	103.770	-0.078	0.094
-622.405	165.887	-0.119	-0.172
-621.390	-88.587	-0.466	-0.141
-620.376	127.379	0.127	-0.164
-619.361	796.164	-0.071	0.200
-618.346	96.271	0.076	-0.088
-617.332	458.491	-0.027	-0.062
-616.317	39.292	0.467	-0.425
-615.303	800.000	0.103	-0.397
-614.288	-60.570	0.074	-0.032
-613.273	345.428	-0.034	-0.067
-612.259	-78.957	0.383	-0.133
-611.244	-120.646	-0.114	0.020
-610.230	430.238	0.035	-0.077
-609.215	-84.738	0.137	-0.044
-608.201	-200.000	0.044	-0.213
-607.186	412.409	-0.010	0.022
-606.171	64.945	0.087	0.089
-605.157	34.837	0.112	0.099
-604.142	-20.011	-0.046	-0.029
-603.128	316.411	0.097	-0.187
-602.113	800.000	-0.056	0.187
-601.098	-42.853	-0.085	0.044
-600.084	-69.684	-0.149	0.058
-599.069	-126.921	-0.025	0.004
-598.055	155.602	0.060	0.083
-597.040	-66.581	0.161	0.065
-596.025	-10.558	-0.169	-0.114
-595.011	181.417	-0.011	0.016
-593.996	266.501	0.172	0.305
-592.982	800.000	0.065	0.207
-591.967	138.517	-0.048	-0.065
-590.952	-25.056	-0.240	0.145
-589.938	800.000	-0.030	0.107
-588.923	-53.046	-0.298	0.139
-587.909	800.000	0.075	0.280
-586.894	60.547	0.043	0.044
-585.879	-9.716	0.249	0.169
-584.865	20.024	-0.296	-0.243
-583.850	83.453	-0.182	-0.202
-582.836	-5.176	-0.093	-0.065
-581.821	265.656	-0.184	-0.325
-580.806	119.888	-0.159	0.200
-579.792	110.613	0.174	0.213
-578.777	-130.554	0.057	-0.008
-577.763	54.280	-0.213	0.209
-576.748	461.274	-0.034	0.076
-575.733	-73.117	0.331	0.123
-574.719	-200.000	-0.017	0.256
-573.704	-200.000	-0.022	-0.125
-572.690	116.075	-0.079	0.099
-571.675	-200.000	-0.031	-0.183
-570.661	-200.000	0.039	-0.283
-569.646	426.336	0.146	-0.320
-568.631	40.505	0.121	-0.110
-567.617	382.430	0.074	-0.154
-566.602	-18.992	0.229	0.145
-565.588	-14.165	-0.082	0.054
-564.573	800.000	-0.083	0.260
-563.558	-60.040	0.096	-0.042
-562.544	46.126	-0.046	0.044
-561.529	-200.000	0.007	-0.379
-560.515	800.000	0.138	-0.590
-559.500	-124.965	0.090	-0.014
-558.485	-87.259	0.078	-0.024
-557.471	-7.072	0.072	0.049
-556.456	-71.091	0.114	-0.044
-555.442	42.299	-0.175	0.162
-554.427	-200.000	0.020	0.094
-553.412	-200.000	0.009	0.179
-552.398	-114.549	-0.232	-0.045
-551.383	-175.792	-0.329	-0.009
-550.369	246.126	-0.055	-0.094
-549.354	-23.809	-0.079	-0.048
-548.339	427.208	-0.095	-0.209
-547.325	-200.000	0.053	-0.249
-546.310	-200.000	0.003	-0.151
-545.296	510.242	-0.114	0.270
-544.281	186.731	-0.057	-0.086
-543.266	-174.686	-0.400	0.012
-542.252	299.280	0.185	-0.346
-541.237	391.479	-0.091	-0.192
-540.223	170.096	0.064	-0.093
-539.208	-200.000	0.004	0.066
-538.193	-200.000	-0.008	-0.079
-537.179	-157.078	-0.141	0.009
-536.164	362.220	0.051	0.104
-535.150	800.000	0.103	-0.402
-534.135	128.534	0.212	-0.274
-533.121	-129.764	0.192	-0.027
-532.106	-19.554	-0.254	0.160
-531.091	242.935	0.049	-0.083
-530.077	-60.827	0.101	-0.043
-529.062	-200.000	0.048	-0.233
-528.048	37.418	0.078	0.070
-527.033	11.642	-0.199	0.155
-526.018	13.035	-0.185	0.145
-525.004	-200.000	0.008	-0.138
-523.989	-200.000	0.005	0.193
-522.975	-169.995	-0.288	-0.010
-521.960	406.972	-0.021	-0.044
-520.945	415.069	-0.039	0.085
-519.931	31.789	-0.104	0.091
-518.916	545.444	-0.084	-0.203
-517.902	8.716	0.103	-0.079
-516.887	-167.517	0.192	-0.008
-515.872	135.891	-0.016	-0.021
-514.858	-37.986	0.067	-0.036
-513.843	-50.017	0.152	-0.073
-512.829	98.129	-0.097	0.114
-511.814	143.631	-0.132	-0.178
-510.799	800.000	0.069	-0.253
-509.785	-200.000	0.010	0.118
-508.770	243.949	0.138	0.235
-507.756	-200.000	0.020	-0.196
-506.741	91.100	0.121	-0.137
-505.726	57.811	0.073	-0.073
-504.712	-132.622	-0.076	0.010
-503.697	-69.694	-0.236	-0.091
-502.683	-200.000	0.029	-0.219
-501.668	-97.152	-0.268	0.071
-500.653	69.820	0.092	-0.096
-499.639	63.752	-0.062	0.063
-498.624	-13.822	-0.234	-0.153
-497.610	212.561	0.153	-0.244
-496.595	273.424	-0.170	0.305
-495.581	-52.318	-0.199	0.094
-494.566	-110.309	-0.086	0.018
-493.551	388.386	0.061	0.127
-492.537	420.116	0.092	-0.199
-491.522	-74.628	-0.234	-0.085
-490.508	341.017	0.073	0.144
-489.493	-146.187	-0.076	-0.007
-488.478	-61.748	0.209	0.089
-487.464	70.477	0.050	-0.052
-486.449	-200.000	0.044	-0.303
-485.435	-117.205	-0.245	0.045
-484.420	45.702	-0.182	-0.170
-483.405	-33.295	0.054	-0.030
-482.391	-134.309	0.399	0.050
-481.376	-65.072	0.328	-0.134
-480.362	-88.763	0.079	-0.024
-479.347	374.186	-0.063	-0.130
-478.332	-111.729	-0.296	0.061
-477.318	80.718	-0.027	0.029
-476.303	-149.913	0.064	-0.005
-475.289	-7.798	0.158	0.108
-474.274	-59.180	-0.118	0.052
-473.259	286.045	-0.065	0.120
-472.245	-91.775	-0.299	-0.086
-471.230	687.595	0.195	-0.517
-470.216	-99.398	0.473	0.121
-469.201	107.144	0.077	0.093
-468.186	-200.000	0.022	-0.381
-467.172	-56.778	0.221	-0.099
-466.157	136.171	-0.115	-0.152
-465.143	-95.361	0.248	-0.067
-464.128	-200.000	-0.011	-0.068
-463.113	800.000	-0.110	-0.428
-462.099	-20.920	-0.072	-0.045
-461.084	-5.262	0.025	-0.018
-460.070	275.840	0.055	0.098
-459.055	-81.373	-0.227	-0.076
-458.040	800.000	-0.082	0.265
-457.026	-200.000	0.009	0.082
-456.011	65.764	0.237	-0.243
-454.997	78.820	0.114	0.123
-453.982	60.789	-0.238	-0.239
-452.968	-200.000	-0.002	-0.038
-451.953	-65.910	0.414	0.167
-450.938	800.000	0.103	0.421
-449.924	392.504	0.068	0.144
-448.909	-16.466	-0.086	0.055
-447.895	-80.624	-0.434	0.146
-446.880	-134.919	-0.191	0.023
-445.865	352.359	-0.081	-0.161
-444.851	487.742	0.045	0.104
-443.836	15.715	-0.121	-0.096
-442.822	577.208	0.094	0.233
-441.807	11.878	-0.056	0.044
-440.792	-47.124	0.276	0.136
-439.778	191.505	0.183	-0.278
-438.763	-176.197	-0.187	-0.005
-437.749	-7.025	-0.167	0.115
-436.734	57.441	-0.223	0.220
-435.719	-119.910	-0.375	0.065
-434.705	-32.948	0.106	-0.059
-433.690	800.000	0.037	0.159
-432.676	800.000	0.077	0.301
-431.661	-200.000	0.015	0.523
-430.646	-158.685	-0.130	0.008
-429.632	-200.000	-0.076	-0.371
-428.617	313.608	0.120	-0.228
-427.603	800.000	-0.078	-0.263
-426.588	-200.000	-0.032	-0.268
-425.573	-102.514	-0.305	0.074
-424.559	98.676	-0.080	-0.093
-423.544	-129.591	0.171	-0.024
-422.530	-200.000	0.042	-0.236
-421.515	-31.569	0.124	-0.071
-420.500	-84.917	-0.260	-0.083
-419.486	-105.993	-0.124	-0.028
-418.471	-155.693	0.215	0.014
-417.457	800.000	0.042	-0.173
-416.442	218.008	0.147	0.237
-415.428	3.748	-0.074	0.055
-414.413	258.599	-0.119	-0.208
-413.398	-200.000	-0.001	0.211
-412.384	190.939	0.122	0.185
-411.369	176.614	-0.084	-0.124
-410.355	-108.972	-0.226	0.049
-409.340	119.074	0.179	0.224
-408.325	133.404	-0.061	-0.080
-407.311	511.783	-0.086	-0.203
-406.296	710.133	0.039	0.104
-405.282	63.920	0.172	0.175
-404.267	67.954	-0.005	-0.005
-403.252	450.652	0.110	0.245
-402.238	-1.749	0.220	0.156
-401.223	419.032	-0.134	0.289
-400.209	-111.750	0.422	0.086
-399.194	31.064	0.142	0.123
-398.179	88.380	0.140	0.157
-397.165	-134.447	0.130	-0.016
-396.150	417.564	-0.216	0.466
-395.136	-99.436	0.363	-0.092
-394.121	421.838	0.035	0.075
-393.106	800.000	-0.139	0.446
-392.092	-147.814	-0.203	0.017
-391.077	-115.675	-0.013	-0.002
-390.063	2.945	-0.192	0.140
-389.048	-3.835	0.236	0.165
-388.033	20.750	0.094	-0.077
-387.019	-200.000	0.043	0.209
-386.004	138.801	-0.100	-0.133
-384.990	800.000	0.024	0.077
-383.975	-200.000	-0.034	0.198
-382.960	143.540	-0.284	0.381
-381.946	-200.000	0.020	0.226
-380.931	-106.339	0.150	0.034
-379.917	467.532	-0.068	-0.154
-378.902	-25.206	-0.312	-0.186
-377.888	116.558	-0.151	-0.186
-376.873	-72.811	-0.203	-0.075
-375.858	130.599	0.188	-0.242
-374.844	-109.055	-0.308	-0.066
-373.829	-7.294	0.490	-0.335
-372.815	-200.000	0.039	0.187
-371.800	-140.728	0.225	0.023
-370.785	-200.000	0.035	0.429
-369.771	800.000	0.025	-0.106
-368.756	-144.634	0.226	0.021
-367.742	230.787	0.122	0.202
-366.727	-72.851	-0.304	0.113
-365.712	57.718	0.173	0.171
-364.698	800.000	-0.085	0.268
-363.683	-200.000	0.022	0.202
-362.669	-60.439	-0.038	-0.016
-361.654	-200.000	-0.012	0.250
-360.639	-139.954	0.191	0.020
-359.625	-200.000	-0.034	-0.187
-358.610	-180.590	-0.274	-0.006
-357.596	334.145	0.120	0.234
-356.581	49.467	0.070	-0.066
-355.566	-57.023	0.295	0.131
-354.552	-200.000	0.027	-0.149
-353.537	258.951	0.121	0.210
-352.523	53.474	0.198	-0.191
-351.508	26.717	0.320	-0.270
-350.493	-134.539	0.255	-0.031
-349.479	74.107	0.307	0.324
-348.464	-200.000	-0.043	-0.225
-347.450	800.000	0.074	-0.241
-346.435	800.000	0.038	-0.151
-345.420	50.113	0.211	-0.200
-344.406	-100.152	-0.207	-0.052
-343.391	800.000	-0.056	-0.167
-342.377	-52.271	-0.082	0.038
-341.362	-120.886	-0.120	-0.020
-340.348	150.163	-0.096	-0.131
-339.333	-43.453	0.315	-0.160
-338.318	-110.290	-0.169	0.035
-337.304	-40.794	-0.261	-0.136
-336.289	115.234	0.118	-0.145
-335.275	174.981	-0.129	-0.188
-334.260	800.000	-0.161	0.552
-333.245	800.000	-0.097	0.271
-332.231	-189.460	0.080	-0.001
-331.216	-168.279	0.185	-0.007
-330.202	137.295	0.095	-0.126
-329.187	-65.224	-0.221	-0.089
-328.172	800.000	-0.071	-0.271
-327.158	44.308	-0.217	0.200
-326.143	800.000	-0.027	-0.111
-325.129	-125.423	0.232	-0.036
-324.114	81.194	0.190	0.206
-323.099	-132.978	-0.345	-0.044
-322.085	-1.878	-0.152	-0.107
-321.070	-70.638	0.192	0.073
-320.056	-200.000	0.054	0.275
-319.041	-137.687	-0.305	-0.034
-318.026	-176.814	0.205	-0.005
-317.012	-17.388	0.135	-0.085
-315.997	-10.811	0.114	0.076
-314.983	259.736	0.058	0.101
-313.968	262.266	-0.237	0.413
-312.953	-22.397	0.106	0.064
-311.939	52.597	0.128	0.123
-310.924	507.351	-0.172	0.401
-309.910	-200.000	-0.036	-0.377
-308.895	-123.259	-0.082	0.013
-307.880	443.639	0.051	-0.113
-306.866	-68.533	-0.204	-0.080
-305.851	218.072	-0.094	-0.151
-304.837	18.401	0.227	0.183
-303.822	-151.297	0.078	-0.006
-302.807	-87.338	0.044	-0.014
-301.793	-92.145	0.251	0.071
-300.778	81.410	-0.208	0.226
-299.764	800.000	0.015	0.058
-298.749	-106.064	-0.060	-0.014
-297.735	-200.000	0.014	0.377
-296.720	800.000	-0.123	0.379
-295.705	-200.000	0.001	0.092
-294.691	39.882	0.145	-0.130
-293.676	-16.857	-0.288	-0.183
-292.662	75.644	-0.175	0.186
-291.647	267.767	0.185	0.325
-290.632	-200.000	-0.004	0.313
-289.618	31.224	-0.198	0.170
-288.603	51.825	0.108	0.103
-287.589	79.425	-0.135	0.145
-286.574	-200.000	-0.032	-0.224
-285.559	-63.224	0.012	0.005
-284.545	-184.860	-0.357	-0.006
-283.530	800.000	-0.118	0.368
-282.516	-141.781	0.203	0.020
-281.501	-12.785	-0.094	-0.062
-280.486	800.000	-0.087	0.321
-279.472	152.798	0.109	0.150
-278.457	3.877	0.090	-0.066
-277.443	-41.893	-0.199	-0.102
-276.428	-151.132	-0.310	0.023
-275.413	-102.984	0.087	-0.021
-274.399	369.838	0.066	-0.135
-273.384	-141.919	0.284	-0.029
-272.370	475.446	-0.077	0.175
-271.355	-159.026	0.270	0.015
-270.340	312.957	0.160	0.302
-269.326	-165.592	-0.130	-0.006
-268.311	-92.023	0.395	-0.112
-267.297	-22.529	0.371	-0.225
-266.282	-5.110	0.102	0.071
-265.267	-149.657	0.284	0.023
-264.253	88.230	-0.040	-0.045
-263.238	-85.119	0.218	0.068
-262.224	-200.000	-0.019	0.152
-261.209	601.677	0.132	-0.330
-260.195	-200.000	-0.020	-0.192
-259.180	0.351	0.158	-0.113
-258.165	-50.366	-0.103	0.049
-257.151	-172.616	0.415	-0.013
-256.136	-200.000	-0.033	0.146
-255.122	325.641	0.121	0.233
-254.107	-200.000	-0.023	0.287
-253.092	55.187	-0.024	-0.023
-252.078	373.909	0.233	0.475
-251.063	-39.492	0.222	-0.117
-250.049	800.000	-0.071	0.287
-249.034	-98.621	0.224	0.057
-248.019	-91.066	-0.304	0.087
-247.005	-200.000	-0.008	0.396
-245.990	-200.000	0.029	0.159
-244.976	111.977	0.133	0.161
-243.961	800.000	0.112	-0.344
-242.946	-119.140	-0.332	0.058
-241.932	-104.697	0.384	0.089
-240.917	51.832	0.078	0.075
-239.903	62.706	-0.242	0.242
-238.888	429.051	-0.116	0.252
-237.873	-200.000	-0.018	-0.094
-236.859	-154.006	0.206	0.014
-235.844	460.950	-0.044	0.098
-234.830	-92.572	-0.168	-0.047
-233.815	47.282	0.099	-0.092
-232.800	-121.168	0.253	0.043
-231.786	-185.192	-0.063	0.001
-230.771	-57.203	-0.343	-0.151
-229.757	298.812	-0.091	-0.168
-228.742	249.420	0.181	0.308
-227.727	-24.783	-0.058	0.035
-226.713	-134.662	-0.110	0.013
-225.698	-15.563	-0.069	-0.044
-224.684	-192.307	-0.183	0.002
-223.669	-36.470	0.139	-0.075
-222.655	-55.973	0.278	-0.124
-221.640	800.000	-0.123	-0.514
-220.625	68.326	-0.081	0.083
-219.611	748.282	0.040	-0.108
-218.596	-200.000	0.009	-0.186
-217.582	800.000	0.034	-0.113
-216.567	-200.000	-0.051	-0.265
-215.552	18.752	-0.227	-0.182
-214.538	-67.917	-0.261	-0.102
-213.523	-15.194	-0.053	-0.034
-212.509	127.143	0.187	-0.237
-211.494	-190.366	-0.239	0.003
-210.479	47.609	0.127	-0.119
-209.465	260.676	0.227	0.394
-208.450	422.635	0.160	0.343
-207.436	132.964	-0.135	-0.175
-206.421	293.742	0.147	-0.269
-205.406	33.529	0.081	-0.071
-204.392	85.474	-0.011	-0.012
-203.377	-65.893	0.231	-0.093
-202.363	24.896	-0.363	0.301
-201.348	47.672	-0.058	-0.055
-200.333	75.210	-0.174	-0.183
-199.319	-136.990	-0.200	-0.023
-198.304	15.089	-0.271	-0.213
-197.290	-115.226	0.254	0.048
-196.275	403.333	0.058	-0.123
-195.260	-200.000	0.029	0.304
-194.246	-200.000	0.001	-0.072
-193.231	53.967	0.134	-0.129
-192.217	344.826	-0.166	0.327
-191.202	-186.145	0.196	-0.003
-190.187	536.610	0.049	0.117
-189.173	-161.164	-0.587	-0.031
-188.158	-43.978	-0.158	-0.080
-187.144	94.857	-0.091	0.104
-186.129	406.356	-0.118	0.249
-185.114	-56.244	0.185	0.082
-184.100	-157.710	-0.181	0.011
-183.085	-200.000	0.028	-0.316
-182.071	-71.587	-0.426	-0.159
-181.056	-85.835	0.310	-0.096
-180.042	68.897	-0.068	0.069
-179.027	27.714	0.168	0.142
-178.012	-96.265	-0.104	0.028
-176.998	-11.852	0.157	0.103
-175.983	90.784	-0.097	-0.109
-174.969	510.581	0.066	0.153
-173.954	-88.218	-0.301	-0.090
-172.939	-200.000	-0.025	-0.135
-171.925	-57.521	-0.173	0.076
-170.910	-96.112	-0.069	-0.018
-169.896	186.050	-0.120	-0.178
-168.881	800.000	-0.031	-0.116
-167.866	-26.678	0.251	0.147
-166.852	3.193	0.130	-0.095
-165.837	-28.197	0.067	-0.038
-164.823	-25.279	0.085	0.051
-163.808	-95.134	-0.145	-0.039
-162.793	730.982	0.119	-0.319
-161.779	-20.544	0.167	-0.102
-160.764	-200.000	0.012	0.131
-159.750	-38.776	-0.227	0.120
-158.735	-13.542	0.258	0.167
-157.720	541.428	0.035	0.084
-156.706	-200.000	0.032	-0.307
-155.691	-200.000	0.033	0.146
-154.677	8.356	-0.074	0.056
-153.662	67.755	-0.216	-0.220
-152.647	-119.352	0.250	-0.044
-151.633	-99.086	0.344	-0.087
-150.618	403.503	-0.177	-0.372
-149.604	800.000	-0.095	-0.353
-148.589	461.860	-0.076	-0.169
-147.574	132.919	-0.232	0.299
-146.560	800.000	-0.014	-0.053
-145.545	136.634	0.017	-0.023
-144.531	-15.299	0.211	0.135
-143.516	93.376	0.098	-0.111
-142.502	-96.158	0.397	-0.105
-141.487	251.873	-0.108	0.184
-140.472	-66.497	-0.102	-0.040
-139.458	-200.000	-0.046	-0.301
-138.443	-200.000	-0.037	0.400
-137.429	-200.000	-0.056	0.284
-136.414	-178.323	-0.205	-0.005
-135.399	12.201	-0.132	0.102
-134.385	-200.000	0.373	-0.001
-133.370	800.000	-0.081	0.255
-132.356	216.115	0.087	-0.138
-131.341	-121.908	0.235	-0.039
-130.326	589.792	0.070	0.172
-129.312	205.833	0.178	0.277
-128.297	-16.171	-0.133	0.084
-127.283	-87.518	-0.251	-0.076
-126.268	34.881	0.058	0.050
-125.253	180.995	-0.073	-0.108
-124.239	-19.238	0.163	-0.101
-123.224	-18.640	-0.270	0.168
-122.210	-200.000	-0.040	-0.298
-121.195	61.619	0.186	-0.185
-120.180	-5.635	-0.130	0.089
-119.166	-200.000	0.021	0.096
-118.151	54.061	-0.201	0.193
-117.137	667.470	0.101	0.259
-116.122	73.779	-0.149	0.156
-115.107	-73.474	0.202	0.074
-114.093	-200.000	0.005	-0.195
-113.078	-9.530	-0.241	-0.160
-112.064	-121.348	-0.088	-0.015
-111.049	-200.000	0.014	-0.120
-110.034	-73.170	-0.270	-0.099
-109.020	-95.163	0.327	0.088
-108.005	271.414	0.265	0.466
-106.991	-179.113	0.290	0.006
-105.976	632.897	0.070	0.176
-104.962	-147.067	0.271	0.023
-103.947	-142.879	0.333	-0.032
-102.932	-38.844	-0.197	0.103
-101.918	45.758	-0.176	0.162
-100.903	196.272	-0.023	0.035
-99.889	-109.875	0.397	-0.083
-98.874	446.621	-0.066	0.144
-97.859	16.111	-0.390	0.306
-96.845	800.000	-0.157	0.530
-95.830	-39.676	-0.127	0.066
-94.816	-88.782	-0.152	0.045
-93.801	-131.331	0.214	0.028
-92.786	100.172	-0.252	0.291
-91.772	50.692	0.025	-0.023
-90.757	-200.000	0.032	-0.329
-89.743	800.000	0.049	-0.172
-88.728	44.440	-0.270	-0.247
-87.713	0.656	-0.162	-0.116
-86.699	-170.567	0.256	0.009
-85.684	626.212	0.084	-0.212
-84.670	-129.402	0.193	0.027
-83.655	264.602	-0.149	0.259
-82.640	132.211	-0.178	0.229
-81.626	375.798	-0.058	-0.118
-80.611	80.656	0.086	0.092
-79.597	294.573	-0.112	-0.204
-78.582	-57.837	0.300	-0.131
-77.567	-200.000	-0.047	-0.262
-76.553	2.353	0.333	-0.240
-75.538	328.973	0.042	-0.080
-74.524	4.956	0.126	0.092
-73.509	-20.205	0.401	0.246
-72.494	-148.395	0.118	-0.010
-71.480	-40.058	-0.132	-0.069
-70.465	89.302	0.124	0.137
-69.451	22.323	0.238	0.194
-68.436	230.969	-0.034	0.056
-67.422	800.000	0.101	-0.408
-66.407	125.002	0.101	-0.127
-65.392	147.225	-0.012	0.016
-64.378	-134.246	-0.203	0.025
-63.363	40.773	0.255	0.229
-62.349	-135.744	0.141	-0.017
-61.334	-12.749	-0.948	-0.615
-60.319	-85.116	0.152	-0.048
-59.305	-200.000	-0.131	-0.967
-58.290	536.659	0.282	0.666
-57.276	217.648	0.942	1.496
-56.261	-200.000	86.860	504.307
-55.246	472.568	1380.956	3096.447
-54.232	144.786	2604.381	3465.133
-53.217	103.492	2376.772	2776.206
-52.203	44.538	2118.214	1937.478
-51.188	39.990	2027.791	1813.095
-50.173	38.373	2008.178	1780.778
-49.159	50.798	2054.407	1936.466
-48.144	53.983	2074.943	1985.138
-47.130	40.811	2034.114	1826.009
-46.115	38.267	2021.958	1791.744
-45.100	38.149	2018.791	1787.783
-44.086	38.150	2016.575	1785.762
-43.071	38.124	2014.145	1783.299
-42.057	38.052	2012.085	1780.750
-41.042	38.103	2010.224	1779.500
-40.027	38.138	2007.760	1777.564
-39.013	38.181	2005.390	1775.788
-37.998	38.155	2004.188	1774.416
-36.984	38.146	2002.475	1772.746
-35.969	38.135	2000.780	1771.078
-34.954	38.144	1998.966	1769.482
-33.940	38.193	1997.458	1768.516
-32.925	38.207	1995.776	1767.090
-31.911	38.179	1994.096	1765.277
-30.896	38.195	1992.342	1763.797
-29.881	38.207	1990.942	1762.596
-28.867	38.283	1988.472	1761.026
-27.852	38.223	1987.145	1759.237
-26.838	38.326	1984.407	1757.675
-25.823	38.199	1983.502	1755.656
-24.809	38.263	1980.613	1753.604
-23.794	38.259	1979.306	1752.346
-22.779	38.212	1977.954	1750.658
-21.765	38.184	1975.846	1748.470
-20.750	38.169	1974.499	1747.077
-19.736	38.204	1972.816	1745.833
-18.721	38.250	1971.029	1744.593
-17.706	38.180	1969.219	1742.297
-16.692	38.263	1967.533	1741.476
-15.677	38.180	1966.002	1739.308
-14.663	38.187	1964.768	1738.213
-13.648	38.167	1963.510	1736.851
-12.633	38.229	1962.209	1736.183
-11.619	38.151	1961.316	1734.627
-10.604	38.099	1959.931	1732.876
-9.590	38.207	1957.830	1731.910
-8.575	38.108	1956.944	1730.174
-7.560	38.173	1955.367	1729.291
-6.546	38.189	1954.276	1728.396
-5.531	38.164	1952.957	1726.937
-4.517	38.144	1951.766	1725.646
-3.502	38.201	1950.291	1724.769
-2.487	38.105	1949.296	1722.976
-1.473	38.144	1948.265	1722.337
-0.458	38.234	1943.660	1718.997
0.556	36.787	1922.439	1686.659
1.571	31.131	1897.661	1615.961
2.586	24.896	1913.547	1574.691
3.600	22.201	1946.487	1577.510
4.615	20.963	1941.224	1562.023
5.629	16.140	1840.441	1439.725
6.644	6.870	1718.021	1269.652
7.659	1.520	1676.629	1196.917
8.673	1.050	1672.773	1190.369
9.688	0.969	1671.546	1188.754
10.702	0.955	1670.535	1187.823
11.717	0.766	1667.074	1183.778
12.731	1.188	1666.758	1186.749
13.746	6.920	1679.173	1240.569
14.761	14.718	1694.254	1313.134
15.775	17.602	1698.555	1339.053
16.790	17.453	1696.932	1336.487
17.804	16.581	1693.645	1326.942
18.819	15.569	1690.480	1316.417
19.834	14.900	1687.878	1309.040
20.848	14.652	1686.107	1305.608
21.863	14.337	1684.821	1302.039
22.877	14.096	1683.016	1298.642
23.892	13.879	1681.522	1295.684
24.907	13.711	1680.578	1293.534
25.921	13.722	1679.504	1292.672
26.936	13.778	1677.863	1291.730
27.950	13.782	1677.476	1291.353
28.965	13.788	1677.255	1291.118
29.980	13.871	1676.473	1291.041
30.994	13.904	1675.467	1290.410
32.009	13.940	1673.996	1289.442
33.023	14.013	1672.760	1288.947
34.038	14.026	1672.229	1288.519
35.053	13.963	1671.334	1287.229
36.067	13.940	1670.162	1286.038
37.082	13.921	1669.461	1285.237
38.096	13.933	1668.160	1284.211
39.111	13.871	1667.842	1283.375
40.126	13.964	1666.905	1283.255
41.140	13.838	1666.299	1281.706
42.155	13.802	1664.858	1280.209
43.169	13.740	1663.282	1278.402
44.184	13.713	1661.847	1276.977
45.199	13.737	1660.913	1276.335
46.213	13.743	1659.719	1275.350
47.228	13.690	1658.319	1273.751
48.242	13.783	1656.967	1273.317
49.257	13.851	1656.000	1272.982
50.271	13.746	1654.951	1271.260
51.286	13.801	1653.445	1270.408
52.301	13.910	1651.798	1269.863
53.315	13.836	1650.616	1268.276
54.330	13.800	1648.952	1266.613
55.344	13.815	1647.322	1265.366
56.359	13.729	1646.184	1263.725
57.374	13.720	1645.070	1262.686
58.388	13.713	1643.939	1261.650
59.403	13.770	1642.938	1261.203
60.417	13.734	1641.021	1259.353
61.432	13.685	1640.093	1258.158
62.447	13.691	1638.943	1257.204
63.461	13.639	1638.272	1256.189
64.476	13.723	1636.502	1255.357
65.490	13.662	1635.871	1254.302
66.505	13.628	1634.471	1252.855
67.520	13.675	1633.385	1252.266
68.534	13.678	1632.283	1251.333
69.549	13.672	1631.867	1250.861
70.563	13.765	1629.962	1249.994
71.578	13.741	1628.325	1248.442
72.593	13.659	1627.625	1247.181
73.607	13.659	1626.405	1246.134
74.622	13.571	1625.620	1244.760
75.636	13.607	1624.126	1243.776
76.651	13.557	1623.728	1242.990
77.666	13.549	1622.628	1241.973
78.680	13.681	1621.469	1241.969
79.695	13.620	1620.845	1240.923
80.709	13.598	1619.770	1239.825
81.724	13.656	1618.885	1239.474
82.739	13.610	1618.168	1238.472
83.753	13.786	1616.468	1238.374
84.768	13.744	1615.685	1237.351
85.782	13.753	1615.166	1236.914
86.797	13.886	1614.160	1237.023
87.812	13.820	1613.230	1235.704
88.826	13.757	1611.835	1234.059
89.841	13.754	1610.993	1233.286
90.855	13.707	1609.732	1231.859
91.870	13.755	1608.368	1231.065
92.884	13.756	1607.878	1230.589
93.899	13.885	1606.223	1230.166
94.914	13.850	1605.089	1228.934
95.928	13.845	1604.344	1228.217
96.943	13.890	1603.067	1227.462
97.957	13.925	1601.178	1226.167
98.972	13.838	1600.116	1224.602
99.987	13.867	1598.303	1223.316
101.001	13.813	1596.810	1221.673
102.016	13.851	1594.967	1220.436
103.030	13.825	1593.661	1219.134
104.045	13.783	1592.850	1218.098
105.060	13.853	1591.363	1217.367
106.074	13.805	1590.213	1216.025
107.089	13.777	1588.351	1214.288
108.103	13.714	1586.957	1212.656
109.118	13.745	1585.241	1211.467
110.133	13.713	1584.120	1210.267
111.147	13.677	1582.532	1208.686
112.162	13.617	1581.717	1207.515
113.176	13.812	1579.694	1207.284
114.191	13.718	1578.480	1205.570
115.206	13.878	1577.536	1205.905
116.220	13.739	1576.376	1203.897
117.235	13.794	1574.628	1202.858
118.249	13.772	1573.358	1201.624
119.264	13.831	1572.009	1200.909
120.279	13.758	1571.034	1199.531
121.293	13.752	1569.775	1198.425
122.308	13.751	1568.331	1197.208
123.322	13.776	1566.674	1196.018
124.337	13.777	1565.048	1194.677
125.352	13.750	1563.731	1193.374
126.366	13.782	1562.575	1192.615
127.381	13.746	1561.547	1191.466
128.395	13.788	1560.464	1190.835
129.410	13.727	1559.712	1189.718
130.424	13.638	1558.256	1187.861
131.439	13.740	1556.619	1187.244
132.454	13.817	1554.812	1186.307
133.468	13.869	1553.558	1185.616
134.483	13.848	1552.230	1184.352
135.497	13.879	1551.166	1183.653
136.512	13.888	1549.701	1182.493
137.527	13.859	1548.654	1181.387
138.541	13.877	1547.305	1180.379
139.556	13.847	1545.810	1178.923
140.570	13.974	1544.312	1178.579
141.585	13.909	1542.892	1176.929
142.600	13.875	1541.901	1175.825
143.614	13.920	1540.435	1174.924
144.629	14.056	1538.941	1174.642
145.643	14.061	1537.886	1173.769
146.658	14.089	1536.347	1172.687
147.673	13.985	1534.931	1170.770
148.687	14.007	1533.179	1169.484
149.702	14.033	1531.793	1168.508
150.716	13.936	1530.092	1166.422
151.731	13.995	1528.765	1165.724
152.746	13.922	1528.064	1164.575
153.760	13.926	1526.139	1163.032
154.775	13.992	1525.109	1162.606
155.789	13.999	1523.516	1161.337
156.804	14.094	1522.465	1161.093
157.819	14.025	1521.331	1159.646
158.833	14.136	1519.511	1158.934
159.848	14.100	1518.795	1158.034
160.862	14.097	1517.786	1157.136
161.877	14.117	1516.367	1156.094
162.892	14.129	1515.089	1155.101
163.906	14.095	1513.659	1153.674
164.921	14.070	1512.192	1152.275
165.935	14.098	1511.187	1151.603
166.950	14.117	1510.180	1150.869
167.964	14.166	1508.713	1149.985
168.979	14.109	1508.160	1149.066
169.994	14.056	1507.243	1147.905
171.008	14.129	1505.631	1147.079
172.023	14.133	1504.739	1146.321
173.037	14.100	1503.581	1145.116
174.052	14.232	1502.049	1144.754
175.067	14.220	1501.337	1144.024
176.081	14.152	1500.145	1142.550
177.096	14.197	1498.389	1141.422
178.110	14.127	1497.582	1140.221
179.125	14.168	1496.119	1139.287
180.140	14.205	1495.281	1138.805
181.154	14.209	1494.266	1137.958
182.169	14.288	1493.019	1137.449
183.183	14.306	1491.933	1136.641
184.198	14.394	1490.657	1136.169
185.213	14.253	1490.065	1134.656
186.227	14.370	1488.630	1134.262
187.242	14.403	1487.918	1133.842
188.256	14.479	1486.408	1133.108
189.271	14.441	1485.847	1132.323
190.286	14.399	1484.577	1130.965
191.300	14.444	1483.343	1130.235
192.315	14.412	1481.917	1128.831
193.329	14.222	1480.880	1126.653
194.344	14.165	1480.259	1125.699
195.359	14.364	1478.695	1125.752
196.373	14.366	1477.539	1124.786
197.388	14.363	1476.678	1124.010
198.402	14.413	1475.888	1123.646
199.417	14.446	1474.457	1122.681
200.432	14.456	1473.621	1122.011
201.446	14.538	1472.507	1121.616
202.461	14.563	1471.573	1120.974
203.475	14.654	1470.043	1120.321
204.490	14.598	1468.975	1119.031
205.504	14.653	1468.164	1118.682
206.519	14.723	1466.820	1118.028
207.534	14.628	1466.055	1116.708
208.548	14.565	1465.188	1115.529
209.563	14.538	1464.183	1114.487
210.577	14.622	1462.560	1113.714
211.592	14.568	1462.466	1113.179
212.607	14.638	1461.354	1112.705
213.621	14.677	1460.673	1112.349
214.636	14.744	1459.522	1111.821
215.650	14.739	1458.718	1111.072
216.665	14.770	1457.512	1110.262
217.680	14.806	1457.017	1110.025
218.694	14.749	1456.438	1109.108
219.709	14.868	1455.183	1108.842
220.723	14.808	1454.521	1107.847
221.738	14.928	1452.852	1107.270
222.753	14.819	1452.277	1106.009
223.767	14.780	1451.854	1105.334
224.782	14.844	1450.473	1104.605
225.796	14.880	1449.570	1104.060
226.811	14.885	1448.445	1103.141
227.826	15.012	1447.608	1103.242
228.840	14.906	1447.062	1102.029
229.855	14.854	1446.248	1100.969
230.869	14.873	1445.110	1100.129
231.884	14.964	1444.238	1099.968
232.899	14.989	1442.689	1098.852
233.913	14.948	1441.985	1097.951
234.928	14.929	1440.241	1096.404
235.942	14.865	1439.465	1095.293
236.957	14.897	1438.234	1094.470
237.972	14.831	1437.365	1093.280
238.986	14.918	1436.171	1092.846
240.001	14.957	1435.194	1092.256
241.015	15.057	1434.111	1091.988
242.030	14.951	1433.045	1090.394
243.045	14.942	1432.059	1089.488
244.059	15.086	1431.097	1089.596
245.074	15.016	1430.292	1088.433
246.088	15.053	1429.239	1087.771
247.103	15.077	1428.658	1087.391
248.117	15.160	1427.758	1087.150
249.132	15.161	1426.916	1086.417
250.147	15.191	1426.171	1085.946
251.161	15.254	1425.633	1085.853
252.176	15.230	1425.142	1085.223
253.190	15.234	1424.329	1084.535
254.205	15.390	1422.997	1084.435
255.220	15.282	1422.448	1083.224
256.234	15.445	1421.581	1083.521
257.249	15.405	1420.853	1082.609
258.263	15.440	1420.110	1082.171
259.278	15.493	1418.875	1081.478
260.293	15.405	1418.298	1080.376
261.307	15.494	1417.343	1080.127
262.322	15.503	1416.770	1079.653
263.336	15.564	1415.746	1079.165
264.351	15.585	1414.388	1078.171
265.366	15.560	1413.769	1077.442
266.380	15.645	1412.622	1077.017
267.395	15.697	1411.675	1076.535
268.409	15.630	1411.062	1075.542
269.424	15.683	1409.884	1074.888
270.439	15.670	1408.659	1073.778
271.453	15.676	1407.838	1073.093
272.468	15.709	1406.703	1072.342
273.482	15.615	1406.158	1071.236
274.497	15.700	1405.456	1071.147
275.512	15.586	1404.915	1069.911
276.526	15.691	1403.854	1069.680
277.541	15.675	1402.764	1068.652
278.555	15.637	1402.308	1067.970
279.570	15.691	1401.149	1067.334
280.585	15.730	1400.243	1066.796
281.599	15.794	1399.483	1066.528
282.614	15.781	1398.609	1065.686
283.628	15.759	1397.394	1064.528
284.643	15.840	1396.015	1063.897
285.657	15.890	1394.992	1063.339
286.672	15.784	1394.246	1062.007
287.687	15.710	1393.685	1061.013
288.701	15.856	1392.426	1060.884
289.716	15.948	1391.131	1060.381
290.730	15.893	1390.653	1059.576
291.745	15.935	1389.587	1058.939
292.760	15.918	1388.618	1057.996
293.774	15.900	1387.812	1057.178
294.789	15.854	1386.989	1056.171
295.803	15.980	1386.142	1056.220
296.818	16.037	1384.923	1055.556
297.833	16.018	1383.893	1054.554
298.847	15.950	1383.359	1053.631
299.862	15.923	1382.374	1052.620
300.876	15.979	1381.432	1052.158
301.891	16.040	1380.339	1051.613
302.906	15.949	1379.991	1050.687
303.920	16.071	1379.093	1050.672
304.935	16.151	1378.381	1050.533
305.949	16.164	1377.612	1049.936
306.964	16.153	1376.803	1049.158
307.979	16.241	1375.525	1048.638
308.993	16.229	1374.438	1047.643
310.008	16.277	1373.402	1047.059
311.022	16.322	1372.709	1046.719
312.037	16.355	1371.116	1045.613
313.052	16.355	1370.676	1045.184
314.066	16.333	1369.735	1044.241
315.081	16.252	1368.923	1043.025
316.095	16.303	1367.603	1042.246
317.110	16.262	1366.807	1041.290
318.125	16.202	1365.791	1040.055
319.139	16.210	1364.890	1039.328
320.154	16.248	1363.902	1038.715
321.168	16.299	1362.837	1038.130
322.183	16.336	1362.117	1037.715
323.197	16.296	1361.056	1036.567
324.212	16.331	1360.159	1036.010
325.227	16.314	1359.484	1035.299
326.241	16.346	1358.600	1034.729
327.256	16.343	1357.824	1034.026
328.270	16.259	1356.904	1032.721
329.285	16.334	1355.931	1032.349
330.300	16.393	1354.965	1031.886
331.314	16.357	1354.289	1031.057
332.329	16.459	1353.062	1030.652
333.343	16.386	1352.492	1029.685
334.358	16.454	1351.547	1029.288
335.373	16.419	1350.833	1028.438
336.387	16.528	1349.790	1028.215
337.402	16.513	1349.332	1027.687
338.416	16.503	1348.611	1026.983
339.431	16.565	1347.931	1026.755
340.446	16.656	1346.878	1026.413
341.460	16.602	1346.029	1025.344
342.475	16.608	1344.717	1024.293
343.489	16.761	1343.924	1024.522
344.504	16.737	1343.125	1023.678
345.519	16.696	1342.456	1022.828
346.533	16.739	1341.375	1022.175
347.548	16.817	1340.591	1021.957
348.562	16.894	1339.606	1021.583
349.577	16.957	1338.671	1021.159
350.592	16.810	1338.383	1019.965
351.606	16.791	1337.503	1019.089
352.621	16.706	1336.454	1017.688
353.635	16.804	1335.303	1017.309
354.650	16.656	1334.604	1015.796
355.665	16.837	1333.422	1015.896
356.679	16.810	1332.591	1015.009
357.694	16.748	1331.533	1013.742
358.708	16.761	1330.504	1012.945
359.723	16.816	1329.199	1012.192
360.738	16.958	1327.592	1011.728
361.752	16.862	1327.033	1010.636
362.767	16.903	1326.226	1010.179
363.781	16.822	1325.665	1009.181
364.796	16.976	1324.257	1008.931
365.810	16.940	1323.734	1008.230
366.825	16.982	1323.062	1007.882
367.840	17.033	1322.026	1007.308
368.854	16.994	1321.625	1006.679
369.869	17.075	1321.150	1006.710
370.883	17.130	1320.039	1006.097
371.898	17.120	1319.567	1005.588
372.913	17.063	1318.829	1004.601
373.927	17.177	1317.360	1004.068
374.942	17.118	1317.013	1003.369
375.956	17.140	1316.443	1002.976
376.971	17.177	1315.547	1002.419
377.986	17.201	1314.510	1001.686
379.000	17.276	1313.408	1001.195
380.015	17.249	1312.618	1000.346
381.029	17.276	1312.115	1000.035
382.044	17.359	1311.760	1000.161
383.059	17.338	1310.875	999.274
384.073	17.386	1310.234	998.982
385.088	17.292	1309.567	997.830
386.102	17.408	1309.060	998.038
387.117	17.376	1308.195	997.102
388.132	17.395	1307.188	996.356
389.146	17.362	1306.707	995.709
390.161	17.394	1305.514	994.898
391.175	17.435	1304.636	994.382
392.190	17.369	1303.868	993.323
393.205	17.407	1302.997	992.796
394.219	17.506	1301.826	992.390
395.234	17.462	1300.836	991.294
396.248	17.535	1299.769	990.818
397.263	17.458	1298.079	988.993
398.278	17.421	1297.318	988.111
399.292	17.440	1296.264	987.330
400.307	17.564	1295.205	987.155
401.321	17.451	1294.624	985.972
402.336	17.346	1293.978	984.783
403.350	17.475	1292.159	984.057
404.365	17.515	1291.333	983.573
405.380	17.420	1290.566	982.353
406.394	17.561	1289.610	982.351
407.409	17.586	1288.992	981.937
408.423	17.636	1288.197	981.535
409.438	17.724	1287.135	981.145
410.453	17.658	1286.682	980.333
411.467	17.671	1285.968	979.775
412.482	17.711	1285.632	979.663
413.496	17.777	1284.567	979.142
414.511	17.812	1283.890	978.745
415.526	17.699	1283.326	977.578
416.540	17.879	1282.511	977.901
417.555	17.902	1281.568	977.228
418.569	17.962	1281.097	977.123
419.584	17.930	1280.786	976.617
420.599	17.927	1279.891	975.830
421.613	87.603	1337.329	1417.094
422.628	86.023	1345.695	1417.232
