DTS Sentinel unit serial number:	SN413079Multiplexer serial number:	ORYXHardware model number:	OX4-SRSoftware version number:	ORYX F/W v4.00 Oryx Data Collector v3.7.2.0data status	okinstallation	princeton_trtdifferential loss correction	single-endedforward channel	channel 4reverse channel	N/Adate	2019/09/18time	08:09:35forward acquisition time	60.00reverse acquisition time	0.00gamma	496.2192k internal	0.2329k external	0.2329temperature offset calibration	0.9990default loss term (dB/km)	0.3790temperature slope calibration	1.0000multiplexer offset coefficient	1.0000multiplexer slope coefficient	1.0000fibre end	0.00T internal ref (°C)	23.81T ext. ref 1 (°C)	0.20T ext. ref 2 (°C)	19.51length (m)	temperature (°C)	Stokes	anti-Stokes-747.200	800.000	-0.114	0.482
-746.185	30.278	-0.264	-0.227
-745.171	800.000	-0.065	0.182
-744.156	-95.889	-0.186	-0.050
-743.142	110.502	0.131	-0.159
-742.127	-22.744	0.196	0.119
-741.112	-200.000	-0.009	0.260
-740.098	632.401	0.072	0.185
-739.083	373.411	0.161	0.330
-738.069	-200.000	0.011	0.215
-737.054	-127.106	0.207	0.031
-736.039	-140.865	-0.287	-0.030
-735.025	-70.183	0.202	-0.077
-734.010	105.819	-0.363	-0.433
-732.996	-88.092	-0.437	-0.132
-731.981	800.000	0.046	-0.189
-730.966	340.289	0.169	-0.332
-729.952	-95.529	-0.495	-0.134
-728.937	-146.051	0.237	-0.021
-727.923	-22.290	0.204	0.124
-726.908	64.536	-0.125	0.127
-725.894	-200.000	0.017	-0.112
-724.879	-2.601	-0.207	0.146
-723.864	258.761	0.138	-0.239
-722.850	-41.642	-0.182	-0.094
-721.835	-13.455	0.243	-0.158
-720.821	5.075	-0.166	0.123
-719.806	-200.000	-0.005	-0.346
-718.791	-200.000	-0.009	0.237
-717.777	-200.000	-0.049	0.383
-716.762	-200.000	0.035	0.243
-715.748	-200.000	0.025	-0.177
-714.733	-41.738	-0.188	-0.097
-713.718	800.000	-0.025	-0.083
-712.704	420.737	0.202	0.435
-711.689	-109.549	-0.239	-0.051
-710.675	344.571	0.104	-0.205
-709.660	182.836	0.031	-0.046
-708.645	-185.070	0.168	0.003
-707.631	-88.598	0.174	-0.052
-706.616	583.012	-0.123	-0.304
-705.602	-121.667	0.092	0.015
-704.587	-200.000	0.035	0.280
-703.572	6.201	-0.098	0.073
-702.558	-167.339	-0.147	-0.006
-701.543	72.292	0.077	-0.081
-700.529	-46.534	0.126	-0.062
-699.514	72.402	0.397	-0.417
-698.499	76.907	-0.258	0.275
-697.485	185.466	-0.029	0.044
-696.470	-200.000	-0.016	-0.161
-695.456	84.873	0.067	0.074
-694.441	202.175	0.100	0.156
-693.426	800.000	-0.046	0.172
-692.412	-200.000	-0.010	-0.413
-691.397	-27.515	0.406	-0.237
-690.383	800.000	0.022	0.075
-689.368	-200.000	0.028	0.407
-688.354	-143.258	-0.284	0.027
-687.339	-156.765	0.086	0.005
-686.324	231.467	-0.140	-0.231
-685.310	-167.769	0.265	0.011
-684.295	128.246	-0.087	0.111
-683.281	42.934	-0.141	-0.130
-682.266	-65.495	-0.232	0.094
-681.251	-200.000	0.031	0.332
-680.237	137.327	-0.076	0.100
-679.222	21.893	0.169	-0.139
-678.208	-200.000	0.037	-0.286
-677.193	-200.000	-0.018	-0.267
-676.178	186.525	-0.157	-0.235
-675.164	-130.305	-0.310	-0.042
-674.149	71.402	0.262	-0.274
-673.135	-63.032	-0.337	-0.140
-672.120	-200.000	-0.010	-0.044
-671.105	148.678	-0.203	-0.275
-670.091	-200.000	0.001	0.259
-669.076	800.000	-0.101	-0.337
-668.062	-174.259	-0.162	0.005
-667.047	-72.397	-0.326	-0.121
-666.032	-200.000	-0.003	0.376
-665.018	85.077	-0.069	-0.076
-664.003	-65.224	0.387	0.157
-662.989	-107.224	-0.156	-0.035
-661.974	-168.395	-0.254	0.010
-660.959	-149.648	-0.116	-0.009
-659.945	247.726	-0.130	-0.220
-658.930	-28.175	0.247	0.144
-657.916	-106.833	-0.135	-0.030
-656.901	207.453	0.087	0.137
-655.886	-200.000	0.002	-0.111
-654.872	690.878	0.091	-0.238
-653.857	-83.235	-0.123	-0.040
-652.843	800.000	0.045	0.182
-651.828	33.190	-0.108	0.094
-650.814	625.296	0.116	0.293
-649.799	241.772	-0.083	0.139
-648.784	132.770	-0.133	0.172
-647.770	763.091	0.049	-0.133
-646.755	-53.126	-0.034	-0.016
-645.741	800.000	-0.051	0.209
-644.726	-200.000	-0.019	0.523
-643.711	168.844	-0.166	-0.238
-642.697	-200.000	-0.037	-0.328
-641.682	-33.639	-0.013	0.007
-640.668	800.000	0.054	-0.203
-639.653	-95.151	0.086	0.023
-638.638	-200.000	-0.021	0.094
-637.624	800.000	-0.017	-0.051
-636.609	-153.785	-0.199	-0.014
-635.595	-96.000	-0.333	-0.089
-634.580	-200.000	-0.034	-0.456
-633.565	800.000	-0.051	-0.147
-632.551	-200.000	-0.006	-0.153
-631.536	292.893	0.077	-0.141
-630.522	46.022	-0.174	0.161
-629.507	-200.000	0.008	0.254
-628.492	-57.962	0.177	0.078
-627.478	84.006	-0.149	-0.164
-626.463	800.000	-0.208	-0.631
-625.449	-19.912	0.199	0.123
-624.434	-41.296	0.207	-0.107
-623.419	-200.000	0.111	-0.526
-622.405	-54.933	-0.238	-0.108
-621.390	-100.763	0.195	-0.048
-620.376	800.000	-0.026	0.093
-619.361	-200.000	0.107	0.519
-618.346	-148.060	0.261	0.022
-617.332	-200.000	0.007	-0.178
-616.317	379.082	-0.041	-0.083
-615.303	-13.952	-0.063	0.041
-614.288	-47.312	0.130	-0.063
-613.273	-82.152	-0.030	-0.010
-612.259	267.588	0.118	-0.207
-611.244	253.063	-0.020	-0.034
-610.230	109.825	0.078	0.094
-609.215	344.477	0.037	0.072
-608.201	-171.039	0.227	0.008
-607.186	-46.448	-0.130	-0.064
-606.171	-46.685	-0.054	-0.027
-605.157	-71.258	-0.209	-0.079
-604.142	800.000	0.064	-0.265
-603.128	153.037	-0.137	-0.187
-602.113	-144.145	0.379	-0.035
-601.098	-152.841	-0.154	0.011
-600.084	-108.728	0.117	0.025
-599.069	-170.119	0.024	0.001
-598.055	-83.882	-0.182	0.058
-597.040	-26.871	-0.260	-0.152
-596.025	-200.000	0.002	-0.159
-595.011	-151.307	-0.149	-0.011
-593.996	-173.055	-0.390	-0.012
-592.982	-200.000	-0.029	0.330
-591.967	-14.792	0.015	0.010
-590.952	53.022	0.156	0.150
-589.938	44.789	-0.062	-0.057
-588.923	238.227	-0.043	-0.072
-587.909	800.000	0.038	0.165
-586.894	-200.000	-0.025	-0.169
-585.879	461.872	-0.097	-0.216
-584.865	225.199	0.185	0.299
-583.850	-200.000	-0.079	-0.372
-582.836	-141.157	-0.130	-0.013
-581.821	-164.424	-0.377	-0.017
-580.806	-97.921	0.092	0.024
-579.792	-26.077	-0.140	0.082
-578.777	64.414	-0.097	0.097
-577.763	-63.506	-0.174	-0.071
-576.748	160.910	-0.001	-0.002
-575.733	800.000	-0.072	0.205
-574.719	32.905	0.176	0.152
-573.704	800.000	0.077	-0.317
-572.690	25.808	0.198	-0.165
-571.675	224.809	-0.073	0.119
-570.661	-200.000	0.077	0.347
-569.646	-48.812	0.064	0.031
-568.631	291.699	0.183	0.333
-567.617	-130.899	-0.215	-0.029
-566.602	-59.044	0.263	0.114
-565.588	157.067	-0.208	-0.288
-564.573	-200.000	0.035	-0.271
-563.558	-135.551	-0.503	0.060
-562.544	-200.000	-0.013	-0.112
-561.529	-158.521	-0.221	0.013
-560.515	800.000	-0.085	-0.297
-559.500	520.352	0.072	0.169
-558.485	150.536	0.119	0.161
-557.471	-81.648	0.042	0.014
-556.456	779.987	-0.043	0.119
-555.442	20.304	0.383	-0.309
-554.427	123.472	-0.148	-0.185
-553.412	0.520	-0.052	-0.037
-552.398	153.239	-0.153	0.209
-551.383	516.512	0.177	-0.413
-550.369	-200.000	0.021	0.199
-549.354	203.691	-0.186	0.287
-548.339	-137.407	0.319	-0.036
-547.325	576.986	-0.104	-0.254
-546.310	-37.532	-0.208	-0.111
-545.296	98.726	0.220	0.253
-544.281	-9.007	0.121	-0.081
-543.266	-92.593	-0.119	-0.033
-542.252	-11.314	-0.364	0.239
-541.237	76.089	-0.194	0.205
-540.223	255.429	0.079	-0.135
-539.208	197.283	-0.115	-0.175
-538.193	-114.246	-0.569	-0.110
-537.179	800.000	0.049	-0.136
-536.164	33.693	-0.165	0.143
-535.150	10.613	0.269	0.205
-534.135	39.684	0.151	-0.135
-533.121	800.000	-0.099	-0.381
-532.106	7.279	-0.314	-0.234
-531.091	800.000	0.048	-0.172
-530.077	-100.171	0.305	0.076
-529.062	90.212	0.192	0.215
-528.048	-200.000	-0.018	-0.361
-527.033	-40.824	0.091	-0.047
-526.018	-15.155	0.123	-0.079
-525.004	-200.000	-0.008	-0.129
-523.989	51.285	0.141	-0.134
-522.975	-183.517	0.413	0.007
-521.960	-42.880	-0.261	0.132
-520.945	92.082	-0.187	0.211
-519.931	-15.260	-0.326	0.208
-518.916	-200.000	0.001	0.082
-517.902	-200.000	0.004	-0.291
-516.887	141.039	-0.119	-0.157
-515.872	7.480	-0.083	0.062
-514.858	-171.763	0.204	0.007
-513.843	-144.957	-0.119	-0.011
-512.829	280.464	-0.210	0.374
-511.814	-114.490	-0.204	0.039
-510.799	299.561	-0.091	-0.167
-509.785	-88.861	0.242	-0.072
-508.770	220.164	-0.126	0.201
-507.756	37.818	0.252	-0.224
-506.741	114.238	-0.164	0.199
-505.726	-165.703	-0.142	-0.006
-504.712	538.924	0.207	0.490
-503.697	-36.693	0.243	-0.130
-502.683	-200.000	0.055	-0.364
-501.668	-188.749	0.257	-0.003
-500.653	318.059	-0.179	0.337
-499.639	54.277	-0.096	0.092
-498.624	350.020	0.154	-0.303
-497.610	-116.130	0.047	-0.009
-496.595	79.154	0.066	0.071
-495.581	49.608	-0.128	-0.121
-494.566	800.000	-0.073	0.255
-493.551	12.504	-0.128	0.099
-492.537	112.094	-0.095	0.115
-491.522	-200.000	-0.037	0.164
-490.508	-130.770	-0.267	0.036
-489.493	-24.725	-0.257	0.153
-488.478	-200.000	0.021	0.271
-487.464	-101.845	0.213	0.051
-486.449	-101.335	-0.406	0.099
-485.435	-200.000	-0.044	0.294
-484.420	-200.000	-0.025	0.469
-483.405	-139.052	-0.194	0.021
-482.391	285.376	-0.177	0.318
-481.376	193.751	-0.182	-0.274
-480.362	-114.719	-0.098	0.019
-479.347	-200.000	0.050	0.442
-478.332	-54.424	-0.332	-0.150
-477.318	269.644	-0.060	0.104
-476.303	-69.516	-0.037	-0.014
-475.289	-145.986	0.267	0.024
-474.274	-101.750	-0.764	-0.184
-473.259	12.973	-0.234	0.180
-472.245	67.640	0.137	0.139
-471.230	-200.000	0.043	0.246
-470.216	-110.490	0.101	0.021
-469.201	-102.163	0.156	-0.037
-468.186	293.744	0.040	0.072
-467.172	-114.022	0.341	-0.066
-466.157	81.746	-0.129	0.139
-465.143	-124.865	-0.305	-0.047
-464.128	150.688	-0.198	-0.268
-463.113	800.000	0.069	-0.262
-462.099	-9.777	0.309	-0.205
-461.084	-142.736	-0.089	-0.009
-460.070	34.852	0.041	0.035
-459.055	-176.210	-0.454	0.012
-458.040	-198.854	0.109	-0.001
-457.026	-200.000	-0.016	-0.260
-456.011	-40.400	0.281	0.145
-454.997	-0.267	0.218	-0.154
-453.982	407.573	-0.137	-0.289
-452.968	412.745	-0.093	-0.197
-451.953	647.110	0.093	-0.236
-450.938	-26.769	0.178	-0.104
-449.924	-87.533	-0.265	0.080
-448.909	-115.513	-0.285	0.053
-447.895	-153.865	-0.068	-0.005
-446.880	-24.534	0.029	-0.017
-445.865	-29.416	0.152	0.087
-444.851	800.000	-0.029	-0.101
-443.836	201.982	-0.083	0.127
-442.822	26.464	-0.177	-0.147
-441.807	-76.328	0.244	-0.086
-440.792	229.849	0.127	0.207
-439.778	800.000	-0.015	-0.043
-438.763	800.000	-0.020	0.085
-437.749	800.000	-0.059	0.233
-436.734	127.744	0.166	0.209
-435.719	-39.199	0.310	0.162
-434.705	800.000	0.017	-0.068
-433.690	118.920	0.119	0.146
-432.676	92.827	0.167	0.188
-431.661	800.000	-0.058	-0.181
-430.646	-200.000	-0.002	-0.115
-429.632	176.821	-0.124	0.179
-428.617	-89.367	0.593	0.174
-427.603	-200.000	-0.061	0.567
-426.588	7.232	-0.279	-0.207
-425.573	-133.123	0.230	0.029
-424.559	361.068	0.190	0.379
-423.544	-94.405	-0.325	-0.088
-422.530	32.252	-0.168	-0.144
-421.515	47.911	-0.088	-0.082
-420.500	51.275	-0.227	-0.214
-419.486	-200.000	0.010	-0.133
-418.471	154.073	-0.160	-0.218
-417.457	-121.627	0.550	-0.091
-416.442	642.701	-0.150	0.381
-415.428	-146.414	-0.255	0.022
-414.413	-200.000	-0.020	0.104
-413.398	-110.095	-0.258	-0.054
-412.384	-19.480	0.273	-0.168
-411.369	-178.590	0.388	0.009
-410.355	164.778	-0.033	0.047
-409.340	238.700	0.086	0.143
-408.325	-76.016	0.117	0.041
-407.311	-5.035	-0.371	0.254
-406.296	-200.000	0.040	0.327
-405.282	-200.000	0.014	0.244
-404.267	-200.000	0.024	0.297
-403.252	800.000	-0.069	0.216
-402.238	-200.000	0.004	0.152
-401.223	29.166	-0.068	0.058
-400.209	-143.130	-0.242	-0.023
-399.194	800.000	-0.047	-0.166
-398.179	-84.153	-0.288	-0.091
-397.165	800.000	-0.073	-0.221
-396.150	-97.200	0.117	-0.030
-395.136	-34.774	0.172	0.093
-394.121	-200.000	0.029	-0.220
-393.106	800.000	0.105	-0.309
-392.092	-128.139	0.343	-0.049
-391.077	72.215	-0.065	-0.067
-390.063	-81.043	0.112	-0.037
-389.048	-102.492	0.314	-0.075
-388.033	-45.335	0.422	0.208
-387.019	-200.000	0.008	-0.148
-386.004	597.500	0.073	-0.180
-384.990	102.262	0.142	-0.165
-383.975	-60.832	-0.147	-0.062
-382.960	74.052	0.038	0.039
-381.946	-64.307	-0.061	-0.025
-380.931	-80.186	-0.062	0.021
-379.917	-109.135	-0.246	0.052
-378.902	800.000	-0.116	-0.322
-377.888	6.838	0.308	0.228
-376.873	-180.902	-0.133	0.003
-375.858	800.000	0.069	0.259
-374.844	181.590	0.209	0.305
-373.829	553.446	-0.067	0.160
-372.815	-87.981	-0.215	-0.064
-371.800	-200.000	-0.100	-0.453
-370.785	125.596	0.244	-0.306
-369.771	38.324	-0.142	0.125
-368.756	-55.605	-0.140	0.062
-367.742	-43.106	0.147	0.074
-366.727	-200.000	0.030	0.287
-365.712	30.292	-0.113	0.095
-364.698	152.412	0.153	0.207
-363.683	409.981	-0.067	-0.140
-362.669	-177.937	-0.244	0.006
-361.654	-200.000	0.039	-0.358
-360.639	187.176	0.155	-0.229
-359.625	143.423	0.110	0.145
-358.610	89.299	0.101	0.111
-357.596	438.137	-0.081	0.176
-356.581	5.726	0.051	0.038
-355.566	303.871	-0.130	0.239
-354.552	-103.791	0.217	0.050
-353.537	-121.817	-0.282	0.046
-352.523	800.000	0.052	-0.183
-351.508	-200.000	-0.052	-0.301
-350.493	126.001	-0.135	-0.169
-349.479	530.001	-0.079	0.185
-348.464	319.267	0.359	0.676
-347.450	800.000	0.035	0.107
-346.435	-11.130	0.096	0.063
-345.420	136.589	0.095	0.124
-344.406	-90.887	0.118	-0.034
-343.391	-157.814	0.096	-0.006
-342.377	126.994	-0.196	0.246
-341.362	-200.000	-0.012	0.250
-340.348	-54.972	0.199	-0.089
-339.333	-200.000	-0.021	-0.178
-338.318	-200.000	-0.004	0.019
-337.304	-11.349	-0.208	-0.136
-336.289	-98.176	0.243	0.062
-335.275	800.000	-0.057	-0.194
-334.260	-200.000	-0.067	0.310
-333.245	267.082	0.090	0.156
-332.231	-200.000	-0.016	-0.097
-331.216	-200.000	-0.023	0.174
-330.202	-200.000	0.014	-0.084
-329.187	-104.483	-0.128	-0.029
-328.172	43.191	-0.106	-0.096
-327.158	-81.952	0.160	0.052
-326.143	26.188	0.058	-0.048
-325.129	800.000	0.069	-0.212
-324.114	-200.000	-0.009	-0.119
-323.099	-200.000	0.025	0.155
-322.085	-200.000	-0.019	0.152
-321.070	27.661	-0.150	-0.125
-320.056	-47.753	0.064	-0.031
-319.041	-200.000	0.055	0.277
-318.026	-128.498	-0.096	-0.014
-317.012	-74.024	0.291	-0.104
-315.997	69.965	-0.264	-0.270
-314.983	-2.089	-0.073	0.050
-313.968	-132.989	0.256	-0.032
-312.953	-9.296	-0.137	-0.091
-311.939	-23.664	-0.152	-0.090
-310.924	108.520	0.096	0.114
-309.910	693.412	-0.114	-0.295
-308.895	-200.000	-0.029	-0.391
-307.880	-200.000	0.005	-0.032
-306.866	-132.612	-0.043	-0.006
-305.851	-200.000	-0.014	0.130
-304.837	-200.000	0.029	-0.375
-303.822	112.037	-0.126	0.151
-302.807	-130.326	-0.210	0.028
-301.793	-173.712	0.095	0.003
-300.778	-11.512	-0.033	0.021
-299.764	-57.883	0.336	0.145
-298.749	-110.623	-0.083	-0.017
-297.735	-200.000	-0.009	0.081
-296.720	800.000	-0.039	-0.119
-295.705	279.311	0.121	-0.214
-294.691	-53.061	0.362	-0.165
-293.676	307.749	-0.078	0.144
-292.662	39.521	-0.192	-0.170
-291.647	-200.000	0.004	-0.105
-290.632	-94.178	0.025	-0.007
-289.618	166.879	-0.110	0.155
-288.603	800.000	-0.131	0.422
-287.589	-68.658	-0.055	-0.021
-286.574	-200.000	0.014	0.200
-285.559	-126.688	0.191	-0.028
-284.545	58.561	0.340	0.330
-283.530	-71.094	-0.210	0.078
-282.516	414.052	0.143	-0.302
-281.501	800.000	-0.071	0.220
-280.486	-78.848	0.322	-0.108
-279.472	35.021	0.194	-0.168
-278.457	31.556	0.164	-0.140
-277.443	-146.940	-0.243	0.021
-276.428	-90.560	0.082	0.023
-275.413	-13.690	-0.137	-0.088
-274.399	507.887	-0.060	0.137
-273.384	258.138	0.040	0.068
-272.370	104.945	0.191	0.223
-271.355	-119.486	-0.401	0.069
-270.340	10.401	-0.131	-0.098
-269.326	-41.114	0.231	0.118
-268.311	1.208	-0.293	0.208
-267.297	33.536	0.253	-0.217
-266.282	234.512	0.151	-0.246
-265.267	78.227	0.131	0.138
-264.253	-127.270	-0.180	-0.026
-263.238	-1.429	0.057	-0.040
-262.224	-200.000	0.040	-0.254
-261.209	800.000	0.020	-0.074
-260.195	-76.444	-0.171	0.059
-259.180	-33.792	0.136	-0.074
-258.165	-63.416	0.156	0.063
-257.151	81.750	0.149	-0.159
-256.136	89.782	-0.133	-0.147
-255.122	-200.000	0.010	-0.084
-254.107	481.989	0.093	-0.210
-253.092	-200.000	-0.003	0.502
-252.078	379.443	-0.068	0.137
-251.063	-41.389	0.199	0.101
-250.049	672.240	-0.146	0.373
-249.034	192.081	0.191	0.284
-248.019	518.163	0.058	0.135
-247.005	-18.070	0.185	0.115
-245.990	-200.000	0.008	0.062
-244.976	25.622	-0.421	-0.346
-243.961	402.856	0.092	-0.191
-242.946	-15.929	0.284	0.179
-241.932	753.104	0.040	-0.106
-240.917	800.000	-0.054	0.194
-239.903	424.567	-0.120	-0.255
-238.888	-168.244	0.389	0.015
-237.873	41.861	0.168	-0.151
-236.859	-36.345	-0.127	-0.068
-235.844	800.000	0.062	0.262
-234.830	-200.000	-0.015	-0.125
-233.815	238.129	-0.137	0.224
-232.800	-0.172	0.228	0.160
-231.786	-97.342	0.128	-0.033
-230.771	308.489	-0.052	-0.095
-229.757	-120.845	0.045	0.008
-228.742	-183.863	-0.089	-0.001
-227.727	-200.000	0.000	-0.036
-226.713	132.653	0.062	0.079
-225.698	61.778	0.235	0.231
-224.684	135.053	0.058	0.075
-223.669	47.418	-0.168	0.154
-222.655	130.315	0.122	0.155
-221.640	185.221	-0.127	-0.186
-220.625	-44.430	0.421	-0.208
-219.611	381.434	-0.092	-0.187
-218.596	-29.874	-0.162	0.091
-217.582	-92.849	-0.257	0.071
-216.567	35.815	0.266	-0.231
-215.552	740.749	-0.069	0.183
-214.538	-73.635	-0.159	-0.057
-213.523	-45.154	0.150	-0.074
-212.509	123.617	-0.123	0.152
-211.494	-113.122	0.153	-0.030
-210.479	329.826	0.100	0.189
-209.465	800.000	0.026	-0.105
-208.450	296.267	0.010	-0.019
-207.436	15.898	0.063	-0.049
-206.421	-130.898	0.170	0.022
-205.406	-6.818	0.250	0.168
-204.392	-200.000	0.064	-0.354
-203.377	-124.663	0.423	-0.065
-202.363	-148.595	0.190	-0.015
-201.348	127.886	-0.189	-0.237
-200.333	302.829	0.166	0.304
-199.319	-139.219	0.316	-0.034
-198.304	456.975	-0.032	-0.071
-197.290	-106.893	0.348	-0.076
-196.275	-200.000	-0.012	-0.180
-195.260	-200.000	0.007	-0.089
-194.246	487.199	-0.051	0.114
-193.231	-25.597	-0.113	-0.066
-192.217	406.375	-0.034	-0.070
-191.202	-133.028	0.190	-0.024
-190.187	-200.000	0.017	-0.193
-189.173	-70.948	0.125	-0.046
-188.158	-200.000	0.025	0.124
-187.144	4.349	0.094	-0.068
-186.129	-200.000	-0.021	-0.152
-185.114	-200.000	-0.022	-0.304
-184.100	-200.000	0.021	-0.159
-183.085	-44.609	0.077	0.038
-182.071	116.188	-0.127	0.153
-181.056	516.066	0.057	-0.132
-180.042	-164.639	-0.326	-0.015
-179.027	25.356	0.087	-0.071
-178.012	-14.659	0.129	-0.082
-176.998	377.100	0.054	0.110
-175.983	73.090	-0.120	0.124
-174.969	-24.605	0.171	-0.100
-173.954	-151.157	0.308	-0.023
-172.939	-41.296	-0.450	-0.228
-171.925	36.418	0.096	-0.084
-170.910	-103.008	0.191	0.045
-169.896	-63.661	-0.175	-0.071
-168.881	157.226	-0.205	0.280
-167.866	198.228	-0.176	-0.265
-166.852	-105.007	0.108	-0.024
-165.837	-101.137	-0.092	0.022
-164.823	-200.000	0.003	-0.064
-163.808	800.000	0.024	0.097
-162.793	-52.054	-0.315	0.144
-161.779	-200.000	-0.036	-0.226
-160.764	465.811	-0.079	0.175
-159.750	-200.000	0.031	0.226
-158.735	-2.010	-0.056	-0.039
-157.720	240.259	-0.064	-0.105
-156.706	66.702	-0.212	0.212
-155.691	-200.000	-0.032	0.262
-154.677	-200.000	0.018	0.130
-153.662	-156.287	0.156	-0.010
-152.647	-34.599	0.262	-0.141
-151.633	-200.000	-0.066	-0.367
-150.618	-200.000	-0.027	-0.168
-149.604	157.833	0.177	0.241
-148.589	-89.265	0.364	0.106
-147.574	694.205	-0.063	-0.164
-146.560	387.224	-0.220	-0.447
-145.545	-97.214	0.307	-0.079
-144.531	800.000	0.093	-0.391
-143.516	6.358	-0.124	-0.091
-142.502	198.131	-0.001	-0.002
-141.487	-182.643	0.166	-0.003
-140.472	91.719	0.105	-0.117
-139.458	-109.472	-0.483	0.100
-138.443	-90.187	-0.440	-0.126
-137.429	537.519	0.258	-0.603
-136.414	-119.913	-0.086	-0.015
-135.399	-64.218	-0.234	0.094
-134.385	274.397	-0.084	0.146
-133.370	-132.389	-0.350	0.044
-132.356	-200.000	-0.032	0.281
-131.341	-150.338	0.169	-0.013
-130.326	-21.808	-0.185	0.111
-129.312	-200.000	-0.010	-0.405
-128.297	-96.317	-0.072	-0.019
-127.283	112.921	-0.129	0.154
-126.268	-43.446	0.112	0.056
-125.253	25.555	0.134	0.110
-124.239	-39.495	-0.246	0.126
-123.224	464.087	0.129	0.283
-122.210	54.631	-0.250	0.237
-121.195	-200.000	-0.006	-0.134
-120.180	-125.110	0.099	0.015
-119.166	-119.188	-0.276	0.047
-118.151	-200.000	0.005	0.163
-117.137	131.736	-0.204	-0.259
-116.122	267.421	0.146	0.252
-115.107	-200.000	0.041	0.200
-114.093	-66.991	-0.283	0.110
-113.078	-115.382	0.166	0.031
-112.064	-120.923	0.352	-0.058
-111.049	-96.025	-0.120	0.031
-110.034	-200.000	0.025	0.135
-109.020	111.319	0.171	-0.203
-108.005	-67.640	-0.347	-0.134
-106.991	65.146	-0.210	-0.209
-105.976	150.968	0.038	0.050
-104.962	-158.068	0.206	0.012
-103.947	374.798	-0.100	0.200
-102.932	-200.000	-0.002	-0.086
-101.918	280.671	-0.046	-0.080
-100.903	16.582	0.154	-0.120
-99.889	-45.291	0.368	-0.180
-98.874	800.000	-0.117	-0.470
-97.859	-87.893	-0.135	-0.040
-96.845	800.000	0.106	0.364
-95.830	-59.290	0.311	0.132
-94.816	6.859	-0.311	0.228
-93.801	313.289	-0.083	-0.153
-92.786	76.550	0.140	-0.146
-91.772	-53.646	0.042	-0.019
-90.757	130.709	-0.112	-0.141
-89.743	800.000	0.030	-0.092
-88.728	-147.838	0.271	0.022
-87.713	318.707	0.029	0.054
-86.699	83.599	0.067	0.072
-85.684	357.109	0.084	-0.165
-84.670	718.686	0.015	-0.040
-83.655	-200.000	0.152	0.000
-82.640	183.726	0.102	0.149
-81.626	67.092	-0.148	0.148
-80.611	72.721	0.042	-0.043
-79.597	-85.582	-0.206	-0.063
-78.582	108.741	-0.011	0.013
-77.567	-200.000	0.031	-0.254
-76.553	25.647	0.262	0.214
-75.538	-88.044	0.185	0.055
-74.524	-200.000	0.009	0.121
-73.509	800.000	0.048	0.160
-72.494	-56.090	0.290	-0.127
-71.480	26.705	0.051	-0.042
-70.465	161.786	0.103	0.142
-69.451	800.000	-0.022	-0.083
-68.436	251.688	-0.052	0.087
-67.422	-200.000	-0.032	-0.362
-66.407	-29.675	-0.097	-0.054
-65.392	-98.537	-0.327	0.082
-64.378	-127.052	0.217	-0.031
-63.363	-30.743	-0.118	0.065
-62.349	-19.837	0.188	0.114
-61.334	104.359	-1.039	-1.199
-60.319	200.521	0.600	0.905
-59.305	800.000	-0.493	-1.340
-58.290	455.479	0.685	1.490
-57.276	800.000	0.564	1.615
-56.261	-200.000	121.559	613.823
-55.246	392.881	1555.908	3173.582
-54.232	140.630	2729.438	3534.823
-53.217	85.637	2345.398	2527.344
-52.203	30.063	2091.753	1749.250
-51.188	25.558	2007.044	1637.430
-50.173	24.342	1991.054	1613.329
-49.159	41.062	2061.276	1825.176
-48.144	39.736	2074.885	1824.899
-47.130	25.940	2027.439	1657.318
-46.115	23.906	2016.729	1629.880
-45.100	23.728	2013.779	1625.801
-44.086	23.652	2011.131	1622.905
-43.071	23.649	2008.624	1620.788
-42.057	23.596	2006.939	1618.878
-41.042	23.716	2004.626	1618.041
-40.027	23.591	2003.180	1615.670
-39.013	23.711	2000.232	1614.322
-37.998	23.722	1999.022	1613.377
-36.984	23.744	1997.068	1611.935
-35.969	23.717	1995.214	1610.133
-34.954	23.723	1993.416	1608.677
-33.940	23.779	1992.065	1608.030
-32.925	23.759	1990.430	1606.464
-31.911	23.816	1988.938	1605.711
-30.896	23.814	1987.387	1604.378
-29.881	23.826	1986.166	1603.436
-28.867	23.861	1984.420	1602.276
-27.852	23.908	1982.428	1601.025
-26.838	23.935	1980.498	1599.652
-25.823	23.891	1977.961	1597.142
-24.809	23.901	1976.680	1596.132
-23.794	23.848	1975.065	1594.291
-22.779	23.779	1973.564	1592.396
-21.765	23.777	1972.143	1591.168
-20.750	23.850	1970.185	1590.177
-19.736	23.832	1968.868	1588.894
-18.721	23.880	1966.986	1587.737
-17.706	23.857	1964.866	1585.762
-16.692	23.851	1963.709	1584.712
-15.677	23.803	1962.309	1583.093
-14.663	23.766	1961.344	1581.918
-13.648	23.802	1959.774	1580.909
-12.633	23.806	1958.605	1579.940
-11.619	23.816	1957.335	1578.941
-10.604	23.879	1955.608	1578.042
-9.590	23.784	1954.309	1576.092
-8.575	23.823	1953.041	1575.350
-7.560	23.893	1950.947	1574.218
-6.546	23.831	1949.948	1572.804
-5.531	23.862	1948.829	1572.110
-4.517	23.836	1947.556	1570.790
-3.502	23.775	1947.219	1569.917
-2.487	23.817	1945.573	1568.900
-1.473	23.815	1944.511	1567.968
-0.458	24.005	1939.073	1565.192
0.556	22.283	1919.803	1538.394
1.571	18.449	1902.499	1491.091
2.586	14.956	1926.867	1479.227
3.600	14.047	1963.103	1498.718
4.615	13.939	1956.048	1492.224
5.629	10.871	1853.789	1387.929
6.644	4.133	1739.318	1247.989
7.659	0.472	1705.760	1194.846
8.673	0.185	1702.933	1190.490
9.688	0.266	1701.559	1190.068
10.702	0.219	1699.805	1188.362
11.717	0.141	1695.420	1184.576
12.731	0.522	1694.976	1187.158
13.746	5.562	1705.804	1234.457
14.761	12.603	1720.669	1300.947
15.775	16.233	1725.982	1333.582
16.790	16.672	1725.539	1336.584
17.804	15.817	1722.756	1327.572
18.819	15.040	1718.720	1318.224
19.834	14.327	1717.265	1311.378
20.848	14.056	1715.458	1307.754
21.863	13.784	1714.186	1304.533
22.877	13.551	1712.557	1301.349
23.892	13.303	1711.032	1298.123
24.907	13.227	1709.800	1296.478
25.921	13.191	1708.718	1295.263
26.936	13.165	1707.823	1294.265
27.950	13.186	1706.919	1293.628
28.965	13.389	1706.134	1294.511
29.980	13.366	1705.384	1293.647
30.994	13.312	1704.461	1292.409
32.009	13.428	1703.352	1292.356
33.023	13.425	1702.930	1291.898
34.038	13.497	1701.890	1291.562
35.053	13.436	1700.450	1289.874
36.067	13.319	1699.638	1288.238
37.082	13.386	1698.620	1287.872
38.096	13.435	1697.136	1287.016
39.111	13.444	1696.374	1286.392
40.126	13.354	1695.998	1285.296
41.140	13.337	1694.614	1283.995
42.155	13.412	1692.910	1283.176
43.169	13.223	1691.807	1280.765
44.184	13.311	1690.696	1280.485
45.199	13.244	1689.524	1278.966
46.213	13.257	1688.289	1278.020
47.228	13.234	1687.480	1277.119
48.242	13.326	1685.870	1276.496
49.257	13.302	1684.788	1275.383
50.271	13.258	1684.151	1274.449
51.286	13.234	1682.437	1272.849
52.301	13.204	1681.405	1271.724
53.315	13.315	1679.569	1271.078
54.330	13.294	1677.752	1269.427
55.344	13.332	1676.182	1268.423
56.359	13.285	1674.863	1266.948
57.374	13.211	1674.085	1265.687
58.388	13.219	1673.143	1264.917
59.403	13.237	1671.505	1263.710
60.417	13.173	1670.275	1262.179
61.432	13.149	1668.930	1260.865
62.447	13.187	1667.486	1259.953
63.461	13.081	1666.819	1258.529
64.476	13.147	1665.600	1258.002
65.490	13.125	1664.068	1256.563
66.505	13.086	1662.923	1255.289
67.520	13.169	1661.597	1254.813
68.534	13.160	1660.919	1254.122
69.549	13.244	1659.285	1253.413
70.563	13.193	1658.688	1252.462
71.578	13.092	1657.198	1250.463
72.593	13.178	1656.086	1250.163
73.607	13.108	1654.996	1248.703
74.622	13.113	1653.357	1247.394
75.636	13.100	1652.499	1246.535
76.651	13.111	1651.535	1245.782
77.666	13.100	1650.934	1245.136
78.680	13.032	1649.709	1243.585
79.695	13.041	1648.973	1242.991
80.709	13.043	1647.433	1241.733
81.724	13.090	1646.940	1241.607
82.739	13.235	1645.507	1241.505
83.753	13.202	1644.847	1240.651
84.768	13.209	1644.518	1240.342
85.782	13.333	1643.376	1240.304
86.797	13.305	1641.907	1238.879
87.812	13.292	1641.048	1238.024
88.826	13.354	1639.731	1237.382
89.841	13.193	1639.136	1235.621
90.855	13.254	1637.668	1234.862
91.870	13.261	1636.353	1233.812
92.884	13.301	1636.020	1233.749
93.899	13.295	1634.763	1232.645
94.914	13.328	1633.194	1231.600
95.928	13.402	1631.727	1230.933
96.943	13.417	1630.330	1229.886
97.957	13.390	1629.059	1228.616
98.972	13.283	1628.172	1227.045
99.987	13.309	1626.089	1225.559
101.001	13.353	1624.565	1224.624
102.016	13.300	1623.123	1223.040
103.030	13.361	1621.647	1222.268
104.045	13.400	1620.370	1221.489
105.060	13.319	1618.950	1219.715
106.074	13.336	1617.373	1218.538
107.089	13.277	1616.470	1217.320
108.103	13.295	1614.311	1215.717
109.118	13.166	1613.168	1213.800
110.133	13.177	1611.393	1212.436
111.147	13.184	1610.390	1211.628
112.162	13.178	1609.080	1210.492
113.176	13.223	1607.307	1209.382
114.191	13.168	1606.436	1208.219
115.206	13.289	1604.393	1207.457
116.220	13.293	1603.414	1206.641
117.235	13.267	1602.094	1205.353
118.249	13.307	1600.733	1204.513
119.264	13.229	1599.771	1203.117
120.279	13.300	1598.017	1202.207
121.293	13.269	1596.902	1201.033
122.308	13.050	1595.570	1198.337
123.322	13.262	1593.435	1198.166
124.337	13.212	1591.967	1196.591
125.352	13.169	1590.855	1195.341
126.366	13.169	1589.777	1194.424
127.381	13.204	1588.354	1193.505
128.395	13.100	1587.391	1191.925
129.410	13.137	1586.458	1191.380
130.424	13.163	1584.817	1190.234
131.439	13.272	1582.939	1189.500
132.454	13.275	1581.730	1188.509
133.468	13.260	1580.239	1187.179
134.483	13.260	1578.547	1185.801
135.497	13.275	1577.233	1184.813
136.512	13.260	1575.739	1183.479
137.527	13.387	1574.462	1183.322
138.541	13.336	1573.549	1182.172
139.556	13.311	1572.181	1180.862
140.570	13.282	1571.175	1179.795
141.585	13.333	1569.161	1178.536
142.600	13.401	1567.939	1178.004
143.614	13.483	1566.725	1177.571
144.629	13.579	1565.031	1176.871
145.643	13.457	1564.365	1175.404
146.658	13.498	1563.011	1174.567
147.673	13.528	1560.856	1173.059
148.687	13.406	1559.972	1171.431
149.702	13.423	1558.342	1170.219
150.716	13.409	1556.734	1168.809
151.731	13.404	1555.543	1167.775
152.746	13.407	1554.172	1166.664
153.760	13.487	1552.312	1165.729
154.775	13.473	1551.024	1164.561
155.789	13.507	1549.694	1163.702
156.804	13.472	1548.838	1162.706
157.819	13.592	1547.244	1162.248
158.833	13.586	1546.604	1161.622
159.848	13.578	1545.203	1160.414
160.862	13.644	1543.900	1159.792
161.877	13.663	1542.353	1158.662
162.892	13.671	1541.260	1157.795
163.906	13.543	1539.975	1155.833
164.921	13.439	1538.916	1154.213
165.935	13.480	1538.168	1153.831
166.950	13.575	1536.357	1153.031
167.964	13.612	1534.816	1152.030
168.979	13.597	1534.612	1151.673
169.994	13.673	1533.501	1151.265
171.008	13.662	1532.043	1149.994
172.023	13.705	1531.091	1149.471
173.037	13.679	1530.050	1148.409
174.052	13.706	1529.031	1147.730
175.067	13.696	1527.721	1146.580
176.081	13.648	1526.579	1145.289
177.096	13.643	1525.214	1144.130
178.110	13.662	1524.113	1143.332
179.125	13.575	1523.055	1141.835
180.140	13.695	1522.337	1142.025
181.154	13.649	1521.145	1140.714
182.169	13.832	1519.441	1140.593
183.183	13.839	1518.222	1139.624
184.198	13.771	1517.570	1138.566
185.213	13.841	1516.026	1137.785
186.227	13.870	1514.907	1137.044
187.242	13.892	1514.074	1136.468
188.256	13.950	1513.037	1135.988
189.271	13.946	1511.658	1134.822
190.286	13.976	1510.581	1134.122
191.300	13.974	1509.886	1133.483
192.315	13.879	1508.081	1131.378
193.329	13.699	1507.612	1129.703
194.344	13.815	1506.192	1129.329
195.359	13.809	1505.307	1128.526
196.373	13.823	1504.054	1127.581
197.388	13.880	1503.097	1127.149
198.402	13.935	1502.168	1126.728
199.417	14.018	1500.706	1126.092
200.432	14.082	1499.266	1125.346
201.446	14.165	1498.727	1125.405
202.461	14.164	1497.292	1124.222
203.475	14.175	1495.979	1123.208
204.490	14.081	1495.663	1122.239
205.504	14.143	1494.552	1121.722
206.519	14.085	1493.605	1120.520
207.534	14.099	1491.948	1119.276
208.548	14.104	1490.947	1118.461
209.563	14.130	1489.753	1117.639
210.577	14.100	1489.266	1116.973
211.592	14.043	1488.279	1115.748
212.607	14.144	1487.592	1115.812
213.621	14.251	1486.499	1115.616
214.636	14.222	1485.664	1114.695
215.650	14.227	1484.359	1113.652
216.665	14.146	1483.625	1112.460
217.680	14.161	1483.300	1112.216
218.694	14.263	1482.384	1112.111
219.709	14.296	1480.946	1111.155
220.723	14.322	1480.053	1110.561
221.738	14.294	1479.364	1109.758
222.753	14.307	1477.831	1108.599
223.767	14.423	1476.926	1108.589
224.782	14.309	1475.819	1106.904
225.796	14.298	1475.359	1106.390
226.811	14.420	1474.162	1106.201
227.826	14.501	1473.365	1106.044
228.840	14.461	1472.656	1105.148
229.855	14.353	1471.776	1103.673
230.869	14.414	1470.742	1103.206
231.884	14.360	1469.977	1102.178
232.899	14.437	1468.164	1101.228
233.913	14.443	1467.051	1100.336
234.928	14.390	1466.130	1099.199
235.942	14.375	1465.064	1098.202
236.957	14.373	1463.893	1097.218
237.972	14.426	1462.338	1096.304
238.986	14.422	1461.526	1095.568
240.001	14.478	1460.539	1095.102
241.015	14.499	1459.257	1094.182
242.030	14.492	1458.089	1093.162
243.045	14.545	1457.065	1092.644
244.059	14.496	1456.428	1091.752
245.074	14.520	1455.223	1090.903
246.088	14.576	1454.600	1090.707
247.103	14.594	1453.857	1090.173
248.117	14.541	1453.459	1089.431
249.132	14.655	1452.084	1089.047
250.147	14.749	1451.519	1089.141
251.161	14.802	1451.315	1089.240
252.176	14.750	1450.640	1088.294
253.190	14.909	1449.739	1088.558
254.205	14.868	1448.673	1087.395
255.220	14.907	1447.718	1086.839
256.234	14.906	1446.907	1086.124
257.249	14.920	1446.280	1085.647
258.263	14.940	1445.377	1085.004
259.278	14.882	1444.676	1084.004
260.293	15.041	1443.357	1083.952
261.307	15.003	1442.705	1083.121
262.322	14.957	1441.791	1082.041
263.336	15.043	1441.100	1081.978
264.351	15.041	1440.127	1081.144
265.366	15.061	1439.408	1080.638
266.380	15.165	1437.664	1079.902
267.395	15.150	1436.765	1079.033
268.409	15.137	1436.127	1078.372
269.424	15.197	1435.442	1078.149
270.439	14.971	1434.622	1075.988
271.453	15.123	1432.797	1075.496
272.468	15.180	1432.195	1075.317
273.482	15.083	1431.858	1074.350
274.497	15.093	1431.186	1073.811
275.512	15.108	1429.716	1072.713
276.526	15.102	1429.029	1072.064
277.541	15.264	1427.917	1072.171
278.555	15.129	1427.201	1070.673
279.570	15.114	1426.469	1069.935
280.585	15.180	1424.951	1069.120
281.599	15.277	1424.493	1069.300
282.614	15.335	1423.326	1068.699
283.628	15.385	1422.234	1068.107
284.643	15.211	1421.205	1066.129
285.657	15.299	1419.840	1065.570
286.672	15.309	1419.076	1064.966
287.687	15.344	1418.164	1064.412
288.701	15.333	1417.243	1063.556
289.716	15.410	1416.578	1063.453
290.730	15.395	1415.407	1062.384
291.745	15.364	1414.617	1061.497
292.760	15.414	1413.533	1060.911
293.774	15.422	1412.292	1059.935
294.789	15.428	1411.510	1059.290
295.803	15.434	1410.784	1058.687
296.818	15.592	1409.738	1058.808
297.833	15.548	1409.098	1057.954
298.847	15.447	1408.259	1056.595
299.862	15.482	1407.115	1055.867
300.876	15.533	1406.152	1055.366
301.891	15.548	1405.041	1054.537
302.906	15.503	1404.699	1053.905
303.920	15.543	1403.827	1053.407
304.935	15.662	1402.752	1053.254
305.949	15.608	1401.759	1052.074
306.964	15.645	1401.528	1052.041
307.979	15.686	1400.364	1051.332
308.993	15.723	1399.653	1050.931
310.008	15.714	1398.721	1050.083
311.022	15.734	1397.349	1049.089
312.037	15.717	1396.531	1048.274
313.052	15.738	1395.744	1047.723
314.066	15.846	1394.359	1047.261
315.081	15.789	1393.296	1046.017
316.095	15.705	1392.882	1045.089
317.110	15.745	1391.518	1044.221
318.125	15.688	1390.622	1043.105
319.139	15.758	1389.473	1042.585
320.154	15.826	1388.313	1042.041
321.168	15.721	1387.553	1040.731
322.183	15.798	1386.440	1040.280
323.197	15.813	1385.737	1039.751
324.212	15.856	1384.720	1039.163
325.227	15.740	1384.356	1038.085
326.241	15.894	1383.026	1037.941
327.256	15.894	1382.320	1037.324
328.270	15.829	1381.222	1036.005
329.285	15.977	1380.291	1036.126
330.300	15.835	1379.539	1034.597
331.314	15.912	1378.322	1034.067
332.329	15.914	1377.528	1033.392
333.343	15.882	1376.506	1032.333
334.358	15.975	1375.660	1032.180
335.373	15.979	1375.540	1032.025
336.387	16.028	1374.349	1031.336
337.402	16.015	1373.479	1030.514
338.416	16.147	1372.698	1030.642
339.431	16.100	1372.132	1029.841
340.446	16.123	1371.833	1029.666
341.460	16.091	1370.611	1028.461
342.475	16.091	1369.219	1027.326
343.489	16.212	1368.635	1027.534
344.504	16.214	1367.177	1026.359
345.519	16.220	1366.628	1025.893
346.533	16.214	1365.561	1024.968
347.548	16.367	1364.768	1025.211
348.562	16.291	1364.083	1024.140
349.577	16.294	1362.990	1023.251
350.592	16.314	1362.282	1022.749
351.606	16.196	1362.032	1021.756
352.621	16.213	1360.559	1020.665
353.635	16.231	1359.528	1019.907
354.650	16.226	1358.668	1019.145
355.665	16.284	1357.526	1018.543
356.679	16.380	1356.258	1018.080
357.694	16.296	1355.326	1016.789
358.708	16.367	1354.089	1016.198
359.723	16.366	1353.069	1015.334
360.738	16.416	1351.943	1014.703
361.752	16.444	1350.752	1013.883
362.767	16.434	1349.918	1013.107
363.781	16.409	1349.193	1012.327
364.796	16.439	1348.645	1012.003
365.810	16.453	1347.955	1011.482
366.825	16.474	1346.742	1010.606
367.840	16.538	1346.164	1010.468
368.854	16.508	1345.712	1009.860
369.869	16.599	1345.020	1009.791
370.883	16.524	1344.434	1008.813
371.898	16.559	1343.937	1008.565
372.913	16.608	1342.841	1007.945
373.927	16.634	1341.743	1007.184
374.942	16.754	1340.560	1006.919
375.956	16.726	1340.304	1006.474
376.971	16.655	1339.494	1005.356
377.986	16.644	1338.882	1004.743
379.000	16.605	1337.682	1003.521
380.015	16.606	1336.766	1002.750
381.029	16.765	1335.913	1002.961
382.044	16.739	1335.676	1002.544
383.059	16.803	1334.735	1002.123
384.073	16.768	1333.994	1001.271
385.088	16.915	1333.052	1001.347
386.102	16.830	1332.485	1000.332
387.117	16.838	1331.738	999.726
388.132	16.936	1331.056	999.708
389.146	16.813	1330.494	998.467
390.161	16.828	1329.611	997.809
391.175	16.903	1328.676	997.460
392.190	16.950	1327.766	996.966
393.205	16.926	1327.008	996.166
394.219	16.978	1325.626	995.345
395.234	17.033	1324.389	994.649
396.248	17.031	1323.250	993.697
397.263	17.085	1321.715	992.770
398.278	16.988	1320.679	991.339
399.292	16.919	1319.785	990.177
400.307	16.925	1318.701	989.312
401.321	16.934	1317.595	988.447
402.336	16.970	1316.423	987.688
403.350	16.954	1315.696	986.965
404.365	17.019	1314.474	986.338
405.380	17.071	1313.864	986.094
406.394	17.078	1313.031	985.419
407.409	17.070	1312.547	984.927
408.423	17.071	1311.656	984.173
409.438	17.188	1310.689	984.038
410.453	17.214	1310.203	983.736
411.467	17.220	1309.563	983.203
412.482	17.313	1308.841	983.113
413.496	17.336	1308.054	982.571
414.511	17.255	1307.001	981.222
415.526	17.241	1306.552	980.721
416.540	17.352	1305.627	980.576
417.555	17.346	1305.663	980.484
418.569	17.345	1304.710	979.674
419.584	17.328	1304.068	979.007
420.599	17.320	1303.728	978.619
421.613	99.255	1361.277	1487.881
422.628	97.597	1369.588	1487.941
