DTS Sentinel unit serial number:	SN413079Multiplexer serial number:	ORYXHardware model number:	OX4-SRSoftware version number:	ORYX F/W v4.00 Oryx Data Collector v3.7.2.0data status	okinstallation	princeton_trtdifferential loss correction	single-endedforward channel	channel 4reverse channel	N/Adate	2019/09/12time	17:03:10forward acquisition time	60.00reverse acquisition time	0.00gamma	496.2192k internal	0.2306k external	0.2306temperature offset calibration	1.0124default loss term (dB/km)	0.3790temperature slope calibration	1.0000multiplexer offset coefficient	1.0000multiplexer slope coefficient	1.0000fibre end	0.00T internal ref (°C)	35.62T ext. ref 1 (°C)	2.76T ext. ref 2 (°C)	28.87length (m)	temperature (°C)	Stokes	anti-Stokes-747.200	-200.000	0.007	0.127
-746.185	-200.000	-0.031	0.226
-745.171	-128.037	-0.439	-0.064
-744.156	38.600	-0.084	-0.076
-743.142	-200.000	-0.003	-0.293
-742.127	-6.171	-0.460	0.319
-741.112	195.044	-0.220	0.340
-740.098	-59.106	-0.290	0.127
-739.083	-29.574	0.243	0.142
-738.069	449.660	0.042	0.093
-737.054	273.552	0.281	0.505
-736.039	57.821	-0.341	-0.339
-735.025	42.987	0.311	0.288
-734.010	372.281	0.122	-0.252
-732.996	-121.982	0.050	0.008
-731.981	-62.082	0.134	0.057
-730.966	-98.193	0.406	-0.106
-729.952	-37.202	-0.257	-0.140
-728.937	98.942	-0.188	-0.221
-727.923	-16.254	-0.044	0.028
-726.908	-41.870	-0.238	-0.124
-725.894	47.593	0.272	-0.258
-724.879	-47.169	-0.478	0.237
-723.864	-200.000	-0.060	0.349
-722.850	235.720	-0.098	-0.165
-721.835	147.032	-0.151	0.207
-720.821	10.329	-0.165	0.128
-719.806	58.604	-0.167	-0.166
-718.791	800.000	-0.065	0.259
-717.777	-86.251	0.133	0.042
-716.762	-66.866	0.418	0.168
-715.748	800.000	-0.005	-0.021
-714.733	-94.992	0.353	0.097
-713.718	-100.942	0.109	0.027
-712.704	16.019	-0.171	0.137
-711.689	117.855	-0.129	0.162
-710.675	-200.000	-0.055	0.390
-709.660	800.000	0.082	-0.344
-708.645	-144.365	0.227	-0.021
-707.631	-157.249	0.051	0.003
-706.616	86.507	0.243	0.272
-705.602	514.067	-0.080	-0.189
-704.587	800.000	0.086	0.355
-703.572	-200.000	-0.026	-0.135
-702.558	28.500	0.199	-0.171
-701.543	-42.737	0.199	0.103
-700.529	-200.000	0.015	-0.311
-699.514	-49.393	0.092	-0.044
-698.499	15.949	-0.060	-0.048
-697.485	202.045	-0.052	0.081
-696.470	27.607	0.349	-0.298
-695.456	-200.000	0.013	0.067
-694.441	-2.965	0.245	-0.173
-693.426	185.425	-0.224	-0.337
-692.412	-200.000	0.004	0.136
-691.397	12.047	0.242	0.189
-690.383	187.885	-0.094	-0.142
-689.368	800.000	-0.164	-0.494
-688.354	58.726	-0.055	-0.055
-687.339	-200.000	0.026	-0.118
-686.324	323.209	-0.111	-0.215
-685.310	-30.521	-0.080	0.046
-684.295	-113.599	-0.135	-0.027
-683.281	396.708	-0.207	0.439
-682.266	-73.141	0.302	-0.112
-681.251	-79.500	0.044	0.015
-680.237	-200.000	0.020	-0.088
-679.222	-200.000	0.024	-0.423
-678.208	-128.445	0.282	-0.041
-677.193	800.000	0.067	0.190
-676.178	172.188	-0.135	0.198
-675.164	72.388	-0.069	-0.073
-674.149	-16.885	-0.260	0.167
-673.135	-200.000	-0.004	-0.068
-672.120	-200.000	-0.003	-0.056
-671.105	-14.433	0.124	0.081
-670.091	250.041	-0.193	0.332
-669.076	7.478	0.222	-0.169
-668.062	-200.000	-0.000	-0.170
-667.047	-3.236	0.198	0.140
-666.032	127.848	-0.145	-0.188
-665.018	219.616	-0.167	-0.271
-664.003	-200.000	-0.028	0.138
-662.989	264.319	0.122	-0.215
-661.974	177.840	0.077	-0.114
-660.959	-134.392	-0.293	-0.036
-659.945	800.000	-0.092	0.311
-658.930	-151.470	0.246	0.019
-657.916	92.616	-0.142	-0.162
-656.901	-128.570	-0.119	0.017
-655.886	35.074	0.110	0.098
-654.872	-56.040	-0.107	-0.048
-653.857	800.000	0.088	-0.302
-652.843	66.635	-0.122	-0.126
-651.828	800.000	0.103	-0.336
-650.814	-24.826	0.193	0.116
-649.799	27.359	-0.043	-0.037
-648.784	41.741	-0.240	0.221
-647.770	-84.835	-0.304	-0.097
-646.755	27.406	0.226	-0.193
-645.741	95.839	-0.142	-0.165
-644.726	-99.511	-0.126	0.032
-643.711	-117.480	-0.124	0.023
-642.697	800.000	-0.076	-0.251
-641.682	-200.000	-0.004	0.100
-640.668	-159.646	-0.193	-0.011
-639.653	-118.713	-0.045	-0.008
-638.638	152.362	0.066	0.092
-637.624	-123.442	-0.292	0.047
-636.609	-170.924	-0.252	-0.009
-635.595	15.147	0.087	-0.069
-634.580	-116.911	-0.234	-0.043
-633.565	-50.378	0.175	-0.084
-632.551	-116.330	-0.182	-0.034
-631.536	16.100	0.066	-0.052
-630.522	100.348	0.114	-0.134
-629.507	628.939	-0.071	0.181
-628.492	-123.849	-0.142	0.023
-627.478	800.000	0.058	0.239
-626.463	800.000	-0.075	-0.271
-625.449	800.000	-0.024	0.093
-624.434	-66.673	-0.098	-0.039
-623.419	641.351	-0.094	-0.242
-622.405	-41.407	0.071	0.037
-621.390	275.947	-0.035	-0.063
-620.376	800.000	-0.058	-0.195
-619.361	89.203	-0.081	0.092
-618.346	-144.325	0.217	-0.020
-617.332	21.809	0.033	0.027
-616.317	-26.489	0.171	-0.101
-615.303	-102.633	-0.198	0.048
-614.288	-20.358	-0.167	-0.104
-613.273	1.424	0.441	0.321
-612.259	20.062	0.306	-0.250
-611.244	-196.253	-0.411	-0.003
-610.230	-200.000	-0.015	-0.075
-609.215	-109.271	-0.435	0.093
-608.201	125.268	-0.064	0.082
-607.186	-49.115	0.197	0.095
-606.171	241.899	0.172	-0.291
-605.157	-28.544	-0.156	0.091
-604.142	-200.000	-0.014	0.200
-603.128	-93.630	0.309	-0.086
-602.113	414.469	-0.193	-0.415
-601.098	10.670	-0.067	-0.052
-600.084	-17.497	-0.235	-0.149
-599.069	-200.000	0.049	0.527
-598.055	785.890	-0.095	-0.263
-597.040	-200.000	-0.003	0.030
-596.025	-200.000	0.009	-0.043
-595.011	-141.752	-0.226	0.023
-593.996	-200.000	0.011	0.065
-592.982	176.777	-0.124	0.183
-591.967	-179.880	-0.083	0.002
-590.952	-162.455	-0.206	0.010
-589.938	-50.431	0.179	0.086
-588.923	-4.302	0.349	0.245
-587.909	800.000	-0.209	0.625
-586.894	-139.358	0.363	0.039
-585.879	-200.000	-0.008	0.156
-584.865	-72.363	-0.146	-0.055
-583.850	-136.468	0.190	0.022
-582.836	59.479	-0.173	-0.172
-581.821	800.000	0.004	0.013
-580.806	783.715	-0.102	0.283
-579.792	-21.431	0.050	-0.031
-578.777	-91.095	0.294	0.085
-577.763	-0.184	0.264	0.190
-576.748	79.116	0.263	0.285
-575.733	62.242	0.257	-0.259
-574.719	355.098	-0.053	-0.107
-573.704	332.888	0.062	0.120
-572.690	530.955	-0.077	-0.184
-571.675	-200.000	-0.054	-0.459
-570.661	-152.636	0.305	-0.022
-569.646	10.570	-0.157	0.121
-568.631	378.828	0.083	0.172
-567.617	-200.000	0.007	0.167
-566.602	186.169	0.173	-0.260
-565.588	-22.828	0.358	-0.218
-564.573	45.610	-0.102	0.095
-563.558	-102.891	-0.141	-0.034
-562.544	-95.779	-0.148	-0.040
-561.529	-200.000	0.028	-0.349
-560.515	800.000	-0.070	-0.263
-559.500	38.487	-0.236	-0.212
-558.485	800.000	0.081	-0.261
-557.471	92.770	0.220	-0.250
-556.456	16.100	-0.112	0.089
-555.442	-200.000	0.027	-0.376
-554.427	10.717	-0.191	-0.147
-553.412	-111.324	0.213	-0.044
-552.398	-200.000	-0.031	-0.161
-551.383	-200.000	0.004	-0.137
-550.369	-70.536	0.057	-0.022
-549.354	-71.596	-0.161	-0.061
-548.339	2.863	-0.248	-0.182
-547.325	-119.217	0.024	0.004
-546.310	7.406	0.196	0.148
-545.296	-200.000	-0.038	0.270
-544.281	-200.000	0.010	-0.176
-543.266	800.000	0.006	0.023
-542.252	-200.000	-0.000	0.025
-541.237	-139.073	0.232	0.025
-540.223	47.090	-0.335	0.315
-539.208	-32.747	-0.146	-0.082
-538.193	-13.101	-0.402	-0.264
-537.179	-200.000	0.021	-0.160
-536.164	158.644	0.081	-0.114
-535.150	335.149	0.104	-0.203
-534.135	-120.605	-0.201	-0.034
-533.121	-200.000	-0.001	-0.164
-532.106	800.000	-0.023	-0.069
-531.091	381.983	-0.087	0.181
-530.077	25.130	-0.023	0.020
-529.062	20.896	0.323	-0.264
-528.048	800.000	0.046	-0.143
-527.033	-5.166	-0.213	-0.148
-526.018	-89.612	0.411	0.122
-525.004	131.327	-0.010	-0.013
-523.989	3.412	0.091	-0.067
-522.975	10.431	0.251	-0.193
-521.960	63.483	-0.226	0.228
-520.945	-35.923	-0.194	-0.106
-519.931	-147.220	0.206	0.018
-518.916	179.603	-0.300	0.443
-517.902	252.977	0.033	0.056
-516.887	-200.000	-0.012	0.353
-515.872	278.765	-0.184	-0.330
-514.858	355.069	0.064	0.129
-513.843	-113.558	-0.191	0.038
-512.829	-200.000	-0.032	0.276
-511.814	-146.288	0.256	0.023
-510.799	-22.187	0.157	-0.096
-509.785	800.000	0.079	0.234
-508.770	14.086	-0.201	0.157
-507.756	40.202	0.117	0.106
-506.741	-36.359	0.236	0.128
-505.726	-101.597	0.087	-0.021
-504.712	108.244	0.247	0.297
-503.697	102.963	0.085	-0.101
-502.683	503.022	-0.048	0.113
-501.668	60.300	-0.188	0.188
-500.653	11.995	0.073	0.056
-499.639	119.710	-0.169	-0.211
-498.624	-200.000	-0.006	0.240
-497.610	-200.000	-0.040	0.569
-496.595	332.303	0.154	-0.300
-495.581	-96.684	0.029	-0.008
-494.566	-63.745	0.086	0.035
-493.551	-200.000	-0.026	-0.296
-492.537	106.668	0.178	-0.212
-491.522	-56.074	0.198	-0.089
-490.508	-140.923	-0.296	-0.031
-489.493	-141.872	0.273	0.028
-488.478	116.398	0.122	-0.150
-487.464	-200.000	0.063	-0.368
-486.449	-22.031	-0.078	-0.048
-485.435	-56.893	0.207	0.092
-484.420	420.209	-0.216	-0.467
-483.405	-146.757	0.291	0.025
-482.391	-60.011	0.221	-0.095
-481.376	55.915	-0.172	-0.168
-480.362	327.098	0.068	-0.131
-479.347	-4.620	-0.194	0.135
-478.332	-94.970	0.071	0.019
-477.318	-169.992	0.147	0.005
-476.303	595.600	-0.098	-0.244
-475.289	51.957	0.066	-0.063
-474.274	-200.000	-0.039	-0.226
-473.259	-200.000	-0.019	0.351
-472.245	59.294	0.100	0.099
-471.230	-200.000	0.021	-0.231
-470.216	-53.032	-0.171	0.079
-469.201	24.655	-0.165	0.138
-468.186	300.424	0.080	-0.148
-467.172	-34.586	-0.084	-0.046
-466.157	-200.000	0.024	0.255
-465.143	57.945	-0.117	0.115
-464.128	56.007	-0.270	0.264
-463.113	-34.694	-0.319	-0.175
-462.099	-83.241	-0.386	0.125
-461.084	-155.852	-0.179	-0.011
-460.070	-200.000	0.036	0.312
-459.055	-57.092	-0.029	0.013
-458.040	198.644	0.234	-0.360
-457.026	-102.564	0.193	0.046
-456.011	3.645	-0.122	-0.090
-454.997	240.595	0.251	0.422
-453.982	800.000	-0.050	0.141
-452.968	425.788	-0.087	0.188
-451.953	45.825	-0.182	0.170
-450.938	800.000	-0.105	0.302
-449.924	-200.000	-0.004	0.243
-448.909	4.255	0.112	0.083
-447.895	-200.000	0.019	-0.380
-446.880	-138.213	0.158	0.018
-445.865	167.496	0.068	0.097
-444.851	45.066	0.105	-0.098
-443.836	201.746	0.087	0.136
-442.822	-83.025	-0.033	-0.011
-441.807	-162.081	-0.124	0.006
-440.792	-200.000	-0.073	-0.325
-439.778	48.685	0.176	-0.166
-438.763	-145.775	0.165	0.015
-437.749	143.152	-0.050	-0.067
-436.734	181.475	-0.102	-0.151
-435.719	-12.725	0.200	0.131
-434.705	138.256	-0.250	0.330
-433.690	-132.390	0.152	0.020
-432.676	-98.443	0.220	0.057
-431.661	71.812	-0.076	0.079
-430.646	-200.000	-0.015	0.274
-429.632	-82.839	-0.225	-0.073
-428.617	30.540	0.203	-0.174
-427.603	-158.933	0.441	0.025
-426.588	-88.957	0.163	0.049
-425.573	95.698	-0.089	-0.102
-424.559	-200.000	0.023	0.110
-423.544	-146.917	-0.383	0.033
-422.530	-120.700	0.206	-0.035
-421.515	71.444	0.270	0.282
-420.500	800.000	0.036	-0.134
-419.486	86.850	0.182	0.202
-418.471	-200.000	-0.005	0.294
-417.457	174.926	0.151	0.220
-416.442	-82.120	-0.264	-0.087
-415.428	174.416	0.164	0.238
-414.413	324.027	0.223	0.428
-413.398	61.124	-0.105	0.105
-412.384	23.120	-0.273	-0.225
-411.369	492.202	-0.069	-0.158
-410.355	313.477	-0.101	-0.192
-409.340	-9.435	-0.237	-0.159
-408.325	25.193	0.173	0.144
-407.311	-112.066	0.032	-0.006
-406.296	20.344	-0.201	0.163
-405.282	330.730	0.155	-0.301
-404.267	0.392	-0.402	-0.288
-403.252	-61.669	-0.222	0.094
-402.238	-63.339	-0.231	-0.096
-401.223	-200.000	-0.024	0.166
-400.209	-200.000	-0.060	0.323
-399.194	-200.000	-0.045	0.232
-398.179	-139.972	-0.130	0.014
-397.165	-150.179	-0.082	0.006
-396.150	9.914	-0.185	0.141
-395.136	48.543	-0.082	0.077
-394.121	-200.000	0.044	-0.231
-393.106	-36.076	-0.044	0.024
-392.092	-166.775	0.163	0.007
-391.077	-90.478	-0.072	0.021
-390.063	13.925	0.291	-0.227
-389.048	-58.344	-0.326	0.142
-388.033	-85.144	0.261	0.082
-387.019	-200.000	-0.011	-0.162
-386.004	506.195	0.187	-0.434
-384.990	-200.000	-0.056	0.268
-383.975	-23.778	-0.258	0.155
-382.960	77.900	0.100	-0.107
-381.946	-59.650	-0.267	-0.115
-380.931	248.433	-0.138	-0.235
-379.917	215.898	0.164	-0.261
-378.902	108.774	0.180	0.216
-377.888	117.206	0.241	-0.297
-376.873	-56.931	-0.158	0.070
-375.858	-178.057	0.133	-0.003
-374.844	-200.000	-0.009	0.052
-373.829	-38.012	-0.114	0.061
-372.815	-200.000	-0.042	0.271
-371.800	74.669	-0.300	0.317
-370.785	-200.000	0.039	0.214
-369.771	-60.882	-0.056	0.024
-368.756	800.000	-0.019	-0.064
-367.742	250.909	0.055	0.094
-366.727	242.004	0.065	0.110
-365.712	-8.891	-0.199	-0.133
-364.698	25.129	0.115	0.095
-363.683	-200.000	-0.007	0.083
-362.669	-89.176	-0.280	-0.083
-361.654	208.285	-0.102	0.160
-360.639	-38.442	-0.195	-0.104
-359.625	132.262	0.215	0.277
-358.610	56.607	-0.198	-0.193
-357.596	350.027	-0.260	-0.514
-356.581	-200.000	0.018	-0.192
-355.566	-169.170	0.266	0.010
-354.552	332.467	0.104	0.201
-353.537	-11.218	0.065	0.043
-352.523	137.380	0.053	-0.069
-351.508	-80.023	-0.220	-0.074
-350.493	-200.000	0.027	-0.167
-349.479	284.541	-0.113	-0.204
-348.464	335.936	0.071	-0.138
-347.450	-21.055	-0.369	0.226
-346.435	258.888	0.207	0.357
-345.420	668.756	0.088	0.229
-344.406	508.823	0.112	0.260
-343.391	14.899	0.160	-0.125
-342.377	-200.000	-0.045	-0.333
-341.362	-13.108	-0.239	0.155
-340.348	-200.000	-0.028	-0.209
-339.333	207.147	-0.089	0.139
-338.318	-76.569	-0.340	0.120
-337.304	-64.515	0.238	0.097
-336.289	691.042	0.126	0.330
-335.275	800.000	0.120	0.335
-334.260	-79.522	0.462	0.156
-333.245	84.315	-0.185	0.203
-332.231	-40.302	-0.095	-0.049
-331.216	-74.729	0.273	0.098
-330.202	-153.250	-0.216	-0.015
-329.187	57.319	-0.071	-0.070
-328.172	-200.000	0.048	-0.241
-327.158	-58.615	0.111	0.048
-326.143	-131.632	-0.265	0.035
-325.129	758.973	-0.026	-0.069
-324.114	-183.242	0.058	-0.001
-323.099	800.000	-0.039	0.118
-322.085	-132.283	-0.076	0.010
-321.070	-200.000	0.027	0.127
-320.056	714.685	-0.078	0.207
-319.041	236.825	0.195	-0.324
-318.026	-11.213	-0.066	-0.043
-317.012	-200.000	-0.048	-0.437
-315.997	-114.821	0.035	-0.007
-314.983	771.575	-0.140	-0.380
-313.968	219.162	0.102	0.163
-312.953	-34.686	-0.338	0.185
-311.939	-92.421	-0.346	0.097
-310.924	800.000	-0.049	-0.172
-309.910	319.254	0.077	0.146
-308.895	800.000	-0.024	0.074
-307.880	-200.000	0.015	-0.156
-306.866	-200.000	-0.057	-0.415
-305.851	-165.303	0.270	0.012
-304.837	244.914	-0.158	-0.266
-303.822	-200.000	0.011	-0.157
-302.807	800.000	0.150	0.425
-301.793	-85.148	-0.168	0.052
-300.778	800.000	-0.053	0.156
-299.764	-137.042	0.069	0.008
-298.749	-200.000	-0.002	-0.039
-297.735	438.658	-0.034	0.075
-296.720	-3.828	-0.074	0.052
-295.705	-24.114	0.042	0.025
-294.691	-200.000	0.040	-0.238
-293.676	464.411	0.155	0.347
-292.662	-124.384	0.355	0.055
-291.647	244.705	0.033	-0.056
-290.632	-200.000	0.030	-0.221
-289.618	-42.607	-0.227	0.115
-288.603	-121.437	0.264	0.044
-287.589	-200.000	-0.006	0.094
-286.574	-123.922	0.168	-0.026
-285.559	138.944	0.248	0.326
-284.545	-200.000	0.036	-0.164
-283.530	270.006	-0.232	0.408
-282.516	549.073	-0.101	0.241
-281.501	1.812	-0.150	0.108
-280.486	-40.874	-0.106	-0.055
-279.472	1.303	-0.212	-0.152
-278.457	9.143	-0.112	-0.084
-277.443	800.000	0.087	-0.245
-276.428	800.000	-0.147	-0.408
-275.413	-104.186	0.430	-0.100
-274.399	137.044	0.214	-0.279
-273.384	800.000	-0.036	0.137
-272.370	-23.322	0.360	-0.216
-271.355	179.639	0.046	-0.067
-270.340	-97.343	-0.204	-0.053
-269.326	-134.638	-0.194	0.024
-268.311	800.000	0.066	-0.256
-267.297	-200.000	-0.003	0.025
-266.282	800.000	-0.036	0.129
-265.267	-200.000	-0.001	0.357
-264.253	-95.710	-0.201	0.054
-263.238	-183.124	-0.194	0.003
-262.224	-31.846	0.025	-0.014
-261.209	-22.115	0.223	0.135
-260.195	-100.412	-0.096	0.024
-259.180	351.483	0.082	-0.161
-258.165	800.000	0.073	-0.233
-257.151	-200.000	0.025	-0.134
-256.136	-130.590	-0.074	-0.010
-255.122	-59.498	-0.101	-0.043
-254.107	13.335	-0.041	-0.032
-253.092	-104.043	0.226	-0.052
-252.078	32.986	0.076	-0.066
-251.063	-115.609	-0.103	-0.019
-250.049	99.863	0.287	0.332
-249.034	4.119	0.252	-0.184
-248.019	166.201	-0.218	0.307
-247.005	-51.131	-0.188	0.088
-245.990	-200.000	0.014	0.080
-244.976	800.000	-0.013	-0.045
-243.961	800.000	-0.065	0.218
-242.946	65.503	-0.076	0.077
-241.932	-200.000	0.026	0.153
-240.917	-136.245	-0.423	-0.049
-239.903	354.807	0.141	-0.279
-238.888	102.259	-0.174	-0.203
-237.873	53.072	0.089	-0.085
-236.859	-109.266	0.277	-0.059
-235.844	478.824	-0.117	-0.263
-234.830	-129.514	-0.103	-0.014
-233.815	-67.842	0.113	0.044
-232.800	162.010	0.143	-0.199
-231.786	265.006	0.108	0.188
-230.771	-63.241	0.145	-0.060
-229.757	677.269	0.039	-0.101
-228.742	-96.707	-0.255	0.067
-227.727	511.625	0.147	0.342
-226.713	-200.000	0.028	0.172
-225.698	-200.000	0.020	0.195
-224.684	-200.000	-0.007	-0.243
-223.669	800.000	-0.066	0.255
-222.655	-200.000	0.009	-0.214
-221.640	117.476	-0.131	0.161
-220.625	-200.000	-0.012	-0.075
-219.611	800.000	0.053	0.161
-218.596	-200.000	-0.020	-0.177
-217.582	-0.221	-0.296	0.210
-216.567	115.639	-0.085	0.103
-215.552	-106.468	0.459	0.102
-214.538	67.837	-0.171	-0.174
-213.523	61.518	0.203	0.201
-212.509	155.328	0.140	0.192
-211.494	-23.630	-0.134	0.080
-210.479	133.120	-0.217	0.279
-209.465	-200.000	-0.012	0.095
-208.450	-173.681	0.086	0.003
-207.436	800.000	0.070	-0.281
-206.421	-200.000	0.024	0.137
-205.406	664.464	0.083	-0.213
-204.392	-56.637	-0.110	-0.049
-203.377	266.008	0.053	-0.092
-202.363	13.898	0.086	-0.067
-201.348	311.350	0.107	0.199
-200.333	-64.035	0.342	0.139
-199.319	14.447	-0.096	-0.074
-198.304	-200.000	-0.034	0.151
-197.290	49.848	-0.062	0.059
-196.275	94.620	0.081	-0.091
-195.260	-99.574	0.174	-0.044
-194.246	-200.000	-0.002	-0.532
-193.231	268.288	0.021	-0.037
-192.217	90.728	-0.215	-0.240
-191.202	195.849	0.100	0.151
-190.187	114.470	0.104	-0.127
-189.173	14.428	0.124	-0.096
-188.158	-136.541	0.141	-0.016
-187.144	103.892	0.213	-0.249
-186.129	59.589	0.168	0.165
-185.114	7.059	-0.156	-0.116
-184.100	227.579	0.112	0.181
-183.085	-40.930	-0.138	-0.071
-182.071	-52.740	0.198	-0.091
-181.056	612.349	0.055	-0.137
-180.042	27.151	0.181	0.151
-179.027	120.727	-0.213	0.263
-178.012	609.691	-0.036	0.090
-176.998	-52.011	0.252	-0.116
-175.983	-167.967	0.267	0.010
-174.969	64.823	0.202	-0.203
-173.954	-46.631	-0.080	-0.039
-172.939	-91.187	-0.126	0.036
-171.925	39.766	0.191	-0.170
-170.910	50.567	-0.108	0.101
-169.896	27.311	0.171	0.143
-168.881	-95.997	0.193	0.051
-167.866	535.596	-0.198	0.467
-166.852	188.869	-0.116	-0.173
-165.837	-130.709	0.266	-0.036
-164.823	-130.384	0.127	-0.017
-163.808	17.579	0.015	0.012
-162.793	274.434	0.103	-0.182
-161.779	306.927	0.171	0.317
-160.764	212.654	0.116	-0.182
-159.750	51.225	-0.237	0.223
-158.735	-122.917	0.145	0.023
-157.720	381.771	-0.069	-0.141
-156.706	-182.297	-0.211	-0.004
-155.691	-2.857	0.135	0.094
-154.677	50.662	0.249	-0.235
-153.662	339.198	0.078	-0.151
-152.647	204.013	-0.266	-0.410
-151.633	-95.196	-0.195	-0.052
-150.618	-86.290	-0.339	-0.104
-149.604	126.062	0.124	0.156
-148.589	51.474	-0.109	0.103
-147.574	-200.000	0.163	-0.001
-146.560	382.066	0.145	-0.296
-145.545	-79.966	0.310	0.103
-144.531	-81.265	-0.032	0.010
-143.516	-200.000	0.030	-0.206
-142.502	-75.483	0.127	-0.045
-141.487	-98.819	0.301	-0.076
-140.472	800.000	0.060	-0.230
-139.458	68.312	-0.248	0.253
-138.443	-4.725	0.228	0.156
-137.429	40.308	-0.214	-0.191
-136.414	-200.000	-0.077	-0.422
-135.399	-200.000	-0.013	-0.074
-134.385	-165.128	0.396	0.017
-133.370	-90.558	-0.121	-0.035
-132.356	-14.646	-0.097	-0.062
-131.341	703.742	-0.058	-0.152
-130.326	124.307	-0.193	0.241
-129.312	-139.351	0.379	-0.040
-128.297	209.827	-0.116	0.181
-127.283	-200.000	-0.018	0.105
-126.268	-146.798	-0.291	-0.025
-125.253	775.186	-0.003	0.008
-124.239	-163.888	0.158	-0.007
-123.224	9.515	0.031	-0.023
-122.210	-200.000	0.010	-0.078
-121.195	800.000	-0.034	0.138
-120.180	-200.000	0.063	0.314
-119.166	-83.848	0.161	-0.051
-118.151	-200.000	-0.050	0.233
-117.137	169.949	0.154	-0.218
-116.122	800.000	-0.124	-0.389
-115.107	800.000	-0.086	0.306
-114.093	355.704	0.034	0.068
-113.078	-139.906	0.253	0.027
-112.064	-106.214	0.196	-0.044
-111.049	-51.963	-0.269	-0.124
-110.034	45.261	0.119	-0.109
-109.020	-102.207	-0.444	-0.106
-108.005	-34.558	0.307	0.167
-106.991	27.093	-0.201	-0.168
-105.976	14.100	-0.118	0.091
-104.962	170.352	0.144	0.205
-103.947	111.481	0.173	0.207
-102.932	112.656	-0.120	0.144
-101.918	198.670	0.126	-0.192
-100.903	317.782	-0.120	-0.225
-99.889	-96.664	-0.119	0.031
-98.874	128.740	0.078	-0.099
-97.859	24.373	-0.271	0.222
-96.845	-81.505	-0.145	0.047
-95.830	-32.490	-0.038	0.021
-94.816	441.055	-0.034	-0.073
-93.801	38.097	0.155	-0.137
-92.786	107.489	0.031	0.036
-91.772	556.322	0.072	0.172
-90.757	197.890	-0.217	0.329
-89.743	-29.083	-0.159	0.091
-88.728	-35.168	0.127	0.068
-87.713	-41.048	0.224	-0.115
-86.699	669.982	-0.128	0.328
-85.684	193.752	-0.088	0.132
-84.670	164.397	-0.111	0.155
-83.655	-200.000	-0.039	0.390
-82.640	-200.000	0.062	0.369
-81.626	80.631	0.134	0.144
-80.611	426.450	-0.089	-0.191
-79.597	82.283	-0.106	-0.114
-78.582	172.912	-0.085	0.122
-77.567	800.000	-0.034	-0.141
-76.553	-98.680	0.093	0.023
-75.538	-110.690	0.188	-0.038
-74.524	370.308	0.059	0.119
-73.509	594.468	0.032	0.078
-72.494	-71.902	0.168	0.062
-71.480	-6.295	0.234	0.159
-70.465	-188.818	0.223	0.003
-69.451	28.971	0.105	-0.088
-68.436	-40.937	0.343	0.176
-67.422	-99.242	-0.279	0.070
-66.407	-63.552	-0.260	-0.106
-65.392	-9.768	0.137	-0.090
-64.378	439.919	-0.116	-0.251
-63.363	42.414	0.332	0.299
-62.349	-77.804	0.297	0.102
-61.334	188.533	-0.640	-0.948
-60.319	-190.957	0.226	-0.002
-59.305	-200.000	-0.172	-1.094
-58.290	378.203	0.402	0.815
-57.276	283.874	0.702	1.250
-56.261	-200.000	95.592	579.615
-55.246	564.110	1371.053	3289.174
-54.232	152.256	2580.547	3487.650
-53.217	107.325	2314.085	2724.953
-52.203	42.464	2065.135	1859.991
-51.188	37.372	1978.164	1736.238
-50.173	35.868	1959.466	1706.435
-49.159	50.696	2011.532	1885.353
-48.144	53.660	2031.155	1930.314
-47.130	38.053	1988.241	1750.921
-46.115	35.581	1976.397	1718.339
-45.100	35.538	1973.518	1715.387
-44.086	35.507	1971.070	1712.909
-43.071	35.454	1968.673	1710.289
-42.057	35.446	1966.453	1708.218
-41.042	35.481	1964.637	1706.889
-40.027	35.446	1963.155	1705.223
-39.013	35.510	1960.600	1703.505
-37.998	35.580	1958.721	1702.418
-36.984	35.533	1957.205	1700.621
-35.969	35.546	1955.339	1699.045
-34.954	35.590	1953.019	1697.350
-33.940	35.717	1951.999	1697.517
-32.925	35.709	1950.262	1695.868
-31.911	35.664	1949.021	1694.327
-30.896	35.684	1946.917	1692.611
-29.881	35.593	1945.437	1690.451
-28.867	35.758	1943.285	1689.969
-27.852	35.689	1941.923	1688.108
-26.838	35.700	1940.684	1687.058
-25.823	35.682	1938.914	1685.299
-24.809	35.660	1936.666	1683.090
-23.794	35.582	1934.969	1680.863
-22.779	35.596	1933.625	1679.748
-21.765	35.570	1932.308	1678.310
-20.750	35.666	1929.857	1676.950
-19.736	35.692	1928.820	1676.211
-18.721	35.645	1927.398	1674.499
-17.706	35.639	1925.599	1672.817
-16.692	35.617	1924.015	1671.182
-15.677	35.709	1921.933	1670.107
-14.663	35.619	1920.996	1668.450
-13.648	35.577	1919.870	1667.038
-12.633	35.680	1918.419	1666.606
-11.619	35.619	1917.626	1665.321
-10.604	35.641	1915.528	1663.624
-9.590	35.556	1914.452	1661.890
-8.575	35.615	1912.924	1661.009
-7.560	35.628	1911.724	1660.015
-6.546	35.628	1910.242	1658.656
-5.531	35.612	1908.903	1657.294
-4.517	35.607	1907.774	1656.200
-3.502	35.511	1907.358	1654.950
-2.487	35.566	1905.745	1653.955
-1.473	35.587	1905.140	1653.543
-0.458	35.641	1900.400	1649.834
0.556	36.102	1879.512	1617.946
1.571	31.082	1858.476	1557.899
2.586	26.448	1878.977	1535.707
3.600	25.120	1913.167	1552.025
4.615	24.140	1908.014	1539.241
5.629	18.460	1805.730	1410.000
6.644	8.498	1682.560	1236.972
7.659	3.310	1642.922	1168.447
8.673	2.799	1639.675	1162.161
9.688	2.773	1638.564	1161.081
10.702	2.758	1637.632	1160.202
11.717	2.710	1633.582	1156.868
12.731	3.037	1633.468	1159.154
13.746	9.483	1648.862	1218.906
14.761	20.194	1672.223	1317.901
15.775	26.341	1683.704	1373.711
16.790	27.637	1685.845	1385.192
17.804	27.843	1685.633	1386.460
18.819	27.925	1684.847	1386.307
19.834	28.098	1683.707	1386.562
20.848	28.329	1683.423	1387.957
21.863	28.343	1682.612	1387.270
22.877	28.336	1681.676	1386.320
23.892	28.359	1680.685	1385.560
24.907	28.289	1679.882	1384.246
25.921	28.349	1678.502	1383.441
26.936	28.229	1678.153	1382.124
27.950	28.388	1676.694	1381.994
28.965	28.326	1676.094	1380.909
29.980	28.378	1674.988	1380.268
30.994	28.394	1673.751	1379.250
32.009	28.341	1672.808	1377.953
33.023	28.304	1672.096	1376.967
34.038	28.303	1671.517	1376.357
35.053	28.359	1670.318	1375.669
36.067	28.346	1669.076	1374.431
37.082	28.279	1668.705	1373.499
38.096	28.358	1667.891	1373.300
39.111	28.329	1667.246	1372.428
40.126	28.392	1666.155	1371.881
41.140	28.311	1665.597	1370.693
42.155	28.352	1664.234	1369.756
43.169	28.328	1663.202	1368.611
44.184	28.352	1662.584	1368.154
45.199	28.300	1661.446	1366.715
46.213	28.328	1659.885	1365.516
47.228	28.341	1659.272	1364.987
48.242	28.369	1657.813	1363.875
49.257	28.310	1656.654	1362.361
50.271	28.347	1655.364	1361.457
51.286	28.358	1654.798	1360.954
52.301	28.269	1652.967	1358.664
53.315	28.399	1651.805	1358.551
54.330	28.304	1650.108	1356.332
55.344	28.259	1649.363	1355.269
56.359	28.375	1648.063	1354.936
57.374	28.291	1646.851	1353.202
58.388	28.386	1645.854	1352.966
59.403	28.328	1644.895	1351.626
60.417	28.325	1643.080	1349.994
61.432	28.357	1642.386	1349.542
62.447	28.410	1641.358	1348.966
63.461	28.366	1640.201	1347.570
64.476	28.365	1639.680	1347.016
65.490	28.329	1638.878	1345.978
66.505	28.396	1637.553	1345.263
67.520	28.383	1636.626	1344.284
68.534	28.368	1635.630	1343.235
69.549	28.409	1634.365	1342.382
70.563	28.336	1633.358	1340.899
71.578	28.337	1632.386	1339.989
72.593	28.375	1631.611	1339.515
73.607	28.284	1631.032	1338.253
74.622	28.361	1629.747	1337.641
75.636	28.261	1629.411	1336.521
76.651	28.400	1627.834	1336.117
77.666	28.372	1627.373	1335.423
78.680	28.355	1626.472	1334.441
79.695	28.337	1626.169	1333.944
80.709	28.448	1624.708	1333.430
81.724	28.366	1623.848	1332.014
82.739	28.402	1623.146	1331.579
83.753	28.496	1621.790	1331.033
84.768	28.471	1621.154	1330.214
85.782	28.362	1620.541	1328.797
86.797	28.390	1619.374	1327.928
87.812	28.355	1618.798	1327.084
88.826	28.386	1617.535	1326.158
89.841	28.331	1616.977	1325.182
90.855	28.442	1615.829	1324.926
91.870	28.374	1615.013	1323.654
92.884	28.375	1613.991	1322.703
93.899	28.359	1612.935	1321.604
94.914	28.415	1611.817	1320.978
95.928	28.405	1610.404	1319.629
96.943	28.317	1609.572	1318.195
97.957	28.347	1608.586	1317.491
98.972	28.405	1607.036	1316.521
99.987	28.321	1606.059	1315.000
101.001	28.482	1604.302	1314.596
102.016	28.357	1602.731	1312.301
103.030	28.356	1601.353	1311.046
104.045	28.356	1600.823	1310.501
105.060	28.298	1599.893	1309.205
106.074	28.308	1598.521	1308.037
107.089	28.386	1596.950	1307.195
108.103	28.451	1595.496	1306.352
109.118	28.528	1594.329	1305.828
110.133	28.427	1593.261	1304.120
111.147	28.378	1592.740	1303.228
112.162	28.388	1591.913	1302.512
113.176	28.447	1589.682	1300.990
114.191	28.488	1589.186	1300.760
115.206	28.441	1588.059	1299.388
116.220	28.410	1587.308	1298.440
117.235	28.497	1586.054	1297.909
118.249	28.503	1584.645	1296.684
119.264	28.406	1583.890	1295.265
120.279	28.420	1582.836	1294.390
121.293	28.425	1581.696	1293.378
122.308	28.463	1580.503	1292.555
123.322	28.530	1579.206	1291.851
124.337	28.545	1577.899	1290.775
125.352	28.459	1577.535	1289.760
126.366	28.480	1576.554	1288.988
127.381	28.584	1575.410	1288.672
128.395	28.546	1574.590	1287.618
129.410	28.599	1573.422	1286.920
130.424	28.548	1572.490	1285.691
131.439	28.509	1571.793	1284.736
132.454	28.498	1570.307	1283.326
133.468	28.457	1569.506	1282.271
134.483	28.507	1568.137	1281.391
135.497	28.550	1566.488	1280.230
136.512	28.515	1565.818	1279.326
137.527	28.534	1564.834	1278.537
138.541	28.535	1563.405	1277.266
139.556	28.529	1562.469	1276.345
140.570	28.501	1561.010	1274.850
141.585	28.510	1559.923	1273.906
142.600	28.468	1558.882	1272.654
143.614	28.603	1557.492	1272.343
144.629	28.580	1556.425	1271.200
145.643	28.570	1555.671	1270.401
146.658	28.506	1553.941	1268.431
147.673	28.456	1553.009	1267.216
148.687	28.380	1552.402	1266.082
149.702	28.502	1550.876	1265.572
150.716	28.398	1549.683	1263.768
151.731	28.458	1548.835	1263.376
152.746	28.477	1547.744	1262.508
153.760	28.520	1546.571	1261.735
154.775	28.409	1545.725	1260.165
155.789	28.536	1544.632	1260.035
156.804	28.659	1543.356	1259.732
157.819	28.500	1542.726	1258.017
158.833	28.522	1541.213	1256.817
159.848	28.595	1540.276	1256.446
160.862	28.654	1539.493	1256.096
161.877	28.569	1538.857	1254.883
162.892	28.631	1537.615	1254.184
163.906	28.661	1536.841	1253.645
164.921	28.585	1536.346	1252.613
165.935	28.663	1534.954	1251.898
166.950	28.609	1534.261	1250.857
167.964	28.622	1533.719	1250.391
168.979	28.720	1532.240	1249.741
169.994	28.606	1531.855	1248.545
171.008	28.620	1530.305	1247.267
172.023	28.562	1530.343	1246.790
173.037	28.638	1528.646	1245.813
174.052	28.749	1527.265	1245.329
175.067	28.758	1526.470	1244.633
176.081	28.619	1526.227	1243.387
177.096	28.715	1524.576	1242.576
178.110	28.619	1523.907	1241.272
179.125	28.650	1522.610	1240.314
180.140	28.748	1521.621	1240.060
181.154	28.694	1520.843	1238.958
182.169	28.740	1519.949	1238.427
183.183	28.787	1518.821	1237.716
184.198	28.712	1518.161	1236.560
185.213	28.687	1517.392	1235.660
186.227	28.731	1516.477	1235.101
187.242	28.769	1515.755	1234.658
188.256	28.771	1515.289	1234.180
189.271	28.650	1514.180	1232.355
190.286	28.834	1512.923	1232.458
191.300	28.662	1512.907	1231.186
192.315	28.780	1511.424	1230.661
193.329	28.779	1510.565	1229.846
194.344	28.686	1510.083	1228.724
195.359	28.764	1508.796	1228.084
196.373	28.771	1508.348	1227.660
197.388	28.788	1507.072	1226.626
198.402	28.736	1506.105	1225.380
199.417	28.598	1505.536	1223.889
200.432	28.709	1504.479	1223.667
201.446	28.764	1503.871	1223.427
202.461	28.779	1503.219	1222.885
203.475	28.738	1502.230	1221.704
204.490	28.742	1501.144	1220.736
205.504	28.675	1500.292	1219.494
206.519	28.679	1499.710	1218.940
207.534	28.678	1499.051	1218.285
208.548	28.768	1498.072	1217.983
209.563	28.817	1496.976	1217.309
210.577	28.817	1495.840	1216.275
211.592	28.807	1495.834	1216.096
212.607	28.902	1494.475	1215.513
213.621	28.905	1494.202	1215.203
214.636	28.845	1493.231	1213.909
215.650	28.809	1492.404	1212.891
216.665	28.904	1491.471	1212.654
217.680	28.927	1490.740	1212.100
218.694	28.858	1490.232	1211.125
219.709	28.875	1489.116	1210.226
220.723	28.933	1488.466	1209.970
221.738	28.972	1487.391	1209.248
222.753	28.935	1486.698	1208.331
223.767	28.874	1485.812	1207.107
224.782	28.865	1484.896	1206.193
225.796	28.915	1484.060	1205.738
226.811	28.890	1483.864	1205.310
227.826	28.937	1482.686	1204.551
228.840	28.918	1482.146	1203.885
229.855	28.928	1481.313	1203.167
230.869	28.893	1480.361	1202.058
231.884	28.970	1479.409	1201.677
232.899	28.848	1478.414	1199.971
233.913	28.849	1477.218	1198.902
234.928	28.821	1476.167	1197.757
235.942	28.898	1475.513	1197.623
236.957	29.052	1474.354	1197.578
237.972	28.989	1473.646	1196.486
238.986	29.014	1472.320	1195.469
240.001	28.932	1471.837	1194.436
241.015	28.976	1470.612	1193.622
242.030	29.120	1469.530	1193.574
243.045	29.211	1468.552	1193.260
244.059	29.232	1467.665	1192.573
245.074	29.181	1467.091	1191.670
246.088	29.151	1466.575	1190.953
247.103	29.256	1465.502	1190.651
248.117	29.229	1464.884	1189.872
249.132	29.155	1464.233	1188.760
250.147	29.188	1463.468	1188.245
251.161	29.247	1462.750	1187.941
252.176	29.144	1462.324	1186.824
253.190	29.247	1461.547	1186.753
254.205	29.245	1460.628	1185.886
255.220	29.250	1459.652	1185.022
256.234	29.235	1458.954	1184.253
257.249	29.145	1458.381	1183.108
258.263	29.223	1457.494	1182.782
259.278	29.377	1456.008	1182.459
260.293	29.240	1455.922	1181.404
261.307	29.284	1454.880	1180.739
262.322	29.292	1454.146	1180.088
263.336	29.361	1453.840	1180.174
264.351	29.285	1452.659	1178.629
265.366	29.304	1451.720	1177.880
266.380	29.280	1450.885	1176.950
267.395	29.335	1449.964	1176.450
268.409	29.329	1448.892	1175.436
269.424	29.299	1448.256	1174.626
270.439	29.271	1447.475	1173.708
271.453	29.358	1446.432	1173.311
272.468	29.394	1445.554	1172.725
273.482	29.287	1445.534	1171.929
274.497	29.299	1444.528	1171.081
275.512	29.386	1443.755	1170.905
276.526	29.397	1443.216	1170.431
277.541	29.389	1441.765	1169.103
278.555	29.467	1440.939	1168.821
279.570	29.434	1440.805	1168.405
280.585	29.448	1439.631	1167.438
281.599	29.430	1439.008	1166.715
282.614	29.376	1437.940	1165.405
283.628	29.409	1436.689	1164.494
284.643	29.435	1436.088	1164.068
285.657	29.440	1435.113	1163.206
286.672	29.485	1434.207	1162.652
287.687	29.330	1433.917	1161.336
288.701	29.465	1432.811	1161.189
289.716	29.358	1432.467	1160.134
290.730	29.453	1432.015	1160.263
291.745	29.460	1430.745	1159.177
292.760	29.515	1429.617	1158.506
293.774	29.510	1428.806	1157.715
294.789	29.577	1427.591	1157.047
295.803	29.606	1427.076	1156.707
296.818	29.536	1426.652	1155.824
297.833	29.596	1425.821	1155.426
298.847	29.592	1424.777	1154.449
299.862	29.593	1423.922	1153.659
300.876	29.562	1423.529	1153.045
301.891	29.554	1422.455	1152.028
302.906	29.441	1422.088	1150.924
303.920	29.664	1421.098	1151.410
304.935	29.677	1420.658	1151.028
305.949	29.651	1419.483	1149.814
306.964	29.697	1418.871	1149.505
307.979	29.708	1417.853	1148.644
308.993	29.652	1417.375	1147.808
310.008	29.703	1416.340	1147.189
311.022	29.673	1415.585	1146.285
312.037	29.787	1414.022	1145.625
313.052	29.760	1413.380	1144.836
314.066	29.746	1412.713	1144.110
315.081	29.696	1411.925	1143.060
316.095	29.804	1410.733	1142.664
317.110	29.861	1410.129	1142.426
318.125	29.840	1409.114	1141.369
319.139	29.847	1408.475	1140.795
320.154	29.713	1407.744	1139.278
321.168	29.756	1407.401	1139.161
322.183	29.849	1405.868	1138.391
323.197	29.832	1404.788	1137.312
324.212	29.800	1404.292	1136.612
325.227	29.757	1403.290	1135.436
326.241	29.779	1402.906	1135.161
327.256	29.768	1402.274	1134.486
328.270	29.924	1401.335	1134.580
329.285	29.940	1400.407	1133.828
330.300	29.917	1399.397	1132.766
331.314	29.919	1399.135	1132.468
332.329	29.923	1398.259	1131.683
333.343	29.902	1397.641	1130.953
334.358	29.982	1396.780	1130.647
335.373	29.999	1396.080	1130.079
336.387	29.967	1395.279	1129.140
337.402	30.046	1394.835	1129.158
338.416	30.042	1394.130	1128.467
339.431	29.995	1393.293	1127.400
340.446	29.966	1393.175	1127.029
341.460	30.011	1391.941	1126.207
342.475	30.063	1390.803	1125.500
343.489	30.079	1390.183	1124.997
344.504	30.050	1389.423	1124.108
345.519	30.068	1388.396	1123.284
346.533	29.978	1387.507	1121.924
347.548	30.232	1386.219	1122.318
348.562	30.121	1385.996	1121.368
349.577	30.110	1385.204	1120.558
350.592	30.199	1384.308	1120.277
351.606	30.078	1383.723	1118.971
352.621	30.159	1382.396	1118.285
353.635	30.107	1381.725	1117.330
354.650	30.109	1381.001	1116.660
355.665	30.280	1379.911	1116.710
356.679	30.215	1378.679	1115.220
357.694	30.248	1377.812	1114.622
358.708	30.306	1376.953	1114.173
359.723	30.206	1376.065	1112.757
360.738	30.169	1374.983	1111.561
361.752	30.168	1373.671	1110.399
362.767	30.165	1372.540	1109.368
363.781	30.222	1371.869	1109.066
364.796	30.293	1371.123	1108.792
365.810	30.297	1370.577	1108.278
366.825	30.376	1369.978	1108.165
367.840	30.347	1368.834	1106.971
368.854	30.288	1368.705	1106.415
369.869	30.360	1368.425	1106.522
370.883	30.389	1367.503	1105.849
371.898	30.452	1366.455	1105.277
372.913	30.428	1366.005	1104.675
373.927	30.410	1365.284	1103.886
374.942	30.490	1364.075	1103.286
375.956	30.462	1363.338	1102.427
376.971	30.535	1362.693	1102.242
377.986	30.476	1362.230	1101.419
379.000	30.447	1361.197	1100.312
380.015	30.473	1360.626	1099.910
381.029	30.535	1360.093	1099.747
382.044	30.503	1359.427	1098.920
383.059	30.497	1358.763	1098.253
384.073	30.526	1357.748	1097.509
385.088	30.626	1357.293	1097.631
386.102	30.567	1357.235	1097.138
387.117	30.582	1356.457	1096.500
388.132	30.557	1355.557	1095.529
389.146	30.486	1355.017	1094.579
390.161	30.572	1354.036	1094.195
391.175	30.696	1353.673	1094.534
392.190	30.565	1352.977	1093.107
393.205	30.587	1352.432	1092.694
394.219	30.682	1351.150	1092.121
395.234	30.694	1350.254	1091.372
396.248	30.703	1349.480	1090.700
397.263	30.784	1348.228	1090.068
398.278	30.753	1347.101	1088.878
399.292	30.845	1346.098	1088.512
400.307	30.754	1345.332	1087.263
401.321	30.740	1344.402	1086.332
402.336	30.749	1343.902	1085.884
403.350	30.830	1342.770	1085.349
404.365	30.670	1341.819	1083.548
405.380	30.681	1341.397	1083.179
406.394	30.853	1340.555	1083.404
407.409	30.867	1339.736	1082.724
408.423	30.793	1339.049	1081.646
409.438	30.903	1338.258	1081.550
410.453	30.896	1337.576	1080.863
411.467	30.918	1336.906	1080.351
412.482	31.004	1336.246	1080.220
413.496	30.966	1335.655	1079.430
414.511	30.912	1335.063	1078.542
415.526	30.951	1333.987	1077.804
416.540	30.859	1333.861	1077.071
417.555	30.913	1333.159	1076.722
418.569	30.958	1332.435	1076.303
419.584	30.845	1332.460	1075.577
420.599	30.835	1331.887	1074.957
421.613	93.591	1349.114	1439.616
422.628	93.136	1351.590	1439.706
