DTS Sentinel unit serial number:	SN413079Multiplexer serial number:	ORYXHardware model number:	OX4-SRSoftware version number:	ORYX F/W v4.00 Oryx Data Collector v3.7.2.0data status	okinstallation	princeton_trtdifferential loss correction	single-endedforward channel	channel 4reverse channel	N/Adate	2019/09/12time	08:47:11forward acquisition time	60.00reverse acquisition time	0.00gamma	496.2192k internal	0.2301k external	0.2301temperature offset calibration	1.0063default loss term (dB/km)	0.3790temperature slope calibration	1.0000multiplexer offset coefficient	1.0000multiplexer slope coefficient	1.0000fibre end	0.00T internal ref (°C)	33.94T ext. ref 1 (°C)	1.72T ext. ref 2 (°C)	30.52length (m)	temperature (°C)	Stokes	anti-Stokes-747.200	-152.542	0.502	0.037
-746.185	751.732	0.158	0.434
-745.171	646.503	-0.032	-0.084
-744.156	-200.000	-0.032	0.208
-743.142	-200.000	0.064	-0.333
-742.127	36.596	-0.294	0.265
-741.112	749.827	0.019	0.052
-740.098	800.000	-0.110	0.381
-739.083	74.595	0.147	-0.158
-738.069	-200.000	0.013	0.322
-737.054	-120.319	0.282	0.049
-736.039	-143.403	0.107	0.010
-735.025	-33.391	0.346	-0.195
-734.010	1.929	0.343	0.252
-732.996	-75.995	-0.369	-0.133
-731.981	-99.184	-0.108	0.028
-730.966	399.275	-0.074	0.157
-729.952	159.607	-0.076	-0.107
-728.937	-92.191	0.241	0.069
-727.923	-144.056	-0.259	0.025
-726.908	-43.609	0.088	-0.045
-725.894	-200.000	0.010	-0.297
-724.879	-79.872	0.253	-0.087
-723.864	-73.287	-0.430	0.160
-722.850	-57.982	0.029	-0.013
-721.835	-200.000	-0.011	-0.427
-720.821	-104.717	-0.220	-0.052
-719.806	-129.829	0.095	-0.013
-718.791	-128.357	0.179	-0.026
-717.777	-17.137	0.128	-0.082
-716.762	-91.932	-0.015	-0.004
-715.748	575.188	-0.041	0.102
-714.733	37.186	-0.130	-0.118
-713.718	-107.967	0.272	-0.060
-712.704	-34.494	-0.016	0.009
-711.689	-200.000	0.021	-0.194
-710.675	-172.895	0.182	-0.006
-709.660	-103.956	-0.213	-0.051
-708.645	217.936	0.109	0.176
-707.631	-92.139	0.272	0.078
-706.616	89.277	0.417	0.473
-705.602	-153.076	0.095	-0.007
-704.587	-10.615	0.466	0.314
-703.572	75.281	-0.098	-0.106
-702.558	-125.173	0.121	0.019
-701.543	-200.000	-0.045	-0.233
-700.529	-200.000	0.030	-0.235
-699.514	82.035	-0.262	0.289
-698.499	-48.490	-0.336	0.165
-697.485	-119.400	-0.236	0.042
-696.470	140.347	0.126	0.170
-695.456	163.457	-0.084	0.120
-694.441	35.791	0.093	-0.083
-693.426	800.000	0.094	-0.318
-692.412	-71.228	-0.246	-0.094
-691.397	468.591	-0.031	-0.070
-690.383	-94.017	0.358	0.100
-689.368	120.711	-0.114	0.145
-688.354	107.981	-0.010	-0.013
-687.339	124.818	0.203	0.261
-686.324	-200.000	-0.060	-0.332
-685.310	-132.917	-0.086	0.011
-684.295	147.314	-0.027	-0.037
-683.281	62.030	0.164	-0.166
-682.266	-57.285	-0.130	-0.058
-681.251	342.805	-0.105	-0.209
-680.237	-200.000	0.011	-0.171
-679.222	-2.250	0.122	-0.087
-678.208	-25.927	0.097	-0.058
-677.193	167.129	-0.232	-0.336
-676.178	-90.605	0.119	0.035
-675.164	-200.000	0.058	-0.302
-674.149	-111.301	-0.206	-0.043
-673.135	800.000	0.057	-0.173
-672.120	153.963	-0.190	-0.265
-671.105	82.515	0.032	-0.036
-670.091	-200.000	0.010	0.213
-669.076	280.511	0.057	-0.103
-668.062	19.104	0.190	0.155
-667.047	-78.697	0.122	0.042
-666.032	-200.000	-0.016	-0.095
-665.018	522.669	0.052	0.125
-664.003	-23.962	-0.317	-0.193
-662.989	-149.814	0.302	0.024
-661.974	211.278	-0.153	-0.245
-660.959	-194.044	-0.157	-0.001
-659.945	302.798	0.024	-0.045
-658.930	-104.109	-0.235	0.055
-657.916	164.344	0.156	-0.224
-656.901	35.547	0.143	0.128
-655.886	-54.491	0.334	0.154
-654.872	719.666	0.089	-0.239
-653.857	-39.967	0.251	0.133
-652.843	-96.678	-0.225	0.060
-651.828	-200.000	-0.119	-0.000
-650.814	-124.261	-0.209	-0.033
-649.799	-200.000	-0.007	0.097
-648.784	-117.463	-0.127	0.023
-647.770	-124.303	0.107	0.017
-646.755	-184.280	-0.229	-0.004
-645.741	431.721	-0.035	0.078
-644.726	800.000	-0.060	-0.257
-643.711	443.154	0.137	0.305
-642.697	-110.973	-0.189	0.039
-641.682	493.078	0.095	-0.221
-640.668	421.694	-0.141	0.308
-639.653	543.986	0.145	-0.351
-638.638	1.128	0.100	0.073
-637.624	44.027	-0.047	0.044
-636.609	30.295	-0.146	0.127
-635.595	-84.274	-0.170	-0.055
-634.580	-69.084	0.101	0.040
-633.565	-105.583	0.234	-0.054
-632.551	-60.755	0.256	-0.110
-631.536	49.336	0.083	-0.079
-630.522	-28.592	-0.328	0.192
-629.507	-24.993	0.074	0.045
-628.492	-125.949	0.261	0.040
-627.478	-16.187	0.087	-0.056
-626.463	43.018	0.076	-0.071
-625.449	-91.717	-0.059	-0.017
-624.434	4.789	-0.113	-0.085
-623.419	-138.638	-0.375	0.042
-622.405	-200.000	-0.013	0.205
-621.390	518.901	0.159	-0.378
-620.376	-66.868	-0.420	-0.169
-619.361	10.812	-0.216	-0.167
-618.346	-200.000	-0.039	0.280
-617.332	-145.267	0.084	-0.008
-616.317	201.011	-0.102	-0.159
-615.303	-50.435	-0.161	0.077
-614.288	-134.174	-0.026	-0.003
-613.273	-2.924	0.113	-0.080
-612.259	86.409	-0.237	-0.265
-611.244	-113.291	-0.224	0.045
-610.230	-7.722	-0.178	0.122
-609.215	-120.258	-0.097	-0.017
-608.201	-200.000	0.030	-0.207
-607.186	-5.035	0.065	-0.045
-606.171	-21.677	-0.173	-0.107
-605.157	33.642	0.350	0.308
-604.142	774.819	0.097	-0.269
-603.128	-1.104	0.202	-0.145
-602.113	-200.000	-0.003	0.374
-601.098	800.000	0.077	-0.226
-600.084	-124.569	-0.196	-0.031
-599.069	-118.289	-0.267	0.048
-598.055	139.424	-0.043	-0.057
-597.040	-30.530	0.065	0.037
-596.025	-151.181	0.141	0.011
-595.011	-200.000	0.044	0.217
-593.996	-20.528	0.251	0.157
-592.982	360.027	0.087	-0.176
-591.967	-11.243	0.058	-0.039
-590.952	800.000	-0.018	-0.054
-589.938	59.657	-0.136	-0.136
-588.923	-9.686	0.486	-0.328
-587.909	-61.974	-0.072	0.031
-586.894	62.459	-0.038	0.038
-585.879	26.156	0.228	0.193
-584.865	-200.000	-0.029	0.181
-583.850	-32.857	-0.121	0.068
-582.836	-200.000	-0.014	-0.107
-581.821	800.000	0.078	0.342
-580.806	-101.851	-0.131	0.032
-579.792	16.544	-0.178	0.143
-578.777	775.287	-0.083	0.229
-577.763	-85.873	-0.263	-0.083
-576.748	-24.171	-0.284	0.172
-575.733	800.000	0.070	0.248
-574.719	-127.359	-0.335	-0.050
-573.704	-127.519	-0.161	0.024
-572.690	69.313	0.038	-0.040
-571.675	-80.824	-0.277	0.093
-570.661	-200.000	0.006	-0.107
-569.646	484.478	0.083	-0.191
-568.631	-200.000	0.008	0.233
-567.617	800.000	0.071	0.204
-566.602	34.413	0.142	-0.126
-565.588	23.258	-0.139	-0.116
-564.573	-156.131	-0.114	0.007
-563.558	-175.800	-0.143	0.004
-562.544	-18.275	-0.116	-0.073
-561.529	-200.000	0.035	0.242
-560.515	-116.936	0.263	-0.049
-559.500	104.424	0.041	-0.049
-558.485	70.248	-0.253	-0.264
-557.471	582.850	-0.151	-0.374
-556.456	-200.000	0.026	0.132
-555.442	-53.517	-0.261	0.121
-554.427	-194.652	-0.468	0.004
-553.412	24.346	-0.146	0.122
-552.398	-200.000	0.014	0.178
-551.383	227.425	-0.191	-0.314
-550.369	-200.000	-0.070	-0.484
-549.354	-63.452	0.097	-0.040
-548.339	44.483	0.052	0.049
-547.325	68.784	0.164	0.171
-546.310	-99.546	0.481	-0.122
-545.296	-32.589	0.191	-0.108
-544.281	-81.060	0.241	0.081
-543.266	-200.000	-0.028	0.253
-542.252	-1.956	0.121	-0.086
-541.237	-200.000	0.050	-0.298
-540.223	-30.882	0.522	-0.298
-539.208	-120.349	0.143	0.025
-538.193	-200.000	-0.069	-0.325
-537.179	478.207	0.050	-0.114
-536.164	-200.000	0.013	-0.283
-535.150	800.000	-0.054	-0.184
-534.135	61.845	-0.356	0.359
-533.121	800.000	-0.048	0.182
-532.106	-200.000	0.071	0.424
-531.091	800.000	-0.073	0.248
-530.077	83.929	0.204	-0.225
-529.062	-154.659	0.179	0.012
-528.048	-51.783	-0.038	0.018
-527.033	494.883	0.080	0.185
-526.018	-49.199	0.127	0.061
-525.004	418.876	-0.079	-0.172
-523.989	743.777	-0.116	0.315
-522.975	148.017	-0.150	-0.205
-521.960	-55.656	0.141	0.064
-520.945	-34.376	0.105	-0.058
-519.931	524.546	0.177	0.421
-518.916	40.875	-0.010	0.009
-517.902	215.033	0.089	-0.143
-516.887	-97.892	0.315	0.082
-515.872	546.277	0.075	-0.182
-514.858	-82.897	0.214	0.070
-513.843	335.894	-0.033	0.065
-512.829	800.000	-0.074	0.298
-511.814	-183.385	-0.380	0.007
-510.799	-96.464	0.141	0.038
-509.785	-59.634	0.163	0.071
-508.770	77.629	-0.174	0.187
-507.756	-61.543	-0.249	-0.106
-506.741	-200.000	0.020	-0.277
-505.726	-200.000	-0.017	0.176
-504.712	25.888	0.154	0.130
-503.697	156.496	0.108	0.151
-502.683	-94.263	0.281	0.078
-501.668	31.198	0.338	0.293
-500.653	-155.004	-0.187	-0.012
-499.639	641.892	-0.111	0.285
-498.624	163.008	0.044	-0.063
-497.610	-158.488	-0.267	0.016
-496.595	-200.000	-0.062	-0.338
-495.581	-98.077	0.105	-0.027
-494.566	-94.044	0.169	0.047
-493.551	-85.871	0.042	0.013
-492.537	290.470	-0.115	-0.212
-491.522	259.337	0.047	0.081
-490.508	36.408	-0.322	-0.287
-489.493	121.629	-0.151	-0.190
-488.478	23.081	-0.053	-0.044
-487.464	684.188	-0.066	0.175
-486.449	112.879	0.134	0.164
-485.435	-132.271	-0.241	0.031
-484.420	-91.240	0.225	-0.065
-483.405	324.676	-0.172	-0.333
-482.391	-200.000	0.045	0.319
-481.376	800.000	0.097	0.339
-480.362	-200.000	0.009	0.139
-479.347	-200.000	0.007	-0.274
-478.332	-200.000	-0.019	-0.193
-477.318	-159.714	0.093	-0.005
-476.303	-61.868	0.317	-0.134
-475.289	25.108	-0.164	-0.138
-474.274	-87.001	0.176	0.054
-473.259	-41.596	-0.160	0.083
-472.245	110.989	0.198	0.241
-471.230	487.523	0.132	-0.305
-470.216	-43.941	-0.074	0.038
-469.201	-83.038	-0.158	0.051
-468.186	-145.879	0.165	-0.015
-467.172	65.887	0.122	-0.125
-466.157	-11.393	0.244	-0.162
-465.143	800.000	-0.070	0.204
-464.128	-103.998	0.209	0.049
-463.113	102.889	0.248	0.293
-462.099	-200.000	-0.026	0.282
-461.084	161.908	0.251	0.354
-460.070	196.097	-0.241	-0.369
-459.055	336.794	0.108	0.211
-458.040	63.539	0.059	-0.060
-457.026	-200.000	0.017	0.089
-456.011	-200.000	-0.026	0.210
-454.997	-155.896	0.285	0.018
-453.982	221.206	-0.223	-0.362
-452.968	-200.000	0.003	0.083
-451.953	275.349	-0.088	0.157
-450.938	150.541	-0.131	0.179
-449.924	-26.549	0.099	0.059
-448.909	1.068	-0.356	0.257
-447.895	212.477	0.126	-0.200
-446.880	-200.000	0.014	-0.315
-445.865	-59.545	-0.187	-0.081
-444.851	-200.000	0.019	0.193
-443.836	-126.456	-0.177	-0.027
-442.822	338.860	0.200	-0.394
-441.807	800.000	-0.057	-0.169
-440.792	-77.037	0.295	0.104
-439.778	183.760	0.039	0.058
-438.763	-92.354	-0.097	-0.028
-437.749	361.896	-0.127	-0.257
-436.734	-39.254	-0.264	-0.140
-435.719	289.278	-0.141	0.258
-434.705	290.749	-0.051	-0.093
-433.690	-35.376	-0.126	0.069
-432.676	763.744	-0.034	0.092
-431.661	-117.655	0.257	0.047
-430.646	-77.896	-0.151	-0.052
-429.632	276.032	0.041	-0.073
-428.617	-18.819	-0.132	-0.083
-427.603	-4.602	0.241	0.167
-426.588	-88.192	-0.171	-0.052
-425.573	-90.315	0.044	-0.013
-424.559	327.530	0.089	-0.173
-423.544	5.379	0.136	-0.101
-422.530	-27.468	-0.333	0.195
-421.515	115.076	-0.274	0.337
-420.500	470.347	0.192	0.436
-419.486	-200.000	0.001	-0.119
-418.471	-148.332	-0.107	-0.009
-417.457	-200.000	0.008	-0.136
-416.442	-33.912	0.275	-0.153
-415.428	222.288	0.199	-0.322
-414.413	-30.622	-0.223	-0.127
-413.398	800.000	0.157	-0.445
-412.384	186.770	0.045	-0.068
-411.369	-10.249	-0.143	-0.095
-410.355	-200.000	-0.058	-0.405
-409.340	-43.285	-0.272	-0.138
-408.325	-200.000	0.064	0.332
-407.311	-35.588	0.067	-0.037
-406.296	-37.184	0.087	0.047
-405.282	-32.979	0.336	0.187
-404.267	43.593	-0.344	0.317
-403.252	574.566	0.132	0.324
-402.238	-191.000	-0.270	0.003
-401.223	-136.358	-0.168	-0.020
-400.209	53.726	0.097	-0.094
-399.194	-147.357	-0.264	-0.023
-398.179	202.053	-0.088	0.137
-397.165	268.077	0.024	0.042
-396.150	-57.476	-0.329	-0.145
-395.136	164.446	-0.073	-0.104
-394.121	-200.000	0.047	-0.323
-393.106	201.986	0.095	-0.148
-392.092	-102.595	-0.040	0.010
-391.077	-106.352	0.196	-0.044
-390.063	-200.000	-0.024	0.371
-389.048	-200.000	-0.062	-0.395
-388.033	-10.808	-0.235	-0.156
-387.019	-30.535	0.185	-0.106
-386.004	-71.168	-0.195	-0.074
-384.990	-108.089	0.187	0.041
-383.975	602.040	0.113	-0.283
-382.960	-139.627	0.205	-0.022
-381.946	171.204	0.223	-0.322
-380.931	-4.582	-0.373	-0.259
-379.917	25.070	-0.163	-0.136
-378.902	245.545	0.067	0.114
-377.888	-200.000	0.024	0.344
-376.873	68.336	-0.041	0.042
-375.858	600.521	0.024	-0.061
-374.844	40.286	0.138	-0.125
-373.829	65.962	0.396	-0.404
-372.815	-74.339	-0.208	0.075
-371.800	-200.000	0.009	0.107
-370.785	-9.710	-0.084	-0.056
-369.771	-200.000	0.019	0.118
-368.756	-102.343	-0.130	-0.031
-367.742	-146.858	-0.064	0.006
-366.727	225.604	0.130	0.212
-365.712	-200.000	0.011	0.086
-364.698	45.339	0.173	-0.160
-363.683	-8.657	0.163	0.110
-362.669	800.000	-0.044	0.130
-361.654	800.000	-0.068	0.264
-360.639	-5.450	0.238	-0.164
-359.625	-58.085	0.154	-0.067
-358.610	24.438	-0.113	-0.094
-357.596	14.530	0.272	0.213
-356.581	-92.536	-0.321	0.090
-355.566	-40.740	0.092	0.048
-354.552	-88.579	0.217	0.065
-353.537	-200.000	-0.075	-0.353
-352.523	674.870	0.088	-0.230
-351.508	-12.106	0.159	-0.105
-350.493	-200.000	0.000	0.084
-349.479	127.208	0.134	0.170
-348.464	-111.037	0.173	0.036
-347.450	-200.000	-0.038	-0.314
-346.435	110.004	0.121	-0.146
-345.420	-200.000	0.006	0.066
-344.406	-28.320	-0.195	0.113
-343.391	-21.363	0.300	-0.184
-342.377	-200.000	0.020	0.093
-341.362	-87.434	0.079	0.024
-340.348	318.740	0.143	-0.271
-339.333	-139.812	0.299	-0.032
-338.318	678.549	0.069	0.179
-337.304	-199.112	-0.031	0.000
-336.289	122.446	0.200	0.251
-335.275	-200.000	-0.008	-0.108
-334.260	491.133	0.071	-0.164
-333.245	-200.000	-0.061	0.301
-332.231	112.778	0.221	0.269
-331.216	-53.325	0.183	0.084
-330.202	92.809	0.068	-0.077
-329.187	65.328	0.131	0.133
-328.172	-50.155	-0.165	0.078
-327.158	321.091	0.107	-0.205
-326.143	67.046	0.080	0.082
-325.129	-126.542	0.184	-0.027
-324.114	-200.000	0.014	0.144
-323.099	183.716	-0.266	-0.394
-322.085	654.378	0.073	0.187
-321.070	-132.772	0.234	-0.030
-320.056	-142.848	0.014	-0.001
-319.041	-200.000	0.023	-0.338
-318.026	-105.700	-0.203	0.046
-317.012	110.680	-0.190	0.229
-315.997	-58.287	-0.145	-0.063
-314.983	236.485	-0.101	0.167
-313.968	19.604	0.191	-0.154
-312.953	-47.852	-0.125	-0.061
-311.939	800.000	0.077	0.322
-310.924	332.852	-0.066	-0.128
-309.910	-200.000	0.021	0.173
-308.895	14.205	0.095	0.075
-307.880	-165.462	-0.291	0.013
-306.866	113.850	-0.151	0.184
-305.851	-200.000	0.003	0.183
-304.837	-200.000	-0.006	0.087
-303.822	155.601	0.160	-0.220
-302.807	-200.000	-0.017	-0.086
-301.793	-200.000	0.007	0.200
-300.778	233.680	-0.050	-0.083
-299.764	-159.412	-0.164	-0.009
-298.749	83.863	-0.087	0.095
-297.735	-62.299	-0.242	-0.101
-296.720	191.178	-0.090	-0.136
-295.705	-113.919	-0.129	-0.025
-294.691	86.215	-0.191	0.210
-293.676	-200.000	-0.005	0.150
-292.662	294.241	0.110	-0.201
-291.647	-39.445	-0.129	-0.068
-290.632	-200.000	0.016	0.195
-289.618	-34.824	-0.165	0.090
-288.603	-96.756	0.236	0.062
-287.589	-82.378	0.163	-0.053
-286.574	88.999	0.103	-0.115
-285.559	3.643	-0.137	-0.100
-284.545	155.580	0.298	0.411
-283.530	-144.639	0.257	0.024
-282.516	800.000	0.026	-0.091
-281.501	431.537	-0.087	0.190
-280.486	-41.922	0.260	0.134
-279.472	587.925	-0.012	0.028
-278.457	629.767	-0.051	0.129
-277.443	800.000	-0.126	0.362
-276.428	-200.000	-0.054	-0.256
-275.413	169.515	0.121	-0.173
-274.399	354.389	0.017	-0.033
-273.384	800.000	0.042	-0.156
-272.370	-200.000	-0.063	0.342
-271.355	800.000	-0.059	0.217
-270.340	-119.490	0.067	0.012
-269.326	-200.000	0.018	0.114
-268.311	-200.000	-0.015	0.154
-267.297	-200.000	0.055	-0.431
-266.282	-200.000	-0.060	-0.283
-265.267	7.365	-0.202	0.151
-264.253	-45.720	-0.138	0.068
-263.238	-103.462	-0.062	-0.015
-262.224	390.695	-0.101	-0.209
-261.209	-113.468	-0.242	0.047
-260.195	50.128	0.169	-0.160
-259.180	40.277	-0.233	-0.210
-258.165	16.651	0.118	0.094
-257.151	88.880	0.131	-0.145
-256.136	21.075	0.320	-0.260
-255.122	-200.000	-0.020	-0.277
-254.107	-200.000	-0.045	0.202
-253.092	-200.000	0.005	0.329
-252.078	34.835	-0.219	-0.191
-251.063	-25.997	0.101	-0.059
-250.049	-142.529	-0.427	-0.042
-249.034	468.788	0.198	-0.443
-248.019	-123.311	-0.308	0.049
-247.005	800.000	-0.082	0.278
-245.990	-181.077	-0.347	-0.007
-244.976	14.531	-0.112	-0.087
-243.961	126.182	0.056	-0.071
-242.946	-200.000	-0.006	-0.235
-241.932	433.114	0.084	0.182
-240.917	-138.978	0.145	0.016
-239.903	800.000	-0.105	-0.375
-238.888	349.797	0.030	0.060
-237.873	78.748	-0.082	0.087
-236.859	-200.000	-0.239	-0.001
-235.844	36.999	-0.209	0.185
-234.830	-143.395	0.218	-0.021
-233.815	-121.258	-0.096	-0.016
-232.800	172.082	0.079	0.113
-231.786	28.302	0.239	-0.202
-230.771	52.556	-0.153	-0.146
-229.757	-61.243	0.122	-0.052
-228.742	-200.000	-0.003	0.069
-227.727	105.434	-0.143	0.169
-226.713	4.212	-0.275	-0.201
-225.698	398.919	-0.116	0.242
-224.684	-79.477	-0.218	0.074
-223.669	-27.619	-0.208	-0.121
-222.655	18.191	-0.214	0.171
-221.640	-166.750	-0.062	0.003
-220.625	40.696	0.175	0.157
-219.611	-200.000	-0.004	-0.108
-218.596	65.910	0.066	-0.067
-217.582	665.932	-0.106	-0.273
-216.567	-106.554	0.154	0.034
-215.552	461.920	0.195	-0.434
-214.538	-193.220	0.288	0.003
-213.523	-131.903	-0.320	-0.042
-212.509	15.787	-0.183	0.143
-211.494	-29.729	0.203	-0.116
-210.479	444.058	0.133	-0.292
-209.465	218.575	-0.201	0.321
-208.450	-51.284	0.357	0.167
-207.436	-80.713	-0.424	-0.141
-206.421	-113.262	0.409	0.080
-205.406	127.365	0.329	0.417
-204.392	23.237	0.074	0.061
-203.377	-40.235	0.108	-0.056
-202.363	667.594	0.066	0.171
-201.348	261.981	-0.064	0.110
-200.333	155.628	-0.087	0.120
-199.319	-96.189	-0.061	-0.016
-198.304	-145.127	-0.097	0.009
-197.290	-99.800	0.133	-0.033
-196.275	-71.266	0.230	-0.086
-195.260	-59.231	0.247	0.106
-194.246	-25.884	-0.149	-0.088
-193.231	-200.000	-0.017	0.507
-192.217	-170.485	0.179	0.006
-191.202	13.402	0.309	0.239
-190.187	-200.000	0.041	0.297
-189.173	-200.000	-0.015	0.171
-188.158	-1.172	0.108	-0.076
-187.144	-200.000	-0.052	-0.239
-186.129	270.233	0.160	0.281
-185.114	676.595	0.060	-0.155
-184.100	37.720	-0.189	0.168
-183.085	-85.223	0.081	-0.025
-182.071	741.872	0.075	0.202
-181.056	-55.583	0.217	0.097
-180.042	-18.079	-0.218	-0.136
-179.027	-200.000	-0.002	-0.102
-178.012	-200.000	0.044	-0.536
-176.998	-37.026	0.008	-0.004
-175.983	-131.684	0.149	-0.020
-174.969	85.966	-0.111	0.122
-173.954	-12.896	-0.193	-0.125
-172.939	-92.249	0.273	0.077
-171.925	-200.000	-0.015	0.318
-170.910	-200.000	-0.016	-0.078
-169.896	125.521	0.066	-0.084
-168.881	31.552	-0.240	0.206
-167.866	-99.973	0.082	-0.020
-166.852	-200.000	0.031	0.258
-165.837	-200.000	-0.007	0.143
-164.823	-180.429	-0.037	0.001
-163.808	-200.000	-0.019	-0.192
-162.793	12.874	-0.354	-0.273
-161.779	-72.683	-0.174	0.064
-160.764	-46.429	0.051	-0.025
-159.750	-96.479	-0.228	-0.060
-158.735	-200.000	0.061	0.289
-157.720	800.000	-0.061	-0.247
-156.706	-43.149	0.217	0.109
-155.691	62.247	0.242	0.240
-154.677	330.966	-0.263	-0.505
-153.662	-78.199	-0.074	-0.025
-152.647	-148.091	-0.255	-0.021
-151.633	197.081	0.159	-0.242
-150.618	-150.475	0.351	-0.027
-149.604	118.059	-0.136	0.167
-148.589	800.000	-0.074	-0.257
-147.574	-38.379	-0.154	-0.081
-146.560	4.921	0.152	-0.111
-145.545	12.514	0.138	-0.106
-144.531	758.202	0.093	0.250
-143.516	-200.000	0.007	-0.153
-142.502	800.000	0.032	-0.096
-141.487	3.628	-0.269	0.196
-140.472	-168.354	-0.267	0.010
-139.458	-155.902	-0.056	-0.004
-138.443	331.432	0.095	-0.183
-137.429	-36.703	0.040	0.022
-136.414	800.000	0.112	0.386
-135.399	281.312	0.096	0.171
-134.385	81.038	-0.202	-0.217
-133.370	-149.402	-0.133	-0.011
-132.356	800.000	-0.018	-0.066
-131.341	-200.000	0.016	0.229
-130.326	263.758	0.186	0.322
-129.312	335.041	0.178	-0.344
-128.297	107.902	-0.078	-0.093
-127.283	602.656	-0.090	0.223
-126.268	-200.000	0.000	0.033
-125.253	800.000	-0.006	0.018
-124.239	121.949	0.078	0.097
-123.224	-128.924	0.118	0.016
-122.210	793.666	0.029	-0.080
-121.195	-55.054	-0.153	0.068
-120.180	800.000	0.082	0.285
-119.166	77.820	0.157	0.167
-118.151	247.235	-0.027	0.046
-117.137	800.000	0.076	-0.321
-116.122	800.000	-0.045	-0.133
-115.107	-200.000	-0.006	0.095
-114.093	800.000	0.108	-0.361
-113.078	-122.160	-0.118	-0.019
-112.064	-101.999	-0.135	0.032
-111.049	-200.000	-0.013	0.139
-110.034	-200.000	0.046	-0.292
-109.020	-40.330	0.177	0.091
-108.005	-25.276	0.267	0.157
-106.991	115.903	-0.227	0.276
-105.976	-73.146	-0.179	0.065
-104.962	106.272	-0.251	0.296
-103.947	-96.067	0.176	-0.047
-102.932	-174.885	-0.378	0.011
-101.918	-82.605	0.069	-0.022
-100.903	-200.000	0.006	0.166
-99.889	-160.340	0.147	0.008
-98.874	-200.000	0.029	-0.379
-97.859	-10.275	0.282	0.186
-96.845	-151.051	-0.150	-0.011
-95.830	-102.909	0.390	-0.092
-94.816	-154.186	-0.128	-0.009
-93.801	-200.000	-0.009	-0.380
-92.786	-181.759	-0.125	0.002
-91.772	-50.943	0.257	0.120
-90.757	-33.762	0.119	0.065
-89.743	58.366	0.302	-0.295
-88.728	-200.000	0.014	-0.245
-87.713	800.000	0.036	-0.108
-86.699	12.182	-0.206	0.158
-85.684	218.922	0.167	0.265
-84.670	-73.287	-0.350	-0.127
-83.655	396.636	0.105	-0.219
-82.640	-11.843	0.224	0.146
-81.626	-125.028	0.246	-0.038
-80.611	-26.082	-0.134	-0.079
-79.597	800.000	0.173	0.584
-78.582	-69.277	0.513	-0.196
-77.567	745.144	0.069	-0.185
-76.553	-200.000	-0.044	0.296
-75.538	800.000	0.080	0.304
-74.524	121.317	0.046	-0.057
-73.509	-200.000	0.031	-0.212
-72.494	16.568	-0.224	-0.176
-71.480	160.867	0.074	0.102
-70.465	-200.000	-0.009	-0.270
-69.451	-200.000	-0.005	0.040
-68.436	-172.382	-0.276	-0.009
-67.422	25.383	0.132	0.109
-66.407	491.024	0.159	0.360
-65.392	-200.000	0.015	-0.195
-64.378	-149.682	-0.068	-0.005
-63.363	-64.066	0.053	0.022
-62.349	800.000	0.119	-0.339
-61.334	62.737	-0.825	-0.820
-60.319	-5.374	0.640	0.436
-59.305	800.000	-0.358	-0.998
-58.290	-200.000	0.101	1.137
-57.276	670.886	0.679	1.747
-56.261	-200.000	98.432	585.259
-55.246	528.635	1407.304	3296.404
-54.232	146.288	2623.661	3495.661
-53.217	103.444	2335.337	2719.575
-52.203	40.552	2080.975	1860.698
-51.188	35.656	1994.063	1738.754
-50.173	34.146	1975.476	1708.935
-49.159	49.106	2028.398	1891.230
-48.144	51.775	2047.204	1932.988
-47.130	36.410	2005.115	1754.967
-46.115	34.023	1993.284	1722.947
-45.100	33.828	1990.182	1718.433
-44.086	33.844	1988.049	1716.667
-43.071	33.764	1985.298	1713.505
-42.057	33.755	1982.955	1711.328
-41.042	33.712	1981.999	1710.047
-40.027	33.786	1979.916	1708.848
-39.013	33.844	1977.286	1707.034
-37.998	33.888	1975.089	1705.468
-36.984	33.911	1973.338	1704.089
-35.969	33.858	1971.745	1702.177
-34.954	33.806	1970.247	1700.346
-33.940	33.831	1969.112	1699.522
-32.925	33.943	1966.795	1698.455
-31.911	33.929	1965.421	1697.081
-30.896	33.906	1963.778	1695.392
-29.881	33.926	1961.835	1693.817
-28.867	34.000	1959.992	1692.819
-27.852	34.017	1958.806	1691.885
-26.838	34.036	1956.157	1689.699
-25.823	33.951	1954.685	1687.607
-24.809	34.024	1952.756	1686.519
-23.794	33.958	1951.736	1684.989
-22.779	33.956	1949.832	1683.255
-21.765	33.911	1948.137	1681.330
-20.750	33.908	1946.578	1679.893
-19.736	33.914	1945.090	1678.592
-18.721	33.944	1943.288	1677.233
-17.706	33.943	1942.238	1676.257
-16.692	34.019	1940.060	1674.973
-15.677	33.960	1938.375	1672.937
-14.663	34.044	1936.854	1672.295
-13.648	34.036	1935.930	1671.365
-12.633	33.958	1935.085	1669.882
-11.619	33.954	1933.774	1668.647
-10.604	34.024	1932.082	1667.738
-9.590	33.956	1930.613	1665.801
-8.575	33.953	1929.469	1664.728
-7.560	33.903	1928.384	1663.286
-6.546	33.940	1927.085	1662.423
-5.531	33.959	1925.871	1661.480
-4.517	34.002	1924.431	1660.539
-3.502	34.010	1923.024	1659.332
-2.487	33.957	1921.884	1657.823
-1.473	34.014	1921.091	1657.567
-0.458	34.101	1916.740	1654.507
0.556	33.968	1896.791	1628.282
1.571	30.144	1878.430	1579.868
2.586	26.470	1901.906	1567.701
3.600	25.515	1938.720	1589.464
4.615	24.754	1933.342	1578.206
5.629	18.214	1827.862	1437.210
6.644	7.291	1703.871	1253.623
7.659	2.098	1664.970	1184.679
8.673	1.874	1661.174	1180.140
9.688	1.747	1659.556	1177.902
10.702	1.725	1658.090	1176.592
11.717	1.514	1654.655	1172.422
12.731	1.864	1654.271	1174.739
13.746	8.970	1671.828	1242.302
14.761	19.961	1696.526	1346.486
15.775	25.468	1706.008	1396.826
16.790	26.431	1707.224	1405.183
17.804	26.518	1707.210	1405.723
18.819	26.629	1705.698	1405.214
19.834	26.693	1705.093	1405.087
20.848	26.882	1704.703	1406.104
21.863	26.982	1703.714	1405.940
22.877	26.965	1703.137	1405.206
23.892	26.989	1702.374	1404.642
24.907	26.965	1700.894	1403.107
25.921	26.898	1700.672	1402.285
26.936	26.970	1698.949	1401.298
27.950	27.087	1697.742	1401.082
28.965	27.031	1697.081	1399.979
29.980	27.001	1696.472	1399.122
30.994	26.960	1694.936	1397.417
32.009	26.958	1693.679	1396.238
33.023	27.006	1692.961	1395.891
34.038	27.054	1691.506	1394.939
35.053	26.934	1691.215	1393.649
36.067	26.988	1689.834	1392.808
37.082	26.955	1689.144	1391.857
38.096	27.004	1687.967	1391.144
39.111	27.013	1687.404	1390.629
40.126	26.873	1686.810	1388.938
41.140	26.920	1685.980	1388.492
42.155	26.894	1685.304	1387.615
43.169	26.989	1683.427	1386.674
44.184	26.943	1682.598	1385.519
45.199	26.849	1681.963	1384.151
46.213	26.883	1680.426	1383.023
47.228	26.889	1678.804	1381.615
48.242	26.916	1678.086	1381.109
49.257	26.965	1677.010	1380.470
50.271	26.884	1676.318	1379.161
51.286	26.908	1674.786	1377.965
52.301	26.940	1673.565	1377.083
53.315	26.911	1672.129	1375.554
54.330	26.927	1670.495	1374.210
55.344	26.958	1669.105	1373.179
56.359	26.962	1667.916	1372.111
57.374	26.932	1667.129	1371.119
58.388	26.944	1666.269	1370.377
59.403	27.040	1664.894	1369.847
60.417	27.027	1663.442	1368.436
61.432	26.864	1662.964	1366.691
62.447	27.066	1661.578	1366.952
63.461	27.040	1660.389	1365.656
64.476	26.971	1659.679	1364.438
65.490	26.914	1658.738	1363.115
66.505	26.947	1657.590	1362.294
67.520	26.930	1656.642	1361.269
68.534	26.933	1655.796	1360.478
69.549	27.035	1654.105	1359.731
70.563	26.995	1653.369	1358.706
71.578	27.046	1652.169	1357.978
72.593	27.052	1651.566	1357.413
73.607	27.016	1650.546	1356.184
74.622	27.046	1649.202	1355.184
75.636	27.004	1649.081	1354.649
76.651	27.000	1648.142	1353.730
77.666	27.016	1647.229	1352.979
78.680	26.985	1646.251	1351.822
79.695	26.951	1645.673	1350.979
80.709	26.945	1644.765	1350.065
81.724	26.910	1644.121	1349.162
82.739	26.984	1642.894	1348.586
83.753	27.019	1641.915	1347.922
84.768	26.912	1641.331	1346.524
85.782	26.965	1639.908	1345.634
86.797	26.991	1639.044	1344.995
87.812	27.145	1637.794	1344.992
88.826	26.973	1637.328	1343.221
89.841	26.976	1636.650	1342.566
90.855	26.982	1635.851	1341.837
91.870	27.089	1633.947	1340.946
92.884	27.018	1633.604	1340.021
93.899	27.095	1632.578	1339.629
94.914	27.043	1631.358	1338.129
95.928	27.038	1630.145	1336.978
96.943	27.094	1628.756	1336.129
97.957	27.071	1627.512	1334.822
98.972	27.061	1626.174	1333.536
99.987	27.076	1624.626	1332.256
101.001	26.986	1623.800	1330.803
102.016	26.981	1622.115	1329.265
103.030	27.053	1621.155	1328.889
104.045	27.099	1619.602	1327.835
105.060	26.934	1618.564	1325.663
106.074	26.994	1617.261	1324.911
107.089	27.093	1616.009	1324.495
108.103	27.228	1614.325	1323.979
109.118	27.030	1613.813	1321.999
110.133	27.076	1612.575	1321.204
111.147	27.035	1611.752	1320.115
112.162	27.132	1610.325	1319.531
113.176	27.124	1608.941	1318.224
114.191	27.057	1608.442	1317.210
115.206	27.060	1607.378	1316.251
116.220	27.144	1605.883	1315.516
117.235	27.020	1604.974	1313.756
118.249	27.104	1603.505	1313.044
119.264	27.084	1602.371	1311.858
120.279	27.083	1601.268	1310.829
121.293	27.155	1600.136	1310.309
122.308	27.079	1598.642	1308.419
123.322	27.098	1597.600	1307.584
124.337	27.062	1596.526	1306.333
125.352	27.115	1595.271	1305.570
126.366	27.179	1594.106	1304.961
127.381	27.146	1593.356	1304.000
128.395	27.153	1592.471	1303.205
129.410	27.204	1591.294	1302.494
130.424	27.180	1589.997	1301.148
131.439	27.165	1588.873	1300.002
132.454	27.097	1588.244	1298.890
133.468	27.193	1586.736	1298.226
134.483	27.166	1585.070	1296.552
135.497	27.165	1584.244	1295.753
136.512	27.159	1583.189	1294.733
137.527	27.122	1582.224	1293.568
138.541	27.125	1580.799	1292.314
139.556	27.288	1579.293	1292.122
140.570	27.222	1578.679	1291.038
141.585	27.108	1577.394	1289.061
142.600	27.178	1576.242	1288.508
143.614	27.223	1574.883	1287.600
144.629	27.178	1574.061	1286.497
145.643	27.153	1573.257	1285.545
146.658	27.138	1571.877	1284.197
147.673	27.033	1570.578	1282.279
148.687	27.128	1569.114	1281.645
149.702	27.271	1567.721	1281.399
150.716	27.185	1566.828	1279.952
151.731	27.063	1566.190	1278.460
152.746	27.287	1564.363	1278.426
153.760	27.114	1563.911	1276.734
154.775	27.154	1562.714	1275.919
155.789	27.159	1561.912	1275.186
156.804	27.214	1560.718	1274.489
157.819	27.167	1560.000	1273.455
158.833	27.226	1558.789	1272.768
159.848	27.219	1558.038	1271.997
160.862	27.304	1556.733	1271.410
161.877	27.205	1555.725	1269.782
162.892	27.285	1554.596	1269.308
163.906	27.304	1553.977	1268.823
164.921	27.134	1553.191	1266.883
165.935	27.252	1552.330	1266.890
166.950	27.253	1551.391	1266.018
167.964	27.189	1550.377	1264.633
168.979	27.249	1549.528	1264.246
169.994	27.282	1548.141	1263.231
171.008	27.314	1547.736	1263.012
172.023	27.334	1546.500	1262.030
173.037	27.312	1545.308	1260.798
174.052	27.339	1544.124	1259.903
175.067	27.410	1542.869	1259.258
176.081	27.345	1542.194	1258.147
177.096	27.381	1541.478	1257.699
178.110	27.390	1539.657	1256.165
179.125	27.227	1539.512	1254.816
180.140	27.338	1538.722	1254.821
181.154	27.273	1538.202	1253.842
182.169	27.405	1536.866	1253.551
183.183	27.356	1535.890	1252.308
184.198	27.243	1534.974	1250.668
185.213	27.323	1534.240	1250.513
186.227	27.392	1532.842	1249.736
187.242	27.393	1532.405	1249.278
188.256	27.430	1531.640	1248.796
189.271	27.383	1531.149	1247.959
190.286	27.384	1530.257	1247.128
191.300	27.441	1529.139	1246.497
192.315	27.422	1528.107	1245.417
193.329	27.276	1527.496	1243.809
194.344	27.367	1526.245	1243.307
195.359	27.395	1525.489	1242.768
196.373	27.442	1524.585	1242.247
197.388	27.460	1523.506	1241.381
198.402	27.302	1522.900	1239.700
199.417	27.339	1521.504	1238.702
200.432	27.347	1521.170	1238.378
201.446	27.354	1520.852	1238.057
202.461	27.359	1519.599	1236.958
203.475	27.400	1518.322	1236.090
204.490	27.400	1517.623	1235.411
205.504	27.365	1516.899	1234.477
206.519	27.359	1515.956	1233.560
207.534	27.407	1515.083	1233.061
208.548	27.456	1514.363	1232.702
209.563	27.396	1513.609	1231.573
210.577	27.415	1512.490	1230.681
211.592	27.417	1512.073	1230.245
212.607	27.421	1511.260	1229.505
213.621	27.445	1510.604	1229.022
214.636	27.540	1509.555	1228.698
215.650	27.512	1509.249	1228.155
216.665	27.509	1508.143	1227.122
217.680	27.416	1507.597	1225.942
218.694	27.603	1505.871	1225.692
219.709	27.551	1505.304	1224.773
220.723	27.496	1505.089	1224.118
221.738	27.578	1503.614	1223.361
222.753	27.559	1503.078	1222.687
223.767	27.382	1502.629	1221.026
224.782	27.463	1501.191	1220.297
225.796	27.507	1500.433	1219.862
226.811	27.650	1499.780	1220.185
227.826	27.570	1499.261	1219.121
228.840	27.543	1498.477	1218.195
229.855	27.613	1497.502	1217.762
230.869	27.606	1496.738	1216.983
231.884	27.494	1496.151	1215.650
232.899	27.648	1494.538	1215.258
233.913	27.568	1493.577	1213.835
234.928	27.526	1492.900	1212.899
235.942	27.616	1491.675	1212.397
236.957	27.630	1490.759	1211.636
237.972	27.662	1489.198	1210.473
238.986	27.639	1488.718	1209.823
240.001	27.714	1487.931	1209.574
241.015	27.646	1486.858	1208.145
242.030	27.890	1485.340	1208.417
243.045	27.851	1485.124	1207.883
244.059	27.810	1484.288	1206.820
245.074	27.735	1483.505	1205.581
246.088	27.800	1482.691	1205.246
247.103	27.806	1482.087	1204.683
248.117	27.777	1481.070	1203.558
249.132	27.845	1480.094	1203.107
250.147	27.741	1479.779	1202.062
251.161	27.789	1479.400	1201.961
252.176	27.850	1478.252	1201.326
253.190	27.846	1477.278	1200.404
254.205	27.888	1476.208	1199.700
255.220	27.886	1476.046	1199.449
256.234	27.965	1474.801	1198.854
257.249	27.847	1474.236	1197.513
258.263	27.909	1473.621	1197.314
259.278	27.895	1472.734	1196.392
260.293	27.918	1471.771	1195.656
261.307	27.906	1471.448	1195.212
262.322	27.979	1470.592	1194.888
263.336	27.938	1469.860	1193.919
264.351	27.932	1468.519	1192.687
265.366	27.936	1467.955	1192.146
266.380	27.994	1466.832	1191.507
267.395	27.927	1465.972	1190.264
268.409	27.989	1465.128	1189.881
269.424	27.840	1464.871	1188.599
270.439	27.894	1463.742	1187.928
271.453	27.941	1462.770	1187.337
272.468	28.023	1461.451	1186.692
273.482	27.979	1461.052	1185.978
274.497	27.954	1460.416	1185.193
275.512	27.955	1459.875	1184.658
276.526	27.977	1459.173	1184.125
277.541	27.970	1458.044	1183.058
278.555	28.076	1456.832	1182.658
279.570	28.138	1456.031	1182.300
280.585	28.093	1455.444	1181.431
281.599	28.137	1454.350	1180.721
282.614	28.043	1453.785	1179.552
283.628	27.997	1452.995	1178.515
284.643	27.992	1452.033	1177.595
285.657	28.073	1450.976	1177.154
286.672	28.010	1450.534	1176.286
287.687	28.112	1449.173	1175.737
288.701	28.129	1448.362	1175.080
289.716	28.071	1447.809	1174.154
290.730	28.064	1447.324	1173.618
291.745	28.060	1446.943	1173.175
292.760	28.069	1445.757	1172.168
293.774	28.213	1444.379	1171.872
294.789	28.115	1443.775	1170.647
295.803	28.133	1443.234	1170.225
296.818	28.219	1442.592	1170.150
297.833	28.246	1440.843	1168.798
298.847	28.249	1440.242	1168.226
299.862	28.246	1439.891	1167.816
300.876	28.287	1439.074	1167.314
301.891	28.301	1438.135	1166.539
302.906	28.272	1437.214	1165.504
303.920	28.342	1436.562	1165.313
304.935	28.267	1436.078	1164.346
305.949	28.320	1435.421	1164.042
306.964	28.268	1434.689	1163.019
307.979	28.343	1433.671	1162.565
308.993	28.326	1432.899	1161.728
310.008	28.316	1432.052	1160.878
311.022	28.318	1431.097	1160.013
312.037	28.283	1430.078	1158.863
313.052	28.323	1429.449	1158.500
314.066	28.367	1428.477	1157.887
315.081	28.397	1427.350	1157.063
316.095	28.346	1426.439	1155.904
317.110	28.302	1425.784	1154.991
318.125	28.352	1424.824	1154.428
319.139	28.499	1423.735	1154.369
320.154	28.536	1422.898	1153.821
321.168	28.310	1422.370	1151.866
322.183	28.448	1421.470	1151.905
323.197	28.351	1420.970	1150.791
324.212	28.456	1419.811	1150.405
325.227	28.303	1419.307	1148.934
326.241	28.492	1417.744	1148.753
327.256	28.500	1417.134	1148.207
328.270	28.506	1416.362	1147.520
329.285	28.541	1415.600	1147.016
330.300	28.486	1415.037	1146.118
331.314	28.580	1414.463	1146.138
332.329	28.707	1413.299	1145.882
333.343	28.614	1412.451	1144.516
334.358	28.595	1412.188	1144.086
335.373	28.661	1410.908	1143.354
336.387	28.629	1410.575	1142.784
337.402	28.662	1410.101	1142.504
338.416	28.650	1409.443	1141.798
339.431	28.694	1408.683	1141.357
340.446	28.672	1408.158	1140.690
341.460	28.724	1406.677	1139.714
342.475	28.643	1406.394	1138.883
343.489	28.715	1405.504	1138.504
344.504	28.667	1404.490	1137.283
345.519	28.637	1403.656	1136.324
346.533	28.738	1402.490	1135.903
347.548	28.863	1401.626	1135.880
348.562	28.833	1400.792	1134.914
349.577	28.830	1399.845	1134.031
350.592	28.855	1399.362	1133.691
351.606	28.799	1398.771	1132.768
352.621	28.735	1397.556	1131.292
353.635	28.796	1396.616	1130.804
354.650	28.816	1396.052	1130.370
355.665	28.772	1395.282	1129.375
356.679	28.762	1394.330	1128.442
357.694	28.798	1393.638	1128.007
358.708	28.916	1391.782	1127.125
359.723	28.885	1390.943	1126.159
360.738	28.834	1390.166	1125.116
361.752	28.803	1389.014	1123.894
362.767	28.954	1387.887	1123.803
363.781	28.918	1387.040	1122.802
364.796	28.875	1386.483	1121.991
365.810	28.887	1385.753	1121.372
366.825	28.946	1384.879	1120.923
367.840	28.979	1384.242	1120.511
368.854	29.059	1383.447	1120.253
369.869	29.020	1383.138	1119.666
370.883	28.995	1382.585	1118.967
371.898	29.003	1381.646	1118.160
372.913	29.012	1380.910	1117.521
373.927	28.919	1380.383	1116.432
374.942	29.027	1379.433	1116.217
375.956	29.063	1378.937	1115.937
376.971	29.059	1378.113	1115.146
377.986	29.098	1377.036	1114.410
379.000	29.078	1376.114	1113.445
380.015	29.084	1375.470	1112.861
381.029	29.138	1374.621	1112.404
382.044	29.195	1374.168	1112.281
383.059	29.153	1373.623	1111.490
384.073	29.197	1373.005	1111.155
385.088	29.187	1372.280	1110.411
386.102	29.088	1372.290	1109.722
387.117	29.225	1371.195	1109.568
388.132	29.174	1370.424	1108.534
389.146	29.150	1369.689	1107.700
390.161	29.157	1369.007	1107.092
391.175	29.188	1368.234	1106.554
392.190	29.314	1367.133	1106.322
393.205	29.293	1366.909	1105.916
394.219	29.282	1365.758	1104.825
395.234	29.288	1364.850	1104.027
396.248	29.316	1363.981	1103.396
397.263	29.312	1362.643	1102.188
398.278	29.369	1361.799	1101.751
399.292	29.369	1360.841	1100.876
400.307	29.412	1359.714	1100.124
401.321	29.466	1359.327	1100.035
402.336	29.455	1358.525	1099.226
403.350	29.313	1357.402	1097.371
404.365	29.339	1356.410	1096.627
405.380	29.382	1355.875	1096.357
406.394	29.368	1354.995	1095.463
407.409	29.387	1354.301	1094.916
408.423	29.459	1353.335	1094.469
409.438	29.561	1352.634	1094.406
410.453	29.530	1351.868	1093.508
411.467	29.506	1351.748	1093.172
412.482	29.558	1351.008	1092.784
413.496	29.573	1350.308	1092.211
414.511	29.460	1349.398	1090.711
415.526	29.550	1348.799	1090.662
416.540	29.537	1348.088	1089.914
417.555	29.627	1347.131	1089.573
418.569	29.581	1346.887	1089.011
419.584	29.490	1346.709	1088.234
420.599	29.502	1346.098	1087.709
421.613	92.267	1351.917	1447.616
422.628	92.154	1352.717	1447.736
