DTS Sentinel unit serial number:	SN413079Multiplexer serial number:	ORYXHardware model number:	OX4-SRSoftware version number:	ORYX F/W v4.00 Oryx Data Collector v3.7.2.0data status	okinstallation	princeton_trtdifferential loss correction	single-endedforward channel	channel 4reverse channel	N/Adate	2019/09/11time	03:39:11forward acquisition time	60.00reverse acquisition time	0.00gamma	496.2192k internal	0.2316k external	0.2316temperature offset calibration	0.9945default loss term (dB/km)	0.3790temperature slope calibration	1.0000multiplexer offset coefficient	1.0000multiplexer slope coefficient	1.0000fibre end	0.00T internal ref (°C)	29.52T ext. ref 1 (°C)	-0.28T ext. ref 2 (°C)	23.94length (m)	temperature (°C)	Stokes	anti-Stokes-747.200	-132.210	0.378	0.050
-746.185	407.960	-0.089	-0.192
-745.171	-200.000	0.014	0.115
-744.156	-200.000	-0.035	0.354
-743.142	-60.124	0.216	-0.094
-742.127	-93.066	-0.342	0.096
-741.112	31.950	-0.164	-0.143
-740.098	78.372	0.121	0.131
-739.083	264.859	-0.125	-0.220
-738.069	-140.129	0.058	0.006
-737.054	87.129	0.173	-0.193
-736.039	174.375	0.096	0.140
-735.025	101.695	0.157	0.185
-734.010	-181.607	-0.331	0.006
-732.996	-4.727	-0.409	0.286
-731.981	-59.215	-0.087	0.038
-730.966	-126.666	0.224	0.034
-729.952	-121.951	-0.100	0.017
-728.937	301.057	0.085	-0.158
-727.923	27.747	-0.209	-0.179
-726.908	-59.741	-0.237	-0.103
-725.894	-49.154	0.229	0.111
-724.879	-111.039	0.458	0.095
-723.864	-200.000	0.041	0.351
-722.850	800.000	0.080	-0.291
-721.835	-65.626	-0.272	-0.111
-720.821	-60.861	-0.046	-0.020
-719.806	-147.781	-0.187	0.016
-718.791	-99.878	0.094	-0.024
-717.777	-118.362	-0.323	-0.058
-716.762	-103.649	0.255	0.061
-715.748	6.560	-0.148	0.111
-714.733	-29.057	-0.290	0.169
-713.718	-102.196	0.103	0.025
-712.704	133.051	-0.264	-0.345
-711.689	-200.000	0.047	-0.260
-710.675	-144.406	-0.319	0.030
-709.660	-123.558	-0.129	-0.021
-708.645	-51.817	0.156	-0.074
-707.631	-75.945	-0.550	-0.197
-706.616	800.000	-0.034	0.105
-705.602	800.000	0.013	0.051
-704.587	-200.000	0.010	-0.226
-703.572	-86.771	-0.258	-0.080
-702.558	800.000	-0.110	-0.330
-701.543	32.712	-0.253	0.221
-700.529	-19.437	0.134	-0.084
-699.514	-200.000	-0.013	-0.178
-698.499	-12.574	-0.260	-0.172
-697.485	-125.841	0.249	0.038
-696.470	57.356	-0.136	-0.134
-695.456	-195.034	0.169	0.001
-694.441	-72.975	-0.263	0.098
-693.426	-43.851	-0.272	0.138
-692.412	-129.904	0.309	-0.043
-691.397	-200.000	-0.024	0.186
-690.383	332.760	-0.103	0.201
-689.368	800.000	-0.095	0.324
-688.354	682.455	-0.066	-0.174
-687.339	718.296	-0.013	0.035
-686.324	-49.791	0.060	-0.029
-685.310	-82.852	0.436	0.142
-684.295	-65.849	-0.427	-0.173
-683.281	13.594	-0.111	0.087
-682.266	212.668	-0.123	-0.197
-681.251	-57.315	-0.346	0.154
-680.237	-172.381	-0.406	0.013
-679.222	-200.000	0.051	0.251
-678.208	250.958	-0.154	0.264
-677.193	419.843	0.058	-0.126
-676.178	-200.000	0.041	0.185
-675.164	36.487	-0.111	-0.099
-674.149	-200.000	0.042	-0.226
-673.135	-185.453	0.213	-0.003
-672.120	671.083	-0.094	-0.246
-671.105	-113.913	0.219	-0.043
-670.091	159.057	0.040	-0.057
-669.076	655.535	0.146	-0.380
-668.062	-75.522	0.119	-0.043
-667.047	-200.000	0.025	0.260
-666.032	-59.576	0.376	-0.163
-665.018	342.501	0.064	0.126
-664.003	80.393	-0.108	-0.117
-662.989	111.390	-0.327	-0.398
-661.974	-200.000	0.001	-0.241
-660.959	-135.206	-0.155	0.019
-659.945	800.000	0.093	-0.339
-658.930	-93.667	0.212	0.059
-657.916	-200.000	-0.050	0.291
-656.901	-200.000	-0.017	-0.094
-655.886	-200.000	-0.010	0.269
-654.872	800.000	0.070	-0.301
-653.857	-49.169	-0.136	-0.065
-652.843	-109.366	0.176	-0.038
-651.828	800.000	0.048	-0.145
-650.814	-200.000	-0.026	-0.188
-649.799	58.541	-0.375	0.371
-648.784	-200.000	0.001	0.162
-647.770	-10.347	-0.291	0.195
-646.755	800.000	-0.012	-0.048
-645.741	0.850	0.245	-0.177
-644.726	329.964	-0.198	-0.384
-643.711	-155.168	-0.311	0.020
-642.697	129.393	0.085	-0.109
-641.682	50.549	0.156	-0.149
-640.668	10.595	-0.104	0.080
-639.653	81.494	0.180	0.196
-638.638	-94.832	-0.337	-0.092
-637.624	-78.480	-0.131	0.045
-636.609	-200.000	0.009	-0.462
-635.595	-6.726	0.153	-0.105
-634.580	202.668	0.019	-0.029
-633.565	476.891	-0.131	-0.300
-632.551	332.490	-0.117	-0.228
-631.536	46.260	-0.223	0.209
-630.522	252.977	0.184	-0.316
-629.507	-97.852	0.105	0.027
-628.492	209.260	-0.209	-0.330
-627.478	-160.211	0.328	-0.018
-626.463	-126.392	-0.170	0.026
-625.449	800.000	0.059	-0.170
-624.434	79.905	0.080	0.086
-623.419	-158.377	0.307	0.018
-622.405	-200.000	-0.344	-0.000
-621.390	-57.855	-0.253	0.112
-620.376	91.049	-0.061	0.069
-619.361	-200.000	0.046	-0.334
-618.346	167.046	-0.086	-0.123
-617.332	-200.000	-0.029	-0.321
-616.317	800.000	0.021	-0.089
-615.303	-102.619	0.273	0.066
-614.288	-145.370	-0.302	-0.027
-613.273	-109.112	-0.034	0.007
-612.259	-38.032	0.221	0.118
-611.244	469.397	-0.042	-0.095
-610.230	31.210	0.320	-0.277
-609.215	-56.833	-0.297	-0.132
-608.201	225.631	0.143	0.234
-607.186	83.628	0.089	-0.098
-606.171	70.229	0.160	0.166
-605.157	-54.852	-0.445	-0.202
-604.142	205.209	-0.203	-0.318
-603.128	742.013	0.073	-0.197
-602.113	402.163	0.133	-0.282
-601.098	152.247	0.083	-0.114
-600.084	91.615	-0.179	0.202
-599.069	-178.707	-0.091	0.002
-598.055	466.190	0.184	0.414
-597.040	800.000	0.058	0.212
-596.025	-5.315	-0.325	-0.225
-595.011	67.177	-0.043	0.044
-593.996	-200.000	0.003	0.218
-592.982	-153.427	-0.150	-0.010
-591.967	232.701	0.149	0.246
-590.952	46.734	-0.050	-0.046
-589.938	147.229	-0.124	-0.168
-588.923	-200.000	-0.012	-0.056
-587.909	62.914	-0.096	-0.097
-586.894	-200.000	0.017	0.087
-585.879	-45.389	-0.292	0.146
-584.865	-26.929	0.091	0.053
-583.850	117.162	-0.203	-0.251
-582.836	541.777	0.143	-0.344
-581.821	-70.588	-0.306	-0.116
-580.806	-114.557	0.220	-0.043
-579.792	-55.442	-0.169	-0.076
-578.777	-93.428	0.275	0.077
-577.763	-64.336	-0.174	-0.071
-576.748	-200.000	0.048	-0.324
-575.733	186.122	-0.145	-0.218
-574.719	-19.721	0.254	0.158
-573.704	-107.212	0.222	0.049
-572.690	449.266	-0.038	0.083
-571.675	800.000	-0.061	-0.222
-570.661	-134.347	-0.351	0.043
-569.646	-50.648	0.380	0.180
-568.631	800.000	0.047	-0.156
-567.617	-72.017	-0.162	-0.061
-566.602	-161.803	-0.441	0.023
-565.588	247.657	-0.223	-0.379
-564.573	-35.710	-0.144	-0.079
-563.558	27.944	0.217	-0.184
-562.544	-40.162	-0.097	-0.051
-561.529	-27.938	-0.123	-0.072
-560.515	131.817	0.237	-0.307
-559.500	67.878	-0.161	-0.166
-558.485	206.110	-0.110	-0.172
-557.471	800.000	0.099	0.306
-556.456	54.095	-0.155	0.150
-555.442	-158.835	0.251	-0.014
-554.427	-12.408	-0.196	0.129
-553.412	-200.000	-0.005	-0.189
-552.398	-102.473	0.085	-0.020
-551.383	287.605	0.166	0.302
-550.369	181.129	-0.143	-0.211
-549.354	155.051	0.035	0.048
-548.339	45.972	0.042	-0.039
-547.325	46.738	-0.270	0.252
-546.310	106.576	0.120	-0.143
-545.296	5.439	-0.177	-0.132
-544.281	-105.296	0.214	0.049
-543.266	518.678	-0.061	-0.143
-542.252	800.000	-0.110	-0.347
-541.237	-200.000	-0.030	0.148
-540.223	113.424	0.120	0.147
-539.208	-200.000	-0.044	-0.252
-538.193	646.595	0.014	0.035
-537.179	-200.000	-0.013	-0.064
-536.164	-189.785	0.166	-0.002
-535.150	-108.128	0.223	-0.049
-534.135	-82.160	0.148	0.048
-533.121	68.896	-0.036	0.037
-532.106	-62.440	-0.302	0.126
-531.091	800.000	0.071	-0.312
-530.077	161.971	0.213	-0.300
-529.062	-157.075	-0.191	0.012
-528.048	-35.214	-0.119	0.065
-527.033	-161.013	-0.254	-0.013
-526.018	-89.881	0.276	-0.081
-525.004	4.668	0.330	0.244
-523.989	174.068	0.085	-0.124
-522.975	279.694	-0.177	-0.318
-521.960	-160.306	-0.339	-0.018
-520.945	-134.464	0.270	0.033
-519.931	520.594	0.039	-0.092
-518.916	-120.107	-0.267	-0.046
-517.902	46.747	-0.226	0.210
-516.887	32.454	0.136	-0.118
-515.872	-32.470	-0.201	0.112
-514.858	-23.603	-0.097	-0.059
-513.843	-38.070	0.068	-0.036
-512.829	-24.854	0.053	0.032
-511.814	-62.043	-0.308	-0.129
-510.799	548.008	0.108	0.259
-509.785	603.123	0.105	-0.263
-508.770	-18.050	-0.122	0.077
-507.756	-33.546	-0.162	-0.090
-506.741	-0.635	0.036	0.025
-505.726	46.962	0.315	-0.294
-504.712	800.000	0.102	-0.375
-503.697	800.000	0.016	0.066
-502.683	-200.000	0.035	-0.252
-501.668	386.258	-0.129	0.266
-500.653	-200.000	-0.036	0.410
-499.639	800.000	-0.031	0.113
-498.624	-57.245	0.419	0.185
-497.610	-90.539	0.355	-0.103
-496.595	322.435	-0.121	0.230
-495.581	-10.899	-0.229	0.152
-494.566	-141.346	0.173	-0.018
-493.551	724.907	-0.086	0.230
-492.537	117.024	-0.227	-0.280
-491.522	-200.000	-0.011	-0.081
-490.508	-36.011	-0.266	0.144
-489.493	800.000	-0.081	0.296
-488.478	161.695	-0.063	0.088
-487.464	-108.376	-0.223	0.048
-486.449	375.299	0.106	0.218
-485.435	-118.928	0.086	0.015
-484.420	800.000	0.025	-0.088
-483.405	-200.000	-0.028	-0.416
-482.391	24.322	0.057	0.047
-481.376	-200.000	-0.018	0.092
-480.362	11.121	0.164	0.125
-479.347	-200.000	0.033	-0.185
-478.332	270.077	0.156	0.275
-477.318	-200.000	0.026	0.160
-476.303	800.000	0.059	-0.225
-475.289	-200.000	0.011	0.094
-474.274	-58.987	-0.209	0.091
-473.259	-118.345	-0.240	0.043
-472.245	-105.070	0.306	-0.070
-471.230	194.863	0.149	-0.227
-470.216	-200.000	-0.019	0.123
-469.201	391.489	-0.190	0.395
-468.186	-94.242	0.269	0.074
-467.172	-200.000	0.006	0.337
-466.157	-104.570	0.426	0.099
-465.143	-43.056	0.071	0.036
-464.128	-12.372	0.043	-0.028
-463.113	400.383	-0.118	-0.248
-462.099	-21.596	0.225	0.138
-461.084	137.662	0.062	0.081
-460.070	-4.226	-0.087	0.060
-459.055	800.000	-0.063	-0.220
-458.040	-138.666	-0.131	0.014
-457.026	102.855	-0.146	0.172
-456.011	-179.331	-0.320	0.007
-454.997	150.301	-0.099	-0.134
-453.982	-200.000	-0.023	-0.131
-452.968	-76.143	0.168	-0.059
-451.953	-3.266	-0.211	-0.147
-450.938	-200.000	0.032	0.438
-449.924	-200.000	0.018	-0.102
-448.909	542.933	0.125	-0.299
-447.895	-120.975	0.511	0.086
-446.880	500.553	-0.096	-0.223
-445.865	207.882	0.145	-0.227
-444.851	-200.000	0.026	0.193
-443.836	-48.016	-0.212	0.103
-442.822	2.610	-0.089	0.064
-441.807	800.000	0.055	0.183
-440.792	56.249	-0.120	0.117
-439.778	47.932	-0.131	0.123
-438.763	-200.000	0.011	-0.068
-437.749	-92.716	-0.033	0.009
-436.734	72.500	-0.104	0.109
-435.719	-200.000	-0.014	0.453
-434.705	-59.005	0.150	-0.065
-433.690	782.363	-0.101	-0.276
-432.676	-34.370	0.201	0.110
-431.661	263.259	-0.215	-0.373
-430.646	754.531	-0.052	0.142
-429.632	563.023	-0.036	0.087
-428.617	800.000	0.087	-0.348
-427.603	279.933	0.088	-0.157
-426.588	271.049	-0.068	-0.120
-425.573	382.748	-0.070	-0.143
-424.559	10.482	-0.153	0.117
-423.544	-20.505	0.208	-0.128
-422.530	800.000	-0.016	0.051
-421.515	757.802	0.050	0.137
-420.500	2.016	0.050	-0.036
-419.486	-33.651	0.348	-0.192
-418.471	192.052	0.207	0.312
-417.457	89.912	-0.155	0.173
-416.442	43.241	-0.032	-0.029
-415.428	-200.000	-0.060	0.286
-414.413	-10.266	0.275	-0.182
-413.398	-118.265	0.254	-0.045
-412.384	5.298	-0.134	0.099
-411.369	-31.742	0.321	0.180
-410.355	39.817	-0.064	0.057
-409.340	19.903	-0.080	0.065
-408.325	83.915	0.273	0.298
-407.311	-107.099	-0.317	-0.070
-406.296	-21.117	-0.277	0.169
-405.282	50.575	0.220	0.208
-404.267	6.801	-0.126	0.094
-403.252	245.366	-0.117	0.197
-402.238	-72.004	0.101	0.037
-401.223	-23.997	0.088	0.053
-400.209	-145.329	-0.156	-0.014
-399.194	800.000	0.115	-0.350
-398.179	-24.856	0.082	-0.049
-397.165	-56.098	0.105	0.047
-396.150	-106.825	0.193	0.043
-395.136	800.000	-0.036	-0.104
-394.121	-129.196	0.271	-0.038
-393.106	-158.076	0.266	-0.016
-392.092	-200.000	-0.019	0.247
-391.077	-142.103	0.329	-0.033
-390.063	-200.000	0.009	-0.205
-389.048	-200.000	0.018	0.214
-388.033	43.892	0.233	0.214
-387.019	-176.877	0.187	0.005
-386.004	198.894	-0.149	0.228
-384.990	82.778	0.087	-0.094
-383.975	-58.456	-0.192	-0.083
-382.960	-184.081	-0.185	0.003
-381.946	-166.338	0.343	0.014
-380.931	769.342	-0.138	0.377
-379.917	11.262	-0.098	0.075
-378.902	-176.226	0.141	0.004
-377.888	-116.422	0.224	0.041
-376.873	-200.000	-0.020	-0.101
-375.858	-10.989	-0.266	0.176
-374.844	-8.164	0.163	-0.110
-373.829	-88.850	-0.160	-0.047
-372.815	-102.896	0.193	-0.046
-371.800	-200.000	0.034	-0.200
-370.785	6.077	-0.164	-0.121
-369.771	-99.213	0.130	0.033
-368.756	34.667	0.094	-0.082
-367.742	800.000	0.103	0.371
-366.727	800.000	0.115	0.353
-365.712	-43.656	0.152	0.076
-364.698	21.744	-0.297	0.241
-363.683	-200.000	0.002	0.328
-362.669	-200.000	0.099	0.000
-361.654	597.843	-0.096	0.236
-360.639	-143.803	0.484	0.046
-359.625	5.189	0.169	-0.124
-358.610	642.933	-0.112	0.284
-357.596	-183.623	0.042	-0.001
-356.581	466.348	-0.060	-0.134
-355.566	800.000	0.063	0.211
-354.552	-75.714	-0.186	0.066
-353.537	344.212	-0.131	-0.257
-352.523	4.518	0.027	-0.020
-351.508	-200.000	0.009	-0.139
-350.493	26.932	-0.114	-0.095
-349.479	164.664	-0.091	-0.128
-348.464	-38.014	0.321	0.170
-347.450	-47.026	0.298	0.145
-346.435	-49.853	0.116	0.055
-345.420	141.804	-0.164	0.217
-344.406	43.737	-0.046	-0.042
-343.391	-37.589	0.279	-0.148
-342.377	49.299	0.155	0.146
-341.362	-200.000	-0.039	0.224
-340.348	-78.345	-0.255	-0.087
-339.333	-54.341	-0.039	-0.017
-338.318	-19.221	-0.168	0.104
-337.304	-31.682	-0.110	-0.061
-336.289	-200.000	-0.036	-0.173
-335.275	500.759	-0.078	0.180
-334.260	440.528	-0.116	0.253
-333.245	530.378	-0.145	-0.341
-332.231	800.000	0.031	-0.101
-331.216	-52.181	0.170	0.079
-330.202	-200.000	-0.020	-0.132
-329.187	-53.154	0.150	0.069
-328.172	-77.068	0.109	-0.038
-327.158	378.843	0.195	0.398
-326.143	-130.449	-0.085	-0.011
-325.129	181.260	0.138	0.202
-324.114	-59.602	-0.180	0.077
-323.099	-200.000	0.000	0.106
-322.085	211.983	-0.111	0.175
-321.070	119.916	-0.177	0.219
-320.056	321.611	0.053	0.100
-319.041	-43.930	-0.217	-0.109
-318.026	176.467	0.100	-0.145
-317.012	382.268	0.137	0.280
-315.997	797.572	0.056	-0.155
-314.983	-50.413	0.323	-0.152
-313.968	107.740	0.158	-0.187
-312.953	-75.394	-0.249	0.088
-311.939	259.843	-0.086	0.147
-310.924	800.000	0.054	-0.158
-309.910	-2.635	0.329	-0.230
-308.895	800.000	0.064	-0.258
-307.880	800.000	-0.076	-0.214
-306.866	166.059	-0.161	-0.227
-305.851	560.819	0.125	0.301
-304.837	-200.000	-0.029	0.431
-303.822	-124.098	0.282	0.044
-302.807	53.869	-0.215	-0.205
-301.793	46.973	0.064	-0.059
-300.778	87.155	-0.166	0.183
-299.764	-200.000	-0.017	-0.208
-298.749	-152.224	0.354	-0.025
-297.735	-200.000	-0.017	0.373
-296.720	-200.000	-0.005	0.111
-295.705	72.652	-0.108	-0.112
-294.691	-103.874	-0.090	-0.021
-293.676	-58.701	0.103	0.044
-292.662	56.955	-0.132	-0.128
-291.647	-105.800	0.237	0.053
-290.632	38.038	0.147	0.130
-289.618	800.000	0.088	0.316
-288.603	-200.000	0.006	-0.031
-287.589	-17.925	0.041	-0.026
-286.574	114.153	-0.146	-0.177
-285.559	-77.032	0.155	-0.054
-284.545	-171.633	-0.204	0.007
-283.530	-51.862	0.264	-0.122
-282.516	-97.850	0.285	-0.073
-281.501	275.327	-0.052	0.091
-280.486	-183.866	0.210	-0.004
-279.472	-200.000	-0.030	-0.338
-278.457	30.586	-0.166	-0.141
-277.443	-200.000	-0.057	-0.273
-276.428	100.485	-0.065	0.075
-275.413	800.000	0.110	0.310
-274.399	21.820	0.163	-0.132
-273.384	-113.240	0.375	-0.073
-272.370	-46.208	-0.083	-0.040
-271.355	17.704	0.173	-0.137
-270.340	-200.000	0.001	0.068
-269.326	-200.000	-0.012	0.325
-268.311	152.897	-0.188	0.256
-267.297	91.270	0.078	0.087
-266.282	-84.095	-0.292	-0.092
-265.267	-50.463	0.122	-0.057
-264.253	71.972	0.108	-0.112
-263.238	248.937	-0.074	-0.125
-262.224	-200.000	0.002	-0.140
-261.209	-132.371	0.149	0.019
-260.195	-200.000	0.029	0.171
-259.180	-29.141	-0.106	-0.061
-258.165	137.647	0.186	-0.243
-257.151	-73.158	-0.136	0.050
-256.136	-200.000	0.026	-0.228
-255.122	-11.583	-0.121	0.079
-254.107	-2.589	-0.210	0.146
-253.092	54.889	0.167	-0.160
-252.078	113.643	-0.158	-0.191
-251.063	800.000	-0.063	-0.177
-250.049	-115.068	-0.278	-0.052
-249.034	-200.000	0.037	0.196
-248.019	-41.445	-0.209	-0.107
-247.005	69.324	-0.177	0.181
-245.990	30.671	0.196	-0.166
-244.976	-74.887	-0.237	-0.085
-243.961	62.697	-0.081	-0.080
-242.946	800.000	0.122	-0.345
-241.932	-174.161	0.183	-0.005
-240.917	101.589	-0.234	0.270
-239.903	-76.686	-0.249	-0.087
-238.888	-146.600	-0.223	0.019
-237.873	-200.000	0.004	0.112
-236.859	-87.437	0.111	-0.034
-235.844	-84.900	-0.149	-0.047
-234.830	-50.662	-0.185	0.087
-233.815	19.785	0.057	0.046
-232.800	-200.000	-0.003	0.035
-231.786	-62.000	0.297	0.123
-230.771	-98.235	0.028	-0.007
-229.757	-165.678	0.592	-0.025
-228.742	-98.379	-0.073	-0.019
-227.727	-94.667	0.425	-0.115
-226.713	28.330	0.336	0.282
-225.698	-26.983	0.050	-0.029
-224.684	-158.782	-0.209	-0.012
-223.669	475.186	-0.075	0.169
-222.655	-123.141	-0.543	-0.086
-221.640	-112.510	0.151	0.030
-220.625	-200.000	0.020	-0.101
-219.611	670.768	0.097	-0.249
-218.596	254.352	-0.094	0.160
-217.582	-200.000	0.016	0.082
-216.567	-110.336	0.330	0.068
-215.552	-200.000	0.014	-0.469
-214.538	-113.628	0.277	0.054
-213.523	-200.000	-0.020	-0.118
-212.509	-200.000	-0.013	0.441
-211.494	800.000	0.121	0.379
-210.479	-5.121	-0.032	0.022
-209.465	0.553	-0.083	-0.059
-208.450	318.170	-0.059	0.111
-207.436	-200.000	0.013	-0.209
-206.421	-76.182	-0.117	-0.041
-205.406	-144.385	0.381	-0.035
-204.392	-113.267	0.216	0.042
-203.377	104.293	0.040	0.046
-202.363	-200.000	-0.059	0.287
-201.348	110.380	0.049	0.059
-200.333	-155.341	-0.281	0.018
-199.319	32.394	-0.205	0.175
-198.304	-81.012	-0.156	-0.051
-197.290	675.208	0.097	0.250
-196.275	39.500	0.120	0.107
-195.260	333.339	0.011	0.021
-194.246	-200.000	-0.083	-0.381
-193.231	-200.000	0.026	0.154
-192.217	-28.669	-0.161	-0.092
-191.202	-200.000	-0.035	-0.203
-190.187	118.541	0.181	0.222
-189.173	173.260	-0.237	0.338
-188.158	86.536	0.127	0.139
-187.144	384.869	0.046	-0.095
-186.129	-101.384	-0.352	-0.085
-185.114	201.997	0.199	0.305
-184.100	-200.000	-0.030	-0.147
-183.085	18.122	0.123	-0.097
-182.071	-96.672	-0.086	-0.023
-181.056	9.975	-0.107	0.081
-180.042	301.425	0.101	-0.186
-179.027	-69.628	0.225	-0.085
-178.012	800.000	0.054	-0.222
-176.998	-98.337	0.121	0.031
-175.983	155.901	-0.177	0.242
-174.969	201.761	-0.081	-0.123
-173.954	297.500	0.119	-0.216
-172.939	73.152	-0.291	-0.302
-171.925	-137.353	0.112	0.013
-170.910	-200.000	0.086	0.378
-169.896	-200.000	-0.015	0.231
-168.881	-200.000	0.000	-0.109
-167.866	-95.221	-0.366	-0.098
-166.852	-75.765	-0.165	-0.058
-165.837	170.516	-0.375	0.532
-164.823	22.367	-0.260	0.211
-163.808	557.842	0.072	0.171
-162.793	-92.637	0.058	0.016
-161.779	-200.000	-0.013	-0.065
-160.764	510.787	-0.083	0.191
-159.750	-19.948	-0.382	-0.233
-158.735	-200.000	0.019	-0.099
-157.720	-72.540	0.102	0.037
-156.706	-71.445	-0.192	0.071
-155.691	343.516	0.111	-0.215
-154.677	415.561	-0.114	-0.241
-153.662	-200.000	-0.050	0.304
-152.647	800.000	0.068	-0.231
-151.633	-70.319	-0.182	-0.068
-150.618	-42.411	-0.153	-0.077
-149.604	184.716	0.130	0.190
-148.589	326.352	0.100	-0.189
-147.574	-200.000	-0.025	-0.115
-146.560	542.894	0.043	-0.102
-145.545	-80.260	0.075	0.025
-144.531	10.149	0.085	-0.064
-143.516	66.382	0.239	0.240
-142.502	-9.313	0.175	0.116
-141.487	-133.410	-0.181	-0.023
-140.472	49.723	-0.068	0.064
-139.458	-2.284	0.289	0.201
-138.443	-89.408	-0.076	0.022
-137.429	32.258	-0.024	0.020
-136.414	-40.700	0.442	0.226
-135.399	-200.000	0.017	0.207
-134.385	-89.035	-0.202	-0.059
-133.370	654.957	-0.121	0.307
-132.356	25.426	0.376	0.309
-131.341	-151.348	0.423	-0.031
-130.326	130.380	0.069	0.087
-129.312	122.636	0.291	0.361
-128.297	-96.899	0.048	0.012
-127.283	30.538	-0.061	-0.052
-126.268	519.398	-0.139	-0.322
-125.253	-80.352	0.023	-0.008
-124.239	-187.481	-0.088	-0.001
-123.224	-52.913	0.294	-0.134
-122.210	18.360	-0.140	-0.111
-121.195	8.983	-0.276	0.206
-120.180	657.221	-0.083	0.211
-119.166	135.009	0.250	0.321
-118.151	800.000	0.046	-0.151
-117.137	-42.188	0.024	0.012
-116.122	-44.095	0.289	0.144
-115.107	-45.751	-0.206	-0.101
-114.093	212.745	-0.010	-0.016
-113.078	60.112	0.137	0.133
-112.064	-44.511	0.118	-0.058
-111.049	800.000	0.112	0.319
-110.034	-154.738	-0.153	-0.010
-109.020	236.151	-0.075	-0.123
-108.005	-87.662	0.148	0.044
-106.991	91.332	-0.074	-0.083
-105.976	-200.000	0.014	0.371
-104.962	240.686	-0.183	0.302
-103.947	258.563	0.104	0.177
-102.932	15.087	0.393	-0.305
-101.918	800.000	0.030	-0.099
-100.903	513.103	0.032	-0.075
-99.889	18.804	0.071	0.056
-98.874	-140.161	0.322	-0.033
-97.859	800.000	0.027	0.100
-96.845	-36.519	-0.053	0.028
-95.830	-200.000	-0.017	-0.199
-94.816	-188.748	-0.108	0.001
-93.801	29.151	-0.290	-0.243
-92.786	27.881	-0.316	0.263
-91.772	800.000	-0.045	-0.135
-90.757	-40.502	-0.310	-0.159
-89.743	49.748	-0.134	-0.125
-88.728	-200.000	-0.007	-0.262
-87.713	800.000	-0.149	0.508
-86.699	171.015	0.043	-0.060
-85.684	-80.812	0.218	-0.071
-84.670	-200.000	-0.021	-0.126
-83.655	-85.770	-0.213	0.065
-82.640	56.408	0.238	-0.229
-81.626	-200.000	-0.074	0.394
-80.611	-112.874	-0.142	0.028
-79.597	-80.231	0.052	-0.017
-78.582	-70.333	-0.059	0.022
-77.567	-81.906	0.371	0.120
-76.553	-200.000	0.009	0.260
-75.538	-133.939	-0.187	-0.023
-74.524	670.865	-0.186	-0.476
-73.509	-135.324	-0.288	0.034
-72.494	800.000	0.044	-0.170
-71.480	178.428	-0.078	0.112
-70.465	-200.000	0.285	0.001
-69.451	276.158	0.037	-0.065
-68.436	800.000	0.054	0.156
-67.422	800.000	-0.047	0.195
-66.407	-200.000	0.010	0.442
-65.392	800.000	0.089	0.248
-64.378	165.745	-0.176	0.245
-63.363	-165.001	-0.402	0.018
-62.349	760.149	0.041	0.109
-61.334	69.840	-1.126	-1.145
-60.319	76.340	0.641	0.669
-59.305	365.288	-0.522	-1.037
-58.290	641.506	0.415	1.044
-57.276	534.416	0.666	1.556
-56.261	-200.000	106.233	613.149
-55.246	493.800	1510.210	3417.061
-54.232	172.366	2710.436	3845.093
-53.217	101.121	2334.380	2678.819
-52.203	35.987	2077.728	1803.119
-51.188	31.205	1990.596	1684.409
-50.173	29.784	1973.427	1657.090
-49.159	45.664	2029.586	1849.061
-48.144	46.016	2046.710	1867.791
-47.130	31.882	2004.481	1702.033
-46.115	29.578	1994.056	1672.285
-45.100	29.482	1991.296	1669.036
-44.086	29.392	1989.431	1666.591
-43.071	29.406	1986.734	1664.392
-42.057	29.375	1984.756	1662.394
-41.042	29.373	1982.772	1660.643
-40.027	29.402	1980.561	1658.991
-39.013	29.488	1978.080	1657.618
-37.998	29.423	1976.892	1655.969
-36.984	29.390	1974.875	1653.922
-35.969	29.445	1973.046	1652.813
-34.954	29.429	1971.118	1650.996
-33.940	29.470	1969.909	1650.284
-32.925	29.510	1968.261	1649.189
-31.911	29.477	1966.667	1647.499
-30.896	29.478	1964.771	1645.854
-29.881	29.476	1963.413	1644.630
-28.867	29.573	1961.703	1643.996
-27.852	29.620	1959.370	1642.396
-26.838	29.522	1958.010	1640.319
-25.823	29.577	1956.086	1639.127
-24.809	29.550	1954.781	1637.731
-23.794	29.472	1953.481	1635.890
-22.779	29.548	1951.144	1634.538
-21.765	29.579	1949.260	1633.171
-20.750	29.521	1947.820	1631.384
-19.736	29.569	1946.221	1630.405
-18.721	29.630	1944.311	1629.278
-17.706	29.561	1942.599	1627.174
-16.692	29.583	1941.158	1626.091
-15.677	29.566	1939.688	1624.645
-14.663	29.467	1938.500	1622.718
-13.648	29.556	1937.105	1622.267
-12.633	29.559	1935.539	1620.918
-11.619	29.562	1934.417	1619.936
-10.604	29.476	1933.775	1618.585
-9.590	29.478	1932.305	1617.305
-8.575	29.464	1930.599	1615.691
-7.560	29.599	1929.104	1615.554
-6.546	29.558	1928.105	1614.302
-5.531	29.600	1926.864	1613.560
-4.517	29.544	1925.829	1612.142
-3.502	29.511	1924.331	1610.536
-2.487	29.518	1923.281	1609.654
-1.473	29.534	1921.891	1608.566
-0.458	29.596	1917.441	1605.321
0.556	27.089	1897.465	1578.052
1.571	23.134	1879.746	1529.072
2.586	19.524	1904.001	1516.994
3.600	18.653	1940.658	1538.265
4.615	18.525	1935.719	1533.072
5.629	14.185	1834.100	1415.614
6.644	5.112	1715.201	1251.245
7.659	0.196	1677.810	1185.232
8.673	-0.148	1674.382	1180.006
9.688	-0.223	1673.517	1178.704
10.702	-0.322	1672.476	1177.087
11.717	-0.407	1668.521	1173.529
12.731	0.125	1667.950	1177.189
13.746	6.785	1684.474	1241.228
14.761	16.332	1705.762	1332.462
15.775	20.973	1713.947	1375.443
16.790	21.866	1715.198	1383.373
17.804	22.062	1714.381	1384.139
18.819	22.074	1713.586	1383.469
19.834	22.230	1713.050	1384.139
20.848	22.406	1712.494	1384.953
21.863	22.393	1711.877	1384.233
22.877	22.349	1711.382	1383.362
23.892	22.465	1709.825	1382.894
24.907	22.383	1709.162	1381.587
25.921	22.516	1707.720	1381.345
26.936	22.434	1706.727	1379.775
27.950	22.491	1705.787	1379.339
28.965	22.444	1705.615	1378.709
29.980	22.348	1704.979	1377.323
30.994	22.422	1703.132	1376.292
32.009	22.478	1701.864	1375.582
33.023	22.397	1701.354	1374.410
34.038	22.348	1700.503	1373.219
35.053	22.346	1699.652	1372.396
36.067	22.521	1697.957	1372.273
37.082	22.371	1697.442	1370.564
38.096	22.408	1696.226	1369.753
39.111	22.427	1695.751	1369.395
40.126	22.481	1694.567	1368.738
41.140	22.392	1693.605	1367.148
42.155	22.375	1692.491	1365.992
43.169	22.436	1691.229	1365.328
44.184	22.425	1690.361	1364.422
45.199	22.345	1689.434	1362.929
46.213	22.301	1688.934	1362.063
47.228	22.388	1687.124	1361.163
48.242	22.417	1685.818	1360.212
49.257	22.384	1684.660	1358.900
50.271	22.364	1683.724	1357.869
51.286	22.372	1682.518	1356.841
52.301	22.406	1680.650	1355.476
53.315	22.461	1679.222	1354.626
54.330	22.378	1678.194	1353.038
55.344	22.386	1676.850	1351.896
56.359	22.440	1675.090	1350.775
57.374	22.487	1673.726	1349.917
58.388	22.442	1672.933	1348.811
59.403	22.483	1671.754	1348.058
60.417	22.406	1671.104	1346.821
61.432	22.417	1670.065	1345.951
62.447	22.356	1669.142	1344.620
63.461	22.420	1668.225	1344.252
64.476	22.436	1667.067	1343.318
65.490	22.349	1665.806	1341.519
66.505	22.444	1664.551	1341.119
67.520	22.432	1663.701	1340.223
68.534	22.449	1662.823	1339.527
69.549	22.508	1661.422	1338.730
70.563	22.463	1660.238	1337.313
71.578	22.453	1659.515	1336.532
72.593	22.545	1658.071	1335.953
73.607	22.450	1657.548	1334.693
74.622	22.402	1656.414	1333.296
75.636	22.415	1655.991	1332.936
76.651	22.452	1654.814	1332.156
77.666	22.473	1653.869	1331.434
78.680	22.472	1653.006	1330.614
79.695	22.394	1652.047	1329.132
80.709	22.481	1651.067	1328.883
81.724	22.388	1650.014	1327.217
82.739	22.407	1649.535	1326.861
83.753	22.458	1648.358	1326.175
84.768	22.492	1646.954	1325.189
85.782	22.472	1646.223	1324.329
86.797	22.478	1645.010	1323.283
87.812	22.368	1644.579	1321.992
88.826	22.438	1643.207	1321.300
89.841	22.475	1642.149	1320.607
90.855	22.389	1641.222	1319.102
91.870	22.415	1640.420	1318.533
92.884	22.463	1639.665	1318.170
93.899	22.436	1638.398	1316.837
94.914	22.455	1636.906	1315.657
95.928	22.448	1636.408	1315.092
96.943	22.488	1634.734	1313.928
97.957	22.485	1633.141	1312.506
98.972	22.433	1632.342	1311.364
99.987	22.449	1630.703	1310.048
101.001	22.408	1628.909	1308.191
102.016	22.473	1627.698	1307.583
103.030	22.465	1626.266	1306.255
104.045	22.501	1625.160	1305.519
105.060	22.490	1623.599	1304.066
106.074	22.399	1622.890	1302.707
107.089	22.473	1621.590	1302.095
108.103	22.519	1620.036	1301.076
109.118	22.526	1619.033	1300.209
110.133	22.503	1618.252	1299.291
111.147	22.585	1616.530	1298.398
112.162	22.538	1615.592	1297.187
113.176	22.550	1614.732	1296.466
114.191	22.535	1613.378	1295.156
115.206	22.462	1612.350	1293.678
116.220	22.557	1610.842	1293.053
117.235	22.517	1609.727	1291.754
118.249	22.557	1608.193	1290.697
119.264	22.605	1607.130	1290.084
120.279	22.567	1605.954	1288.746
121.293	22.553	1605.148	1287.884
122.308	22.647	1604.015	1287.547
123.322	22.597	1602.411	1285.783
124.337	22.637	1600.889	1284.739
125.352	22.611	1599.904	1283.645
126.366	22.635	1599.298	1283.221
127.381	22.585	1598.254	1281.908
128.395	22.636	1597.261	1281.363
129.410	22.521	1596.225	1279.587
130.424	22.624	1594.830	1279.104
131.439	22.699	1593.230	1278.246
132.454	22.558	1592.281	1276.352
133.468	22.565	1591.099	1275.343
134.483	22.561	1590.084	1274.386
135.497	22.585	1588.937	1273.532
136.512	22.601	1587.676	1272.520
137.527	22.569	1586.137	1270.945
138.541	22.530	1585.468	1270.018
139.556	22.648	1583.930	1269.524
140.570	22.622	1582.545	1268.110
141.585	22.593	1581.297	1266.789
142.600	22.503	1580.535	1265.421
143.614	22.583	1578.951	1264.612
144.629	22.638	1578.288	1264.363
145.643	22.586	1577.058	1262.893
146.658	22.610	1575.565	1261.762
147.673	22.605	1573.893	1260.275
148.687	22.569	1573.124	1259.294
149.702	22.567	1571.823	1258.126
150.716	22.580	1570.730	1257.231
151.731	22.543	1569.817	1256.121
152.746	22.602	1568.775	1255.601
153.760	22.588	1567.288	1254.200
154.775	22.605	1565.853	1253.059
155.789	22.578	1564.868	1251.967
156.804	22.659	1563.994	1251.737
157.819	22.673	1562.545	1250.561
158.833	22.608	1561.548	1249.192
159.848	22.673	1560.527	1248.728
160.862	22.639	1559.815	1247.806
161.877	22.608	1559.132	1246.930
162.892	22.670	1557.651	1246.071
163.906	22.692	1556.768	1245.415
164.921	22.650	1556.167	1244.521
165.935	22.798	1555.117	1244.618
166.950	22.768	1553.727	1243.184
167.964	22.780	1552.782	1242.400
168.979	22.690	1552.014	1241.041
169.994	22.737	1551.200	1240.614
171.008	22.765	1550.365	1240.036
172.023	22.817	1549.233	1239.383
173.037	22.827	1547.890	1238.266
174.052	22.811	1546.733	1237.124
175.067	22.801	1546.017	1236.374
176.081	22.767	1544.944	1235.164
177.096	22.824	1543.854	1234.586
178.110	22.745	1543.101	1233.321
179.125	22.776	1541.907	1232.473
180.140	22.660	1541.445	1231.185
181.154	22.770	1540.608	1231.177
182.169	22.796	1539.070	1230.019
183.183	22.849	1538.377	1229.722
184.198	22.811	1537.363	1228.540
185.213	22.749	1536.857	1227.595
186.227	22.771	1535.724	1226.735
187.242	22.851	1534.857	1226.491
188.256	22.880	1533.835	1225.766
189.271	22.922	1532.917	1225.214
190.286	22.836	1532.422	1224.114
191.300	22.811	1531.462	1223.063
192.315	22.915	1530.328	1222.772
193.329	22.757	1529.603	1220.992
194.344	22.774	1528.735	1220.310
195.359	22.902	1527.658	1220.225
196.373	22.883	1527.139	1219.572
197.388	22.834	1526.086	1218.281
198.402	22.799	1525.198	1217.229
199.417	22.730	1524.460	1216.053
200.432	22.820	1523.175	1215.539
201.446	22.927	1522.057	1215.278
202.461	22.829	1521.845	1214.326
203.475	22.897	1520.595	1213.689
204.490	22.859	1520.010	1212.854
205.504	22.843	1518.893	1211.746
206.519	22.771	1518.470	1210.807
207.534	22.814	1517.417	1210.153
208.548	22.888	1516.452	1209.786
209.563	22.883	1515.325	1208.742
210.577	22.944	1514.411	1208.324
211.592	22.930	1514.132	1207.903
212.607	22.913	1513.225	1206.957
213.621	22.968	1512.803	1206.883
214.636	22.895	1511.637	1205.348
215.650	23.072	1510.666	1205.678
216.665	23.028	1509.934	1204.684
217.680	23.013	1509.104	1203.812
218.694	22.992	1508.510	1203.090
219.709	22.943	1507.607	1201.930
220.723	23.005	1506.365	1201.254
221.738	22.971	1505.779	1200.453
222.753	23.025	1505.101	1200.172
223.767	22.922	1504.103	1198.573
224.782	22.924	1503.551	1198.038
225.796	22.961	1502.754	1197.549
226.811	23.046	1501.985	1197.404
227.826	22.984	1501.412	1196.424
228.840	23.050	1500.612	1196.128
229.855	23.089	1499.760	1195.606
230.869	23.011	1498.514	1193.976
231.884	23.087	1497.436	1193.527
232.899	23.107	1496.069	1192.465
233.913	23.057	1495.263	1191.381
234.928	23.025	1494.480	1190.440
235.942	22.973	1493.822	1189.461
236.957	23.065	1492.737	1189.104
237.972	23.136	1491.554	1188.536
238.986	23.036	1490.268	1186.738
240.001	23.080	1489.727	1186.494
241.015	23.136	1488.181	1185.536
242.030	23.204	1487.674	1185.478
243.045	23.272	1486.494	1184.892
244.059	23.280	1485.707	1184.209
245.074	23.259	1484.854	1183.289
246.088	23.285	1484.115	1182.770
247.103	23.225	1483.919	1182.102
248.117	23.179	1483.226	1181.141
249.132	23.232	1482.112	1180.505
250.147	23.147	1481.727	1179.527
251.161	23.263	1480.913	1179.546
252.176	23.330	1480.072	1179.216
253.190	23.251	1479.432	1178.080
254.205	23.292	1478.234	1177.295
255.220	23.303	1477.580	1176.741
256.234	23.310	1476.745	1176.015
257.249	23.267	1475.955	1174.999
258.263	23.321	1475.081	1174.560
259.278	23.386	1474.041	1174.057
260.293	23.400	1473.118	1173.307
261.307	23.368	1472.584	1172.569
262.322	23.363	1472.078	1172.030
263.336	23.431	1470.965	1171.486
264.351	23.409	1469.952	1170.436
265.366	23.433	1469.096	1169.807
266.380	23.473	1468.205	1169.258
267.395	23.375	1467.791	1168.175
268.409	23.418	1466.796	1167.566
269.424	23.449	1465.601	1166.717
270.439	23.381	1464.535	1165.313
271.453	23.470	1463.825	1165.236
272.468	23.390	1463.295	1164.184
273.482	23.444	1462.789	1164.033
274.497	23.448	1462.154	1163.448
275.512	23.419	1460.802	1162.082
276.526	23.493	1460.020	1161.838
277.541	23.507	1459.195	1161.176
278.555	23.544	1457.896	1160.281
279.570	23.523	1457.641	1159.836
280.585	23.596	1456.353	1159.188
281.599	23.401	1456.306	1157.772
282.614	23.548	1455.049	1157.631
283.628	23.485	1454.129	1156.383
284.643	23.494	1453.682	1155.983
285.657	23.596	1452.249	1155.404
286.672	23.459	1451.574	1153.876
287.687	23.504	1450.866	1153.502
288.701	23.511	1449.736	1152.547
289.716	23.560	1449.117	1152.274
290.730	23.575	1448.559	1151.822
291.745	23.597	1447.571	1151.082
292.760	23.534	1446.617	1149.811
293.774	23.531	1445.530	1148.827
294.789	23.637	1444.714	1148.763
295.803	23.657	1444.197	1148.380
296.818	23.609	1443.529	1147.438
297.833	23.559	1442.661	1146.318
298.847	23.608	1441.750	1145.813
299.862	23.594	1440.961	1144.996
300.876	23.605	1440.105	1144.284
301.891	23.661	1438.958	1143.633
302.906	23.601	1438.580	1142.839
303.920	23.657	1438.162	1142.771
304.935	23.697	1437.421	1142.336
305.949	23.706	1436.168	1141.298
306.964	23.755	1435.440	1140.933
307.979	23.848	1434.234	1140.470
308.993	23.742	1433.342	1138.978
310.008	23.815	1432.857	1138.964
311.022	23.811	1431.720	1137.933
312.037	23.793	1430.586	1136.812
313.052	23.850	1430.326	1136.873
314.066	23.829	1429.436	1135.930
315.081	23.800	1428.333	1134.771
316.095	23.821	1427.484	1134.125
317.110	23.762	1426.870	1133.164
318.125	23.842	1425.626	1132.584
319.139	23.816	1424.827	1131.682
320.154	23.842	1423.692	1130.848
321.168	23.902	1423.151	1130.698
322.183	23.947	1421.794	1129.808
323.197	23.852	1421.230	1128.659
324.212	23.870	1420.333	1127.960
325.227	23.892	1419.457	1127.299
326.241	23.911	1419.020	1126.974
327.256	23.879	1418.189	1126.013
328.270	24.015	1417.045	1125.864
329.285	23.971	1416.375	1124.956
330.300	23.905	1415.522	1123.760
331.314	23.963	1414.548	1123.251
332.329	24.008	1413.835	1122.875
333.343	23.990	1413.422	1122.334
334.358	23.988	1412.903	1121.806
335.373	24.011	1412.048	1121.174
336.387	24.097	1411.157	1120.911
337.402	24.165	1410.557	1120.759
338.416	24.050	1410.226	1119.677
339.431	24.116	1408.852	1118.902
340.446	24.137	1408.705	1118.818
341.460	24.138	1407.698	1117.925
342.475	24.113	1406.258	1116.526
343.489	24.176	1405.900	1116.539
344.504	24.177	1404.948	1115.691
345.519	24.088	1404.304	1114.521
346.533	24.079	1403.466	1113.701
347.548	24.125	1402.545	1113.162
348.562	24.191	1401.493	1112.637
349.577	24.118	1400.665	1111.425
350.592	24.169	1399.987	1111.111
351.606	24.188	1399.184	1110.490
352.621	24.151	1398.272	1109.441
353.635	24.212	1397.190	1108.863
354.650	24.263	1396.514	1108.543
355.665	24.253	1395.876	1107.879
356.679	24.335	1394.119	1106.893
357.694	24.310	1393.556	1106.191
358.708	24.283	1392.799	1105.328
359.723	24.302	1391.337	1104.188
360.738	24.228	1389.909	1102.501
361.752	24.312	1389.022	1102.217
362.767	24.263	1388.127	1101.106
363.781	24.349	1387.039	1100.675
364.796	24.360	1386.503	1100.220
365.810	24.392	1386.128	1100.024
366.825	24.411	1385.609	1099.632
367.840	24.343	1384.969	1098.608
368.854	24.449	1383.885	1098.302
369.869	24.528	1383.297	1098.228
370.883	24.447	1382.921	1097.329
371.898	24.469	1381.838	1096.507
372.913	24.410	1381.407	1095.708
373.927	24.295	1380.784	1094.414
374.942	24.448	1379.576	1094.298
375.956	24.408	1378.762	1093.310
376.971	24.456	1378.188	1093.052
377.986	24.507	1377.136	1092.429
379.000	24.595	1376.150	1092.092
380.015	24.550	1375.820	1091.456
381.029	24.550	1375.125	1090.806
382.044	24.579	1374.229	1090.178
383.059	24.473	1374.000	1089.253
384.073	24.509	1373.233	1088.767
385.088	24.611	1372.882	1089.018
386.102	24.608	1372.125	1088.303
387.117	24.597	1371.295	1087.478
388.132	24.635	1370.364	1086.878
389.146	24.694	1369.346	1086.330
390.161	24.556	1369.146	1085.237
391.175	24.652	1368.726	1085.392
392.190	24.549	1367.811	1083.945
393.205	24.699	1366.912	1084.046
394.219	24.700	1365.941	1083.183
395.234	24.690	1364.884	1082.194
396.248	24.734	1363.764	1081.474
397.263	24.680	1362.671	1080.184
398.278	24.803	1361.517	1079.919
399.292	24.741	1360.841	1078.910
400.307	24.720	1359.941	1077.974
401.321	24.718	1358.755	1076.930
402.336	24.685	1358.202	1076.194
403.350	24.721	1357.010	1075.372
404.365	24.705	1356.071	1074.440
405.380	24.804	1355.327	1074.347
406.394	24.807	1354.423	1073.555
407.409	24.889	1353.754	1073.420
408.423	24.886	1353.077	1072.770
409.438	24.937	1352.590	1072.594
410.453	24.934	1351.693	1071.771
411.467	24.895	1350.620	1070.590
412.482	24.897	1350.384	1070.323
413.496	24.955	1349.562	1069.921
414.511	24.911	1348.926	1069.062
415.526	24.915	1348.322	1068.511
416.540	24.926	1347.585	1067.899
417.555	24.938	1346.855	1067.298
418.569	24.927	1346.299	1066.699
419.584	24.896	1345.979	1066.163
420.599	25.003	1345.225	1066.111
421.613	138.187	1435.845	1798.715
422.628	135.152	1448.986	1798.813
