DTS Sentinel unit serial number:	SN413079Multiplexer serial number:	ORYXHardware model number:	OX4-SRSoftware version number:	ORYX F/W v4.00 Oryx Data Collector v3.7.2.0data status	okinstallation	princeton_trtdifferential loss correction	single-endedforward channel	channel 4reverse channel	N/Adate	2019/09/17time	07:29:34forward acquisition time	60.00reverse acquisition time	0.00gamma	496.2192k internal	0.2320k external	0.2320temperature offset calibration	0.9983default loss term (dB/km)	0.3790temperature slope calibration	1.0000multiplexer offset coefficient	1.0000multiplexer slope coefficient	1.0000fibre end	0.00T internal ref (°C)	27.19T ext. ref 1 (°C)	0.12T ext. ref 2 (°C)	21.63length (m)	temperature (°C)	Stokes	anti-Stokes-747.200	87.128	0.094	0.105
-746.185	-4.107	0.294	0.206
-745.171	-25.832	0.240	-0.143
-744.156	50.690	-0.293	0.280
-743.142	216.664	-0.144	-0.232
-742.127	-78.988	-0.281	0.097
-741.112	130.863	-0.074	0.096
-740.098	800.000	-0.042	0.129
-739.083	-152.280	-0.064	0.005
-738.069	800.000	0.067	0.268
-737.054	-200.000	-0.009	-0.189
-736.039	-115.692	-0.175	-0.033
-735.025	141.548	0.223	0.299
-734.010	-57.339	-0.250	0.111
-732.996	-181.690	-0.292	0.006
-731.981	392.460	-0.049	0.102
-730.966	-112.082	-0.050	-0.010
-729.952	207.268	0.136	-0.214
-728.937	-36.537	-0.127	0.069
-727.923	-68.203	-0.201	-0.079
-726.908	800.000	0.082	0.273
-725.894	800.000	-0.032	-0.107
-724.879	-200.000	0.003	0.270
-723.864	-95.215	-0.080	0.022
-722.850	-200.000	0.027	0.372
-721.835	145.302	0.187	0.253
-720.821	114.352	0.211	0.259
-719.806	800.000	-0.044	0.175
-718.791	171.747	-0.151	0.218
-717.777	-200.000	0.070	-0.475
-716.762	-134.067	-0.223	-0.028
-715.748	41.091	0.170	0.155
-714.733	1.324	-0.135	-0.098
-713.718	-51.440	0.398	0.188
-712.704	657.743	-0.088	0.229
-711.689	11.470	-0.339	0.263
-710.675	-102.722	0.067	0.016
-709.660	800.000	0.033	0.097
-708.645	800.000	0.037	-0.147
-707.631	71.324	-0.247	0.259
-706.616	800.000	-0.048	0.162
-705.602	-72.465	-0.111	-0.041
-704.587	84.664	-0.161	-0.178
-703.572	-70.197	-0.152	0.058
-702.558	-152.993	-0.211	0.015
-701.543	-131.491	0.578	-0.077
-700.529	-84.262	-0.246	-0.079
-699.514	358.138	-0.040	-0.080
-698.499	-73.320	-0.087	-0.032
-697.485	173.092	0.188	0.273
-696.470	161.543	0.033	0.047
-695.456	-104.940	-0.274	0.063
-694.441	69.330	-0.201	-0.209
-693.426	-200.000	-0.004	-0.291
-692.412	441.436	-0.035	-0.076
-691.397	-200.000	0.023	0.227
-690.383	-58.647	-0.185	-0.081
-689.368	109.556	-0.111	0.134
-688.354	-200.000	0.003	0.032
-687.339	-200.000	-0.028	0.219
-686.324	-103.787	-0.415	0.098
-685.310	181.101	-0.109	0.161
-684.295	-200.000	-0.016	0.133
-683.281	-54.843	-0.189	0.086
-682.266	-50.036	-0.317	0.152
-681.251	-62.020	-0.168	-0.071
-680.237	-90.293	0.356	-0.104
-679.222	20.324	0.071	0.058
-678.208	-200.000	0.025	-0.419
-677.193	77.303	-0.119	0.128
-676.178	-164.615	0.200	-0.009
-675.164	136.247	0.071	0.093
-674.149	20.576	-0.165	0.135
-673.135	-200.000	-0.013	-0.108
-672.120	103.933	-0.090	0.106
-671.105	41.298	0.318	-0.290
-670.091	-146.051	0.285	0.025
-669.076	-107.178	-0.345	0.077
-668.062	800.000	0.194	-0.693
-667.047	-196.658	0.254	0.002
-666.032	-200.000	0.096	-0.460
-665.018	461.659	0.042	-0.094
-664.003	332.557	0.112	-0.218
-662.989	-133.366	-0.413	-0.052
-661.974	49.132	-0.036	-0.034
-660.959	124.963	0.220	0.280
-659.945	394.186	0.065	-0.137
-658.930	-175.982	0.208	-0.006
-657.916	800.000	-0.055	0.157
-656.901	-162.123	-0.095	-0.005
-655.886	34.985	0.170	0.150
-654.872	-200.000	-0.046	0.262
-653.857	-116.064	-0.403	0.076
-652.843	-3.968	0.254	0.178
-651.828	-102.913	0.305	0.073
-650.814	135.509	0.102	-0.134
-649.799	-200.000	-0.002	-0.010
-648.784	-54.586	-0.138	-0.063
-647.770	11.285	-0.095	-0.073
-646.755	165.145	-0.042	-0.060
-645.741	-101.887	-0.154	0.037
-644.726	-174.911	0.234	0.007
-643.711	-53.396	0.396	-0.183
-642.697	-200.000	0.000	-0.254
-641.682	110.793	0.036	0.043
-640.668	203.749	0.013	0.021
-639.653	27.601	-0.069	0.059
-638.638	-102.014	0.269	0.065
-637.624	-33.935	-0.260	-0.144
-636.609	-155.757	0.303	-0.019
-635.595	-187.285	0.069	0.001
-634.580	-129.598	-0.167	0.023
-633.565	40.802	-0.141	0.128
-632.551	-200.000	-0.025	-0.126
-631.536	-73.978	0.167	-0.061
-630.522	-94.924	0.221	-0.060
-629.507	567.126	-0.094	-0.229
-628.492	233.485	-0.045	-0.075
-627.478	-119.901	0.065	0.011
-626.463	128.388	-0.078	0.099
-625.449	94.379	0.115	0.131
-624.434	-200.000	0.040	-0.224
-623.419	800.000	-0.096	-0.279
-622.405	441.373	0.030	-0.066
-621.390	-150.994	-0.234	-0.018
-620.376	-30.330	-0.253	0.144
-619.361	-91.868	0.036	-0.010
-618.346	542.546	-0.092	0.221
-617.332	304.393	0.156	-0.292
-616.317	161.354	-0.149	-0.209
-615.303	222.420	-0.048	0.077
-614.288	3.818	0.268	-0.197
-613.273	-100.511	-0.258	0.064
-612.259	-200.000	-0.052	-0.235
-611.244	-200.000	0.084	-0.557
-610.230	-200.000	0.029	-0.388
-609.215	-109.027	-0.121	0.026
-608.201	-63.081	0.093	-0.039
-607.186	3.720	-0.100	-0.074
-606.171	-94.800	-0.408	-0.111
-605.157	-130.856	0.170	0.023
-604.142	800.000	-0.107	-0.330
-603.128	800.000	0.029	-0.091
-602.113	-200.000	0.008	0.403
-601.098	15.887	0.173	0.137
-600.084	-32.999	-0.090	-0.050
-599.069	37.211	-0.106	0.094
-598.055	-200.000	0.024	-0.206
-597.040	-200.000	0.057	-0.351
-596.025	-43.005	-0.370	-0.189
-595.011	7.652	-0.123	-0.093
-593.996	-200.000	0.003	-0.156
-592.982	-114.263	0.124	0.024
-591.967	-166.410	0.223	-0.009
-590.952	-92.708	-0.114	0.032
-589.938	40.053	-0.318	-0.287
-588.923	-200.000	-0.055	-0.272
-587.909	-200.000	0.036	0.273
-586.894	800.000	0.040	0.149
-585.879	-51.318	-0.383	0.180
-584.865	676.861	-0.093	-0.244
-583.850	800.000	-0.095	0.269
-582.836	52.620	-0.130	0.124
-581.821	65.745	0.285	0.290
-580.806	-69.450	-0.106	-0.041
-579.792	61.292	0.200	0.200
-578.777	467.085	-0.038	-0.086
-577.763	-79.647	0.116	0.039
-576.748	147.068	-0.230	-0.311
-575.733	-1.988	-0.075	0.053
-574.719	-200.000	0.012	0.111
-573.704	186.662	-0.099	-0.148
-572.690	-177.728	-0.143	0.003
-571.675	-66.531	0.230	-0.092
-570.661	48.522	-0.103	0.097
-569.646	-42.491	-0.467	0.239
-568.631	211.206	0.017	0.027
-567.617	-120.592	-0.196	-0.033
-566.602	-200.000	0.102	0.479
-565.588	-84.732	0.186	0.059
-564.573	-92.074	0.282	-0.080
-563.558	800.000	-0.089	0.292
-562.544	202.858	-0.143	0.221
-561.529	-200.000	0.050	0.307
-560.515	-85.908	-0.200	-0.062
-559.500	-200.000	-0.034	-0.205
-558.485	-200.000	-0.018	0.120
-557.471	-200.000	-0.001	-0.144
-556.456	-27.520	0.264	0.154
-555.442	17.177	0.215	0.171
-554.427	-200.000	-0.020	-0.097
-553.412	800.000	0.058	0.183
-552.398	525.223	-0.046	0.108
-551.383	-200.000	-0.059	-0.342
-550.369	-143.495	0.125	-0.012
-549.354	-200.000	-0.045	0.326
-548.339	-116.491	0.151	0.028
-547.325	6.593	0.252	-0.188
-546.310	-53.873	-0.140	-0.064
-545.296	-102.057	-0.431	-0.104
-544.281	-33.161	-0.331	0.184
-543.266	92.965	0.042	0.048
-542.252	-31.419	0.196	0.111
-541.237	38.326	-0.130	-0.117
-540.223	-200.000	0.056	0.294
-539.208	18.445	-0.251	-0.201
-538.193	-158.627	0.219	0.013
-537.179	21.855	0.278	0.227
-536.164	227.456	0.042	-0.068
-535.150	-200.000	0.000	0.050
-534.135	324.816	-0.031	-0.059
-533.121	-130.578	0.082	0.011
-532.106	36.307	0.148	0.131
-531.091	59.522	-0.048	0.047
-530.077	63.696	-0.214	-0.216
-529.062	800.000	0.119	-0.410
-528.048	-163.550	-0.205	-0.010
-527.033	800.000	-0.062	-0.183
-526.018	-37.998	0.246	-0.131
-525.004	-182.619	-0.183	0.003
-523.989	-200.000	0.025	0.119
-522.975	-152.799	0.474	0.034
-521.960	-83.166	-0.312	0.101
-520.945	39.303	-0.212	-0.190
-519.931	292.005	0.160	0.292
-518.916	-200.000	-0.009	0.208
-517.902	137.836	0.173	0.228
-516.887	136.603	-0.230	-0.300
-515.872	-94.337	-0.307	0.084
-514.858	195.510	-0.175	-0.266
-513.843	-82.413	0.099	-0.032
-512.829	119.132	0.055	-0.068
-511.814	-100.431	-0.264	-0.066
-510.799	-195.559	0.091	0.001
-509.785	558.019	0.075	-0.182
-508.770	132.628	-0.097	0.125
-507.756	-57.306	-0.363	0.160
-506.741	-200.000	0.004	-0.037
-505.726	20.725	0.150	0.122
-504.712	800.000	0.048	-0.141
-503.697	-46.372	-0.336	0.165
-502.683	432.000	-0.131	0.284
-501.668	-76.043	-0.176	0.062
-500.653	130.937	-0.200	-0.257
-499.639	-48.665	0.333	0.160
-498.624	182.485	-0.155	-0.228
-497.610	-44.284	0.010	0.005
-496.595	-22.707	-0.034	-0.021
-495.581	-22.702	0.250	-0.151
-494.566	66.408	0.184	0.187
-493.551	-74.594	-0.282	-0.101
-492.537	-35.964	0.111	0.060
-491.522	-54.198	0.243	-0.111
-490.508	-200.000	-0.045	0.251
-489.493	-16.663	-0.166	0.105
-488.478	-200.000	0.018	-0.113
-487.464	9.787	-0.191	-0.145
-486.449	-62.212	0.206	-0.086
-485.435	-200.000	0.076	0.573
-484.420	1.431	-0.127	0.091
-483.405	605.103	-0.117	0.293
-482.391	-200.000	0.033	0.272
-481.376	800.000	-0.005	-0.017
-480.362	-144.404	-0.162	-0.015
-479.347	-14.650	-0.304	-0.195
-478.332	54.706	-0.271	-0.262
-477.318	547.597	0.065	0.155
-476.303	40.775	0.122	-0.110
-475.289	-61.540	0.053	0.022
-474.274	440.855	0.052	-0.114
-473.259	464.211	0.026	-0.058
-472.245	-59.768	0.498	0.213
-471.230	665.755	0.101	0.261
-470.216	275.899	0.088	-0.157
-469.201	-200.000	-0.012	-0.125
-468.186	-200.000	0.001	0.150
-467.172	-89.863	0.218	-0.064
-466.157	-200.000	-0.064	0.409
-465.143	-200.000	-0.001	-0.221
-464.128	449.063	0.073	-0.161
-463.113	50.220	-0.190	-0.179
-462.099	-100.720	-0.194	-0.048
-461.084	-80.400	-0.315	-0.105
-460.070	800.000	0.073	-0.214
-459.055	237.693	-0.072	-0.119
-458.040	-10.888	-0.126	0.084
-457.026	-77.386	-0.157	-0.054
-456.011	97.128	0.059	0.068
-454.997	-99.376	-0.187	-0.047
-453.982	127.687	-0.051	-0.065
-452.968	800.000	0.029	-0.081
-451.953	-20.519	-0.128	-0.078
-450.938	464.190	-0.027	0.061
-449.924	682.628	0.081	-0.212
-448.909	-200.000	0.034	-0.291
-447.895	800.000	-0.080	0.237
-446.880	181.693	0.109	0.160
-445.865	-200.000	0.018	-0.153
-444.851	-11.653	-0.180	0.118
-443.836	91.669	-0.116	0.130
-442.822	386.936	0.079	0.163
-441.807	-163.726	0.140	0.007
-440.792	-94.705	0.225	-0.061
-439.778	-178.074	-0.241	-0.006
-438.763	91.688	0.242	0.272
-437.749	47.657	-0.259	0.242
-436.734	-117.372	0.243	-0.044
-435.719	727.566	-0.071	0.189
-434.705	5.447	-0.079	-0.058
-433.690	-152.062	0.211	-0.015
-432.676	375.739	-0.098	-0.199
-431.661	-118.843	-0.287	0.050
-430.646	-42.703	-0.249	0.126
-429.632	37.995	0.268	0.238
-428.617	-155.346	-0.236	0.015
-427.603	33.009	0.278	-0.240
-426.588	-115.332	0.263	-0.050
-425.573	-95.236	-0.163	-0.044
-424.559	-57.783	0.268	-0.117
-423.544	-114.745	0.042	0.008
-422.530	-42.805	0.162	0.082
-421.515	-81.450	0.045	0.015
-420.500	-124.056	0.101	0.016
-419.486	-200.000	0.017	0.339
-418.471	-200.000	0.013	-0.226
-417.457	-81.987	0.043	0.014
-416.442	-200.000	-0.000	-0.132
-415.428	12.537	-0.087	-0.067
-414.413	656.457	0.079	0.202
-413.398	117.464	0.266	0.327
-412.384	-157.726	0.129	-0.008
-411.369	800.000	-0.039	-0.115
-410.355	-200.000	-0.021	-0.491
-409.340	296.161	0.082	0.151
-408.325	-53.383	0.084	0.039
-407.311	-200.000	0.063	0.284
-406.296	-121.100	-0.367	0.061
-405.282	-142.545	-0.125	0.012
-404.267	-21.420	-0.077	0.047
-403.252	800.000	-0.034	0.104
-402.238	-103.941	0.080	0.019
-401.223	-22.324	-0.124	0.075
-400.209	85.338	0.161	-0.176
-399.194	-75.512	-0.282	-0.100
-398.179	-200.000	-0.015	-0.301
-397.165	-190.566	-0.104	0.001
-396.150	-200.000	-0.081	0.000
-395.136	-144.177	0.090	-0.008
-394.121	-200.000	-0.004	0.310
-393.106	-84.754	-0.196	0.061
-392.092	558.666	0.063	-0.152
-391.077	-128.709	0.232	0.033
-390.063	4.024	0.155	-0.113
-389.048	32.287	-0.128	0.111
-388.033	-61.116	0.216	0.091
-387.019	76.752	0.380	0.403
-386.004	-159.447	0.236	0.013
-384.990	-200.000	0.019	0.258
-383.975	-92.055	-0.228	-0.064
-382.960	-15.127	0.108	0.069
-381.946	800.000	-0.091	0.326
-380.931	-92.366	0.084	0.023
-379.917	-200.000	0.012	0.057
-378.902	-178.696	-0.367	-0.008
-377.888	250.700	0.071	-0.120
-376.873	-23.780	-0.182	-0.108
-375.858	-21.012	-0.289	0.176
-374.844	-49.645	-0.081	-0.038
-373.829	-200.000	0.000	-0.054
-372.815	45.224	0.221	0.203
-371.800	43.539	0.163	-0.149
-370.785	224.493	0.080	-0.129
-369.771	-71.357	0.127	-0.047
-368.756	71.769	-0.068	0.070
-367.742	150.927	-0.267	0.362
-366.727	-200.000	0.052	0.345
-365.712	-200.000	0.039	0.280
-364.698	189.249	0.152	0.227
-363.683	-200.000	-0.018	-0.201
-362.669	800.000	0.020	-0.081
-361.654	800.000	0.035	-0.099
-360.639	-9.287	0.317	-0.211
-359.625	-41.864	-0.175	0.089
-358.610	264.077	-0.063	0.109
-357.596	21.741	0.378	-0.307
-356.581	44.990	-0.118	0.108
-355.566	154.267	-0.217	-0.296
-354.552	118.541	-0.406	-0.499
-353.537	48.701	0.161	-0.150
-352.523	800.000	-0.042	0.173
-351.508	244.953	-0.192	0.322
-350.493	-69.219	-0.290	-0.111
-349.479	-136.459	-0.318	0.037
-348.464	-200.000	-0.033	-0.362
-347.450	-20.200	0.144	-0.088
-346.435	353.335	-0.151	-0.298
-345.420	-200.000	-0.006	-0.238
-344.406	-187.207	-0.159	0.002
-343.391	-144.934	0.155	0.014
-342.377	-77.605	0.159	0.055
-341.362	-154.982	-0.284	0.019
-340.348	423.538	-0.170	-0.365
-339.333	462.750	0.055	-0.121
-338.318	252.372	0.154	0.261
-337.304	-43.923	0.199	0.099
-336.289	59.762	-0.089	0.087
-335.275	-78.165	-0.154	0.053
-334.260	800.000	0.066	-0.263
-333.245	-155.531	0.172	-0.011
-332.231	114.247	0.113	0.137
-331.216	-147.276	0.110	-0.009
-330.202	83.047	0.039	0.042
-329.187	-12.281	-0.105	-0.068
-328.172	800.000	-0.034	-0.108
-327.158	-200.000	-0.083	0.421
-326.143	-19.508	0.073	-0.045
-325.129	-141.473	-0.145	0.015
-324.114	-145.498	-0.047	0.004
-323.099	-9.521	-0.219	-0.145
-322.085	21.429	0.199	-0.161
-321.070	402.348	0.124	0.259
-320.056	-188.020	-0.295	-0.004
-319.041	-200.000	-0.001	0.128
-318.026	-200.000	0.029	0.152
-317.012	-177.548	-0.126	-0.003
-315.997	445.560	-0.081	0.176
-314.983	800.000	-0.052	-0.170
-313.968	-61.829	0.142	-0.059
-312.953	-50.334	0.350	0.165
-311.939	73.903	-0.213	-0.222
-310.924	-33.492	0.329	0.181
-309.910	776.437	0.076	0.207
-308.895	49.422	-0.225	0.210
-307.880	29.984	-0.180	-0.153
-306.866	603.183	0.108	0.267
-305.851	-200.000	-0.010	-0.221
-304.837	25.205	-0.171	-0.141
-303.822	-163.506	0.401	0.019
-302.807	115.877	0.077	0.094
-301.793	373.291	-0.128	0.259
-300.778	800.000	0.068	0.277
-299.764	20.637	0.153	0.123
-298.749	9.875	-0.071	0.053
-297.735	-23.381	0.243	-0.145
-296.720	363.109	0.116	-0.232
-295.705	-200.000	0.004	0.454
-294.691	528.247	0.077	0.179
-293.676	-139.487	0.271	-0.029
-292.662	-27.990	0.469	-0.270
-291.647	43.265	0.096	0.087
-290.632	330.108	0.067	0.127
-289.618	-200.000	0.054	-0.262
-288.603	-114.072	-0.074	-0.014
-287.589	-200.000	0.025	0.292
-286.574	-129.823	-0.438	-0.060
-285.559	800.000	-0.086	0.270
-284.545	285.023	-0.055	0.099
-283.530	105.903	-0.260	0.306
-282.516	711.898	0.088	-0.231
-281.501	-54.098	0.150	-0.068
-280.486	-200.000	-0.007	-0.333
-279.472	-92.702	0.126	0.035
-278.457	800.000	0.053	0.168
-277.443	-143.371	0.203	-0.019
-276.428	-84.728	-0.193	-0.060
-275.413	800.000	-0.011	-0.039
-274.399	146.568	0.074	0.098
-273.384	265.630	-0.230	0.399
-272.370	312.435	0.097	0.182
-271.355	45.821	0.361	0.332
-270.340	438.146	-0.118	-0.256
-269.326	120.119	0.143	0.176
-268.311	447.618	-0.095	-0.208
-267.297	-180.799	-0.202	0.004
-266.282	800.000	0.053	0.226
-265.267	800.000	-0.094	-0.329
-264.253	-91.416	0.264	-0.075
-263.238	105.611	-0.100	-0.117
-262.224	594.927	-0.048	-0.118
-261.209	-200.000	-0.017	-0.160
-260.195	261.546	0.040	-0.068
-259.180	-200.000	0.053	0.485
-258.165	16.917	0.130	0.102
-257.151	305.680	0.068	-0.125
-256.136	-11.735	-0.276	0.180
-255.122	88.020	0.074	0.081
-254.107	639.021	0.044	0.111
-253.092	330.262	0.162	0.310
-252.078	70.526	0.202	0.207
-251.063	-2.112	0.157	-0.109
-250.049	-11.021	-0.208	-0.136
-249.034	-6.059	0.360	-0.244
-248.019	-200.000	-0.029	-0.178
-247.005	-151.886	0.252	0.018
-245.990	-200.000	-0.064	0.387
-244.976	587.929	-0.048	-0.118
-243.961	-95.086	0.073	-0.020
-242.946	-200.000	-0.012	-0.122
-241.932	-71.764	0.510	-0.188
-240.917	61.722	-0.202	0.200
-239.903	4.844	-0.251	-0.183
-238.888	35.489	0.067	0.058
-237.873	-104.008	0.491	0.113
-236.859	-33.509	-0.418	-0.229
-235.844	140.333	0.226	-0.295
-234.830	383.111	0.049	-0.100
-233.815	-100.285	0.095	0.023
-232.800	-41.398	0.303	-0.155
-231.786	800.000	0.052	0.154
-230.771	-109.965	0.057	-0.012
-229.757	-74.191	-0.330	-0.118
-228.742	244.500	-0.039	0.065
-227.727	-200.000	-0.021	0.101
-226.713	49.032	0.167	-0.156
-225.698	323.785	0.129	0.245
-224.684	-23.229	-0.070	-0.042
-223.669	800.000	-0.048	-0.188
-222.655	-200.000	0.016	0.097
-221.640	-195.311	0.148	0.001
-220.625	248.268	0.063	0.105
-219.611	-157.366	-0.244	0.015
-218.596	-153.340	-0.115	-0.008
-217.582	-89.662	0.423	-0.123
-216.567	190.032	0.185	-0.275
-215.552	-18.922	0.274	0.169
-214.538	-23.761	-0.138	0.082
-213.523	75.915	-0.186	-0.194
-212.509	800.000	0.030	-0.116
-211.494	104.384	0.126	-0.147
-210.479	-88.512	-0.014	0.004
-209.465	-200.000	-0.061	0.324
-208.450	-115.658	-0.339	0.063
-207.436	163.695	-0.093	-0.130
-206.421	-200.000	-0.006	0.141
-205.406	-139.592	-0.354	0.037
-204.392	-152.016	0.428	-0.031
-203.377	-40.131	0.204	0.105
-202.363	-122.602	-0.396	0.064
-201.348	-200.000	-0.046	-0.275
-200.333	-30.579	0.182	-0.102
-199.319	5.416	-0.072	0.053
-198.304	35.745	0.175	-0.152
-197.290	122.312	0.120	0.149
-196.275	152.002	-0.120	-0.161
-195.260	183.474	-0.272	0.398
-194.246	-200.000	-0.011	0.181
-193.231	-34.084	0.282	0.153
-192.217	191.997	0.040	0.059
-191.202	-115.912	-0.079	0.015
-190.187	-98.958	-0.265	0.067
-189.173	-200.000	-0.001	0.049
-188.158	-200.000	0.014	-0.352
-187.144	-43.686	-0.100	0.050
-186.129	-86.190	0.365	-0.111
-185.114	-141.776	-0.204	0.020
-184.100	-93.004	0.175	0.048
-183.085	300.204	-0.213	-0.388
-182.071	189.050	0.116	0.171
-181.056	-36.020	0.250	-0.134
-180.042	10.831	-0.121	0.091
-179.027	-39.474	0.266	-0.138
-178.012	-8.572	-0.136	0.090
-176.998	-151.497	-0.274	-0.020
-175.983	160.444	-0.132	0.182
-174.969	31.535	0.115	-0.097
-173.954	49.550	-0.210	-0.195
-172.939	-200.000	0.029	-0.288
-171.925	565.544	0.048	-0.114
-170.910	800.000	-0.047	0.202
-169.896	-127.448	0.379	0.054
-168.881	75.260	0.128	0.134
-167.866	766.825	-0.123	-0.330
-166.852	-74.402	-0.307	-0.110
-165.837	323.657	0.069	0.130
-164.823	274.148	0.027	-0.048
-163.808	-134.566	0.042	-0.005
-162.793	-45.281	0.205	0.101
-161.779	800.000	0.089	-0.271
-160.764	605.638	0.043	-0.106
-159.750	-49.126	0.119	-0.056
-158.735	-83.262	0.287	-0.091
-157.720	195.698	0.106	-0.159
-156.706	-92.066	-0.288	0.080
-155.691	4.764	-0.119	-0.086
-154.677	-200.000	0.011	0.052
-153.662	745.237	-0.015	-0.041
-152.647	-129.438	0.218	0.030
-151.633	-114.009	-0.118	-0.023
-150.618	-71.415	-0.148	0.055
-149.604	-149.101	0.439	0.035
-148.589	125.767	-0.253	-0.315
-147.574	54.764	0.026	-0.025
-146.560	-119.294	-0.393	-0.068
-145.545	-80.374	0.146	0.048
-144.531	-200.000	-0.032	0.164
-143.516	168.564	-0.107	-0.151
-142.502	614.558	-0.060	0.149
-141.487	-200.000	0.012	-0.071
-140.472	-52.083	-0.260	0.119
-139.458	-200.000	-0.017	0.134
-138.443	-54.553	-0.316	-0.141
-137.429	800.000	0.049	0.198
-136.414	800.000	-0.068	0.280
-135.399	-7.510	0.172	-0.115
-134.385	64.109	-0.137	0.136
-133.370	-179.023	-0.163	-0.004
-132.356	-105.493	0.323	-0.072
-131.341	-28.580	-0.178	0.101
-130.326	203.885	-0.183	0.279
-129.312	-109.878	0.074	-0.015
-128.297	-7.461	0.171	-0.115
-127.283	352.448	0.143	0.280
-126.268	-111.814	-0.283	0.057
-125.253	-200.000	-0.033	-0.161
-124.239	-76.047	0.258	0.090
-123.224	52.809	0.095	0.090
-122.210	47.537	-0.284	-0.261
-121.195	800.000	-0.042	0.120
-120.180	-200.000	-0.010	-0.136
-119.166	64.729	0.234	0.233
-118.151	-200.000	-0.000	-0.252
-117.137	-16.786	-0.093	-0.058
-116.122	-196.138	0.208	-0.001
-115.107	-36.285	0.098	-0.052
-114.093	65.195	-0.116	0.116
-113.078	-200.000	-0.013	0.309
-112.064	-17.890	-0.110	0.068
-111.049	-22.824	0.108	-0.064
-110.034	800.000	-0.104	-0.335
-109.020	-165.263	-0.104	0.005
-108.005	-101.031	-0.332	0.080
-106.991	-76.692	0.355	-0.123
-105.976	-200.000	-0.006	-0.072
-104.962	100.367	-0.126	-0.145
-103.947	-135.105	-0.198	-0.024
-102.932	-42.236	-0.094	0.047
-101.918	800.000	-0.031	0.106
-100.903	-200.000	0.062	0.320
-99.889	208.912	0.078	0.120
-98.874	156.892	-0.059	-0.080
-97.859	-38.680	0.077	0.040
-96.845	800.000	-0.127	0.425
-95.830	34.144	0.038	-0.032
-94.816	-130.788	0.091	-0.012
-93.801	-61.713	0.041	-0.017
-92.786	92.565	0.054	0.060
-91.772	-7.397	-0.062	0.042
-90.757	125.787	-0.087	0.108
-89.743	-74.011	0.120	-0.043
-88.728	28.455	0.199	0.166
-87.713	122.229	-0.165	-0.203
-86.699	-128.179	0.214	-0.030
-85.684	236.826	0.106	0.174
-84.670	-200.000	-0.009	-0.246
-83.655	386.919	-0.101	0.205
-82.640	7.166	0.081	0.059
-81.626	800.000	0.047	-0.130
-80.611	-200.000	-0.035	0.165
-79.597	355.222	-0.131	0.257
-78.582	-200.000	-0.032	-0.393
-77.567	-200.000	0.022	0.125
-76.553	100.475	0.252	0.288
-75.538	-2.370	0.331	-0.229
-74.524	598.251	0.045	0.109
-73.509	-105.985	-0.393	-0.087
-72.494	800.000	-0.070	0.273
-71.480	-126.118	-0.154	0.023
-70.465	-34.272	0.212	-0.115
-69.451	800.000	-0.090	-0.244
-68.436	148.105	0.202	-0.269
-67.422	-139.718	0.288	-0.030
-66.407	785.288	0.087	0.236
-65.392	224.619	0.256	0.408
-64.378	467.259	0.129	-0.284
-63.363	154.972	-0.085	-0.115
-62.349	-200.000	0.002	-0.303
-61.334	119.325	-0.738	-0.899
-60.319	800.000	0.171	0.587
-59.305	800.000	-0.247	-1.050
-58.290	101.811	0.941	1.080
-57.276	305.832	0.855	1.565
-56.261	-200.000	114.952	646.961
-55.246	465.468	1508.841	3323.525
-54.232	144.502	2681.651	3524.653
-53.217	93.332	2320.481	2583.629
-52.203	33.559	2068.667	1768.988
-51.188	28.954	1983.005	1654.358
-50.173	27.495	1966.125	1627.195
-49.159	45.672	2024.552	1840.805
-48.144	44.561	2040.165	1844.856
-47.130	29.477	1999.614	1672.700
-46.115	27.266	1989.306	1644.042
-45.100	27.174	1986.389	1640.742
-44.086	27.108	1983.971	1638.085
-43.071	27.085	1981.203	1635.522
-42.057	27.004	1979.243	1633.115
-41.042	27.044	1977.144	1631.680
-40.027	27.059	1975.592	1630.467
-39.013	27.018	1973.511	1628.311
-37.998	27.114	1971.974	1627.845
-36.984	27.153	1969.927	1626.435
-35.969	27.081	1968.056	1624.185
-34.954	27.115	1966.636	1623.253
-33.940	27.123	1964.952	1621.868
-32.925	27.174	1963.079	1620.710
-31.911	27.138	1961.476	1619.007
-30.896	27.145	1960.005	1617.790
-29.881	27.167	1958.732	1616.869
-28.867	27.301	1956.766	1616.370
-27.852	27.252	1954.863	1614.304
-26.838	27.279	1953.121	1613.041
-25.823	27.319	1951.091	1611.649
-24.809	27.220	1950.059	1609.858
-23.794	27.148	1947.935	1607.406
-22.779	27.296	1945.901	1606.974
-21.765	27.228	1944.320	1605.002
-20.750	27.205	1943.198	1603.812
-19.736	27.206	1941.425	1602.290
-18.721	27.255	1939.490	1601.057
-17.706	27.241	1937.904	1599.562
-16.692	27.256	1936.278	1598.291
-15.677	27.237	1934.980	1596.994
-14.663	27.142	1933.678	1595.022
-13.648	27.206	1932.110	1594.226
-12.633	27.218	1931.140	1593.468
-11.619	27.213	1929.991	1592.409
-10.604	27.214	1928.361	1591.013
-9.590	27.149	1927.191	1589.416
-8.575	27.158	1925.337	1587.901
-7.560	27.262	1924.214	1587.822
-6.546	27.185	1922.587	1585.745
-5.531	27.182	1921.710	1584.927
-4.517	27.149	1920.491	1583.576
-3.502	27.217	1919.216	1583.051
-2.487	27.226	1918.020	1582.082
-1.473	27.241	1916.639	1581.008
-0.458	27.268	1911.957	1577.318
0.556	25.391	1891.931	1549.563
1.571	20.968	1873.023	1496.071
2.586	17.032	1895.245	1479.444
3.600	15.971	1930.016	1497.028
4.615	15.900	1923.794	1491.436
5.629	12.466	1824.273	1385.270
6.644	4.955	1707.463	1237.032
7.659	0.590	1672.446	1177.566
8.673	0.189	1669.244	1172.088
9.688	0.103	1668.282	1170.635
10.702	0.152	1666.209	1169.458
11.717	0.047	1663.030	1166.309
12.731	0.563	1662.370	1169.745
13.746	6.294	1674.178	1222.568
14.761	13.994	1689.913	1294.131
15.775	17.215	1693.993	1322.246
16.790	16.946	1692.287	1318.705
17.804	15.898	1689.199	1308.043
18.819	14.968	1685.814	1298.092
19.834	14.367	1684.087	1291.989
20.848	14.048	1682.385	1288.097
21.863	13.812	1680.292	1284.560
22.877	13.623	1678.895	1281.911
23.892	13.456	1677.127	1279.161
24.907	13.297	1676.602	1277.417
25.921	13.262	1675.388	1276.113
26.936	13.313	1673.960	1275.306
27.950	13.342	1673.061	1274.725
28.965	13.354	1672.845	1274.545
29.980	13.385	1672.360	1274.302
30.994	13.433	1671.277	1273.732
32.009	13.503	1670.222	1273.353
33.023	13.528	1669.400	1272.806
34.038	13.456	1668.778	1271.662
35.053	13.459	1667.549	1270.642
36.067	13.528	1666.482	1270.243
37.082	13.392	1665.217	1268.125
38.096	13.465	1664.044	1267.679
39.111	13.401	1663.705	1266.816
40.126	13.475	1663.010	1266.741
41.140	13.472	1661.806	1265.690
42.155	13.407	1660.400	1264.012
43.169	13.283	1659.119	1261.981
44.184	13.292	1657.807	1260.938
45.199	13.169	1657.484	1259.638
46.213	13.219	1655.722	1258.570
47.228	13.217	1654.411	1257.448
48.242	13.345	1652.922	1257.175
49.257	13.444	1651.546	1256.775
50.271	13.351	1650.716	1255.322
51.286	13.341	1649.066	1253.881
52.301	13.320	1648.144	1252.914
53.315	13.407	1646.545	1252.242
54.330	13.336	1645.121	1250.515
55.344	13.304	1643.626	1249.027
56.359	13.368	1641.774	1247.986
57.374	13.316	1640.824	1246.761
58.388	13.276	1639.600	1245.423
59.403	13.300	1638.069	1244.333
60.417	13.240	1637.017	1242.969
61.432	13.267	1635.571	1241.965
62.447	13.230	1634.713	1240.922
63.461	13.200	1633.200	1239.440
64.476	13.249	1632.174	1238.920
65.490	13.139	1631.190	1237.243
66.505	13.214	1629.779	1236.625
67.520	13.144	1629.107	1235.479
68.534	13.207	1627.679	1234.760
69.549	13.245	1626.704	1234.196
70.563	13.232	1625.506	1233.075
71.578	13.188	1624.496	1231.876
72.593	13.125	1623.207	1230.322
73.607	13.147	1622.031	1229.485
74.622	13.160	1621.124	1228.781
75.636	13.138	1619.862	1227.557
76.651	13.068	1619.247	1226.459
77.666	13.061	1618.135	1225.456
78.680	13.115	1617.091	1224.957
79.695	13.176	1615.980	1224.463
80.709	13.142	1614.815	1223.216
81.724	13.175	1614.518	1223.125
82.739	13.218	1613.377	1222.473
83.753	13.271	1612.253	1221.905
84.768	13.218	1611.601	1220.915
85.782	13.312	1610.987	1221.035
86.797	13.460	1609.855	1221.157
87.812	13.454	1608.751	1220.169
88.826	13.339	1607.634	1218.368
89.841	13.269	1606.833	1217.136
90.855	13.300	1605.426	1216.188
91.870	13.261	1604.336	1214.969
92.884	13.357	1603.232	1214.733
93.899	13.411	1601.899	1214.012
94.914	13.482	1600.693	1213.508
95.928	13.392	1600.343	1212.474
96.943	13.516	1598.438	1211.833
97.957	13.474	1596.939	1210.281
98.972	13.364	1595.979	1208.650
99.987	13.374	1594.318	1207.351
101.001	13.392	1592.693	1206.147
102.016	13.381	1590.859	1204.571
103.030	13.385	1589.579	1203.527
104.045	13.373	1588.829	1202.765
105.060	13.388	1587.256	1201.579
106.074	13.373	1585.583	1200.096
107.089	13.276	1583.607	1197.787
108.103	13.182	1582.937	1196.493
109.118	13.168	1581.606	1195.284
110.133	13.258	1579.995	1194.608
111.147	13.286	1578.239	1193.376
112.162	13.211	1577.403	1192.101
113.176	13.241	1576.099	1191.223
114.191	13.270	1574.870	1190.399
115.206	13.293	1573.884	1189.714
116.220	13.380	1572.328	1189.057
117.235	13.346	1570.978	1187.690
118.249	13.277	1569.566	1186.017
119.264	13.265	1568.431	1184.975
120.279	13.274	1566.828	1183.722
121.293	13.227	1565.505	1182.280
122.308	13.184	1564.399	1181.036
123.322	13.228	1562.150	1179.543
124.337	13.192	1560.743	1178.118
125.352	13.242	1559.522	1177.453
126.366	13.223	1559.079	1176.879
127.381	13.270	1557.295	1175.764
128.395	13.167	1556.683	1174.465
129.410	13.158	1555.313	1173.264
130.424	13.278	1553.289	1172.484
131.439	13.285	1552.434	1171.783
132.454	13.297	1551.194	1170.830
133.468	13.273	1550.320	1169.894
134.483	13.338	1548.489	1168.870
135.497	13.340	1547.323	1167.902
136.512	13.297	1545.697	1166.268
137.527	13.365	1544.465	1165.713
138.541	13.317	1543.034	1164.194
139.556	13.346	1541.864	1163.411
140.570	13.301	1540.565	1162.011
141.585	13.374	1539.054	1161.279
142.600	13.434	1538.161	1160.924
143.614	13.527	1536.721	1160.387
144.629	13.549	1534.973	1159.114
145.643	13.579	1533.790	1158.335
146.658	13.612	1532.401	1157.408
147.673	13.508	1531.244	1155.712
148.687	13.485	1529.773	1154.337
149.702	13.530	1528.323	1153.451
150.716	13.456	1526.599	1151.536
151.731	13.443	1525.754	1150.707
152.746	13.406	1524.513	1149.410
153.760	13.531	1522.166	1148.409
154.775	13.469	1521.660	1147.492
155.789	13.557	1520.126	1146.844
156.804	13.621	1518.824	1146.203
157.819	13.606	1517.711	1145.159
158.833	13.602	1516.792	1144.334
159.848	13.657	1515.345	1143.521
160.862	13.755	1513.916	1143.016
161.877	13.762	1512.915	1142.207
162.892	13.686	1511.495	1140.514
163.906	13.601	1510.758	1139.271
164.921	13.594	1509.536	1138.205
165.935	13.606	1508.020	1137.037
166.950	13.523	1507.377	1135.887
167.964	13.600	1506.099	1135.351
168.979	13.625	1505.171	1134.722
169.994	13.591	1504.274	1133.712
171.008	13.597	1502.491	1132.305
172.023	13.680	1501.170	1131.777
173.037	13.699	1500.630	1131.402
174.052	13.727	1499.636	1130.741
175.067	13.805	1498.153	1130.057
176.081	13.808	1496.768	1128.934
177.096	13.810	1495.323	1127.758
178.110	13.692	1494.255	1126.049
179.125	13.669	1493.449	1125.188
180.140	13.618	1492.675	1124.156
181.154	13.740	1491.526	1124.017
182.169	13.735	1490.187	1122.876
183.183	13.821	1488.183	1121.852
184.198	13.920	1487.652	1122.020
185.213	13.844	1486.843	1120.798
186.227	13.866	1485.796	1120.053
187.242	13.838	1484.562	1118.837
188.256	13.935	1483.549	1118.632
189.271	13.963	1482.600	1117.999
190.286	13.979	1481.362	1117.080
191.300	13.998	1480.193	1116.225
192.315	13.819	1478.831	1113.900
193.329	13.743	1477.740	1112.469
194.344	13.809	1476.675	1112.008
195.359	13.745	1475.899	1110.898
196.373	13.726	1475.449	1110.334
197.388	13.871	1473.558	1109.779
198.402	13.999	1472.500	1109.743
199.417	14.001	1471.541	1108.932
200.432	13.994	1470.676	1108.139
201.446	14.057	1469.935	1107.899
202.461	14.147	1468.361	1107.216
203.475	14.163	1467.277	1106.410
204.490	14.244	1465.982	1105.868
205.504	14.193	1464.895	1104.618
206.519	14.252	1463.599	1103.933
207.534	14.126	1462.794	1102.393
208.548	14.119	1461.594	1101.342
209.563	14.107	1460.559	1100.384
210.577	14.105	1459.987	1099.842
211.592	14.168	1458.962	1099.395
212.607	14.173	1457.759	1098.417
213.621	14.207	1457.392	1098.273
214.636	14.262	1456.364	1097.762
215.650	14.268	1455.548	1097.093
216.665	14.286	1454.496	1096.316
217.680	14.235	1453.518	1095.147
218.694	14.249	1452.727	1094.544
219.709	14.314	1451.829	1094.200
220.723	14.357	1450.913	1093.696
221.738	14.462	1449.785	1093.438
222.753	14.403	1449.085	1092.425
223.767	14.397	1448.074	1091.531
224.782	14.413	1446.733	1090.523
225.796	14.340	1446.436	1089.727
226.811	14.513	1445.238	1089.858
227.826	14.477	1444.473	1088.953
228.840	14.517	1443.527	1088.401
229.855	14.423	1442.782	1087.129
230.869	14.356	1441.912	1085.945
231.884	14.429	1440.642	1085.365
232.899	14.496	1439.417	1084.783
233.913	14.513	1438.330	1083.975
234.928	14.426	1437.260	1082.507
235.942	14.346	1435.747	1080.755
236.957	14.342	1434.831	1079.943
237.972	14.415	1433.737	1079.497
238.986	14.320	1432.569	1077.911
240.001	14.458	1431.819	1078.140
241.015	14.541	1430.546	1077.623
242.030	14.436	1429.830	1076.311
243.045	14.510	1428.243	1075.501
244.059	14.537	1427.487	1075.006
245.074	14.654	1426.524	1074.944
246.088	14.536	1426.054	1073.732
247.103	14.623	1425.179	1073.536
248.117	14.641	1424.435	1072.996
249.132	14.637	1423.548	1072.210
250.147	14.700	1423.057	1072.149
251.161	14.768	1422.376	1071.978
252.176	14.791	1421.544	1071.405
253.190	14.925	1420.844	1071.640
254.205	14.874	1420.357	1070.854
255.220	14.893	1419.364	1070.131
256.234	14.990	1418.290	1069.846
257.249	15.041	1417.178	1069.238
258.263	14.999	1416.181	1068.126
259.278	15.016	1415.659	1067.745
260.293	14.983	1414.830	1066.814
261.307	14.990	1414.042	1066.168
262.322	15.005	1413.224	1065.555
263.336	15.077	1412.850	1065.633
264.351	15.103	1411.254	1064.502
265.366	15.163	1410.180	1063.980
266.380	15.132	1409.873	1063.459
267.395	15.150	1408.739	1062.620
268.409	15.215	1407.867	1062.284
269.424	15.125	1406.676	1060.722
270.439	15.155	1405.610	1060.010
271.453	15.131	1404.469	1058.905
272.468	15.179	1403.848	1058.646
273.482	15.169	1403.054	1057.895
274.497	15.225	1402.130	1057.453
275.512	15.142	1401.597	1056.434
276.526	15.274	1399.928	1055.914
277.541	15.173	1399.600	1054.941
278.555	15.187	1398.854	1054.369
279.570	15.203	1397.827	1053.607
280.585	15.286	1396.666	1053.158
281.599	15.388	1395.703	1052.980
282.614	15.347	1395.300	1052.322
283.628	15.364	1393.831	1051.231
284.643	15.241	1393.263	1049.936
285.657	15.333	1392.063	1049.519
286.672	15.307	1391.137	1048.564
287.687	15.397	1390.141	1048.282
288.701	15.329	1389.369	1047.183
289.716	15.420	1388.537	1047.032
290.730	15.425	1387.686	1046.329
291.745	15.410	1386.435	1045.195
292.760	15.374	1385.268	1044.002
293.774	15.448	1384.110	1043.495
294.789	15.515	1383.503	1043.360
295.803	15.516	1382.681	1042.660
296.818	15.562	1382.111	1042.418
297.833	15.551	1380.794	1041.269
298.847	15.412	1379.957	1039.684
299.862	15.516	1378.668	1039.264
300.876	15.617	1377.788	1039.134
301.891	15.452	1377.295	1037.647
302.906	15.544	1376.185	1037.291
303.920	15.623	1375.603	1037.248
304.935	15.575	1374.632	1036.125
305.949	15.671	1374.096	1036.221
306.964	15.722	1373.313	1035.850
307.979	15.767	1372.056	1035.089
308.993	15.754	1370.855	1034.010
310.008	15.860	1369.837	1033.806
311.022	15.750	1369.434	1032.735
312.037	15.723	1368.370	1031.676
313.052	15.791	1367.398	1031.267
314.066	15.865	1366.419	1030.888
315.081	15.841	1365.371	1029.864
316.095	15.776	1364.354	1028.606
317.110	15.756	1363.036	1027.396
318.125	15.733	1362.156	1026.503
319.139	15.763	1361.312	1025.960
320.154	15.803	1360.397	1025.425
321.168	15.825	1359.442	1024.748
322.183	15.817	1358.381	1023.810
323.197	15.821	1357.530	1023.102
324.212	15.714	1357.135	1022.060
325.227	15.791	1356.413	1021.893
326.241	15.859	1355.169	1021.281
327.256	15.845	1354.170	1020.350
328.270	15.905	1353.362	1020.018
329.285	15.876	1352.292	1018.948
330.300	15.877	1351.437	1018.217
331.314	15.886	1350.576	1017.534
332.329	15.878	1349.761	1016.779
333.343	15.834	1348.769	1015.675
334.358	15.899	1347.896	1015.321
335.373	15.966	1347.593	1015.405
336.387	16.037	1346.339	1014.801
337.402	15.959	1345.695	1013.759
338.416	15.999	1344.997	1013.382
339.431	16.035	1344.215	1012.917
340.446	16.096	1343.643	1012.763
341.460	16.162	1342.421	1012.146
342.475	16.107	1341.584	1011.098
343.489	16.202	1340.649	1010.873
344.504	16.262	1339.889	1010.572
345.519	16.240	1339.234	1009.854
346.533	16.335	1337.978	1009.385
347.548	16.328	1337.396	1008.816
348.562	16.308	1336.442	1007.888
349.577	16.316	1335.578	1007.193
350.592	16.363	1334.490	1006.567
351.606	16.284	1333.992	1005.633
352.621	16.288	1333.040	1004.849
353.635	16.289	1331.385	1003.520
354.650	16.296	1330.883	1003.094
355.665	16.272	1329.874	1002.098
356.679	16.267	1328.706	1001.101
357.694	16.326	1327.525	1000.470
358.708	16.333	1326.838	999.908
359.723	16.305	1325.929	998.967
360.738	16.471	1324.411	998.717
361.752	16.493	1323.791	998.292
362.767	16.424	1322.590	996.890
363.781	16.343	1321.664	995.626
364.796	16.487	1321.132	995.985
365.810	16.390	1320.326	994.721
366.825	16.582	1319.368	995.042
367.840	16.563	1318.809	994.419
368.854	16.600	1317.938	993.891
369.869	16.680	1317.511	993.952
370.883	16.688	1317.137	993.629
371.898	16.697	1316.181	992.871
372.913	16.626	1315.240	991.656
373.927	16.540	1314.738	990.690
374.942	16.612	1313.601	990.165
375.956	16.653	1312.915	989.798
376.971	16.707	1312.268	989.541
377.986	16.744	1311.389	989.006
379.000	16.775	1310.259	988.249
380.015	16.771	1309.806	987.793
381.029	16.838	1308.975	987.473
382.044	16.851	1308.348	986.984
383.059	16.899	1307.519	986.552
384.073	16.806	1307.082	985.591
385.088	16.815	1306.695	985.269
386.102	16.888	1305.839	984.957
387.117	16.926	1304.985	984.450
388.132	16.911	1303.780	983.367
389.146	16.819	1303.473	982.513
390.161	16.901	1302.217	981.954
391.175	16.823	1301.805	981.104
392.190	16.909	1300.872	980.812
393.205	16.861	1300.068	979.841
394.219	17.061	1298.528	979.751
395.234	17.006	1297.366	978.467
396.248	16.979	1296.676	977.705
397.263	16.934	1295.466	976.451
398.278	16.941	1293.793	975.143
399.292	16.948	1293.096	974.569
400.307	16.911	1291.896	973.366
401.321	16.914	1290.888	972.537
402.336	16.926	1289.901	971.778
403.350	17.058	1288.556	971.436
404.365	16.965	1287.856	970.287
405.380	16.984	1286.832	969.540
406.394	17.088	1286.169	969.547
407.409	17.072	1285.328	968.737
408.423	17.103	1284.945	968.537
409.438	17.185	1284.017	968.221
410.453	17.220	1283.419	967.886
411.467	17.230	1282.565	967.214
412.482	17.275	1282.500	967.335
413.496	17.289	1281.449	966.537
414.511	17.277	1280.660	965.785
415.526	17.357	1280.022	965.673
416.540	17.372	1279.172	965.030
417.555	17.517	1278.131	964.985
418.569	17.382	1278.001	964.036
419.584	17.331	1278.025	963.680
420.599	17.268	1277.232	962.640
421.613	97.068	1356.008	1476.951
422.628	94.802	1367.452	1477.042
