DTS Sentinel unit serial number:	SN413079Multiplexer serial number:	ORYXHardware model number:	OX4-SRSoftware version number:	ORYX F/W v4.00 Oryx Data Collector v3.7.2.0data status	okinstallation	princeton_trtdifferential loss correction	single-endedforward channel	channel 4reverse channel	N/Adate	2019/09/12time	19:30:18forward acquisition time	15.00reverse acquisition time	0.00gamma	496.2192k internal	0.2309k external	0.2309temperature offset calibration	1.0149default loss term (dB/km)	0.3790temperature slope calibration	1.0000multiplexer offset coefficient	1.0000multiplexer slope coefficient	1.0000fibre end	0.00T internal ref (°C)	32.25T ext. ref 1 (°C)	3.23T ext. ref 2 (°C)	26.81length (m)	temperature (°C)	Stokes	anti-Stokes-747.200	-143.928	-0.418	0.040
-746.185	99.403	-0.913	1.073
-745.171	-120.392	0.921	-0.159
-744.156	309.498	-0.378	0.719
-743.142	-200.000	0.028	-0.381
-742.127	-17.392	-0.896	-0.573
-741.112	-159.539	0.439	-0.025
-740.098	800.000	0.082	0.344
-739.083	-110.244	0.870	-0.184
-738.069	-49.625	-0.562	-0.272
-737.054	-121.598	0.516	0.087
-736.039	-67.137	0.293	0.117
-735.025	-15.366	0.451	0.293
-734.010	8.636	0.144	-0.110
-732.996	-44.379	-0.532	-0.270
-731.981	-200.000	-0.026	0.297
-730.966	-66.903	-0.952	0.382
-729.952	-76.485	0.820	-0.293
-728.937	72.901	-0.362	-0.384
-727.923	800.000	-0.135	0.509
-726.908	-200.000	-0.135	0.651
-725.894	8.083	-1.196	-0.911
-724.879	800.000	0.186	-0.632
-723.864	-150.951	-0.175	-0.013
-722.850	-116.031	0.983	-0.186
-721.835	25.042	-0.396	0.334
-720.821	414.535	0.136	0.295
-719.806	376.279	0.336	-0.697
-718.791	-123.695	-1.072	-0.172
-717.777	-165.076	0.727	-0.033
-716.762	800.000	0.275	-0.794
-715.748	173.938	0.329	-0.483
-714.733	270.688	0.054	-0.097
-713.718	-200.000	0.071	-0.408
-712.704	205.491	0.405	-0.639
-711.689	58.929	0.672	0.670
-710.675	261.978	-0.272	-0.478
-709.660	-63.911	-0.474	0.197
-708.645	-200.000	-0.089	-0.702
-707.631	393.351	0.120	-0.254
-706.616	-119.970	0.358	0.062
-705.602	-200.000	-0.015	0.114
-704.587	800.000	-0.187	0.786
-703.572	-200.000	0.031	-0.423
-702.558	-12.329	-0.300	-0.199
-701.543	144.459	-0.175	-0.237
-700.529	-184.481	-0.674	-0.011
-699.514	-86.583	-0.677	-0.211
-698.499	800.000	-0.166	-0.579
-697.485	180.696	0.094	-0.140
-696.470	20.775	0.305	0.250
-695.456	-5.652	-0.127	-0.088
-694.441	55.594	-0.285	0.280
-693.426	-122.348	-0.212	-0.035
-692.412	354.612	0.415	-0.837
-691.397	329.497	-0.371	-0.724
-690.383	-200.000	-0.805	-0.004
-689.368	31.489	-0.169	-0.147
-688.354	-114.569	0.255	-0.050
-687.339	-13.642	-0.190	0.125
-686.324	-10.121	-0.768	0.517
-685.310	271.105	-0.470	-0.839
-684.295	25.600	0.558	-0.471
-683.281	107.803	0.419	-0.506
-682.266	82.395	0.203	0.223
-681.251	-200.000	0.003	-0.312
-680.237	800.000	-0.155	0.513
-679.222	105.322	0.296	-0.355
-678.208	573.618	0.028	0.070
-677.193	-200.000	-0.051	0.588
-676.178	-200.000	0.019	-0.375
-675.164	800.000	-0.154	-0.582
-674.149	-131.953	0.467	0.062
-673.135	230.471	0.246	-0.408
-672.120	385.381	0.066	0.138
-671.105	800.000	-0.193	-0.637
-670.091	15.659	0.163	-0.130
-669.076	73.844	0.463	0.491
-668.062	10.806	-0.353	0.273
-667.047	2.092	-0.721	-0.527
-666.032	696.893	0.225	-0.599
-665.018	17.649	-0.468	-0.377
-664.003	-128.215	-0.136	0.020
-662.989	130.866	0.521	0.677
-661.974	229.516	-0.293	-0.485
-660.959	90.199	-0.356	-0.404
-659.945	-100.967	-0.297	-0.074
-658.930	116.814	0.018	0.022
-657.916	-100.322	-0.415	0.104
-656.901	-72.636	-0.430	-0.161
-655.886	11.384	-0.111	-0.086
-654.872	-200.000	0.106	-0.596
-653.857	-155.690	0.826	0.054
-652.843	368.351	-0.220	-0.451
-651.828	-102.561	0.208	-0.050
-650.814	-200.000	0.208	1.030
-649.799	-5.672	0.055	-0.038
-648.784	-73.283	-0.650	-0.241
-647.770	800.000	0.113	-0.479
-646.755	-200.000	-0.021	-1.045
-645.741	-37.712	0.440	-0.237
-644.726	800.000	0.061	0.260
-643.711	-25.168	0.824	-0.494
-642.697	-146.211	0.081	-0.007
-641.682	77.555	0.244	0.263
-640.668	-200.000	-0.004	0.206
-639.653	36.561	0.148	0.132
-638.638	-68.580	0.873	0.342
-637.624	67.275	0.286	-0.296
-636.609	-64.953	0.369	-0.151
-635.595	800.000	0.115	-0.367
-634.580	0.983	-0.608	-0.441
-633.565	42.314	-0.328	0.302
-632.551	242.708	-0.075	0.127
-631.536	-82.731	-0.213	-0.070
-630.522	45.573	0.630	-0.589
-629.507	48.803	0.278	-0.263
-628.492	115.126	-0.189	0.233
-627.478	155.138	-0.524	-0.729
-626.463	38.802	-0.885	0.799
-625.449	-118.592	0.722	0.129
-624.434	-200.000	0.028	-0.148
-623.419	49.617	0.338	-0.322
-622.405	-200.000	-0.063	-0.492
-621.390	800.000	-0.227	-1.003
-620.376	66.332	0.236	-0.243
-619.361	-200.000	-0.016	0.312
-618.346	-1.668	0.461	0.329
-617.332	-87.121	0.460	-0.141
-616.317	62.043	0.233	-0.234
-615.303	202.649	0.284	-0.443
-614.288	800.000	-0.093	0.327
-613.273	-197.750	-0.380	0.002
-612.259	77.757	-0.208	0.224
-611.244	0.209	0.516	-0.372
-610.230	275.738	0.220	-0.394
-609.215	-200.000	0.062	-0.887
-608.201	127.288	-0.570	-0.731
-607.186	213.815	0.184	-0.293
-606.171	93.877	-0.391	-0.448
-605.157	800.000	0.152	0.560
-604.142	147.447	-0.437	-0.594
-603.128	-13.139	0.091	-0.060
-602.113	780.941	-0.185	0.510
-601.098	-20.451	1.020	0.634
-600.084	800.000	0.132	-0.531
-599.069	-5.039	0.328	-0.228
-598.055	-200.000	-0.083	0.393
-597.040	-134.673	0.484	-0.059
-596.025	342.678	0.194	-0.383
-595.011	484.142	-0.032	-0.073
-593.996	65.182	-0.665	0.679
-592.982	-84.074	-0.549	-0.176
-591.967	-200.000	0.013	-0.303
-590.952	-200.000	-0.085	0.467
-589.938	475.367	0.318	0.726
-588.923	800.000	0.235	-0.677
-587.909	-200.000	-0.055	-0.326
-586.894	-200.000	-0.040	-0.322
-585.879	-200.000	0.065	0.673
-584.865	32.608	-0.172	-0.150
-583.850	0.380	-0.075	-0.054
-582.836	36.638	-0.596	0.531
-581.821	30.977	0.303	-0.263
-580.806	29.374	0.327	-0.281
-579.792	82.499	-0.418	-0.458
-578.777	800.000	-0.212	-0.739
-577.763	-139.213	0.285	0.031
-576.748	-145.037	-0.273	0.025
-575.733	203.081	-0.343	0.535
-574.719	136.740	-0.189	-0.249
-573.704	118.024	-0.304	0.378
-572.690	800.000	-0.172	-0.674
-571.675	-143.022	-1.181	-0.115
-570.661	-200.000	0.078	-0.442
-569.646	-0.995	-0.471	-0.336
-568.631	-129.022	-0.532	-0.075
-567.617	-47.103	0.099	0.049
-566.602	51.375	-0.405	0.388
-565.588	-200.000	0.110	-0.670
-564.573	-139.658	0.509	-0.055
-563.558	800.000	-0.184	-0.756
-562.544	-153.981	0.829	0.057
-561.529	-200.000	-0.101	0.541
-560.515	-171.829	-0.209	-0.007
-559.500	85.057	0.509	-0.563
-558.485	34.069	-0.686	-0.603
-557.471	800.000	-0.053	-0.198
-556.456	244.194	-0.596	-1.010
-555.442	416.039	-0.381	-0.819
-554.427	-11.837	-0.383	-0.253
-553.412	102.291	-0.463	0.546
-552.398	800.000	-0.318	-1.123
-551.383	-177.668	0.350	-0.009
-550.369	-131.309	0.726	-0.097
-549.354	-91.186	0.623	0.180
-548.339	-200.000	-0.132	0.773
-547.325	-186.487	0.215	-0.003
-546.310	221.101	-0.321	0.520
-545.296	-128.090	0.546	0.079
-544.281	19.088	-0.544	-0.440
-543.266	58.879	-0.447	0.443
-542.252	-200.000	0.080	-0.464
-541.237	-57.253	-0.549	0.244
-540.223	42.920	-0.522	-0.480
-539.208	-89.142	-0.488	0.145
-538.193	800.000	-0.203	0.753
-537.179	92.945	0.248	0.282
-536.164	800.000	-0.039	0.136
-535.150	-145.004	0.579	0.053
-534.135	800.000	-0.033	-0.101
-533.121	-158.517	0.466	0.027
-532.106	131.618	-0.477	-0.618
-531.091	-200.000	0.007	0.320
-530.077	512.593	-0.281	-0.659
-529.062	-102.960	-0.580	0.139
-528.048	237.548	0.174	0.290
-527.033	467.460	0.147	0.333
-526.018	219.314	-0.093	-0.149
-525.004	-116.178	-0.320	0.060
-523.989	-136.585	-0.700	0.082
-522.975	-99.094	-0.746	-0.190
-521.960	-141.578	0.680	-0.069
-520.945	800.000	-0.125	-0.361
-519.931	613.537	0.311	-0.784
-518.916	-51.755	0.577	0.271
-517.902	509.051	0.269	0.630
-516.887	-126.380	-0.519	-0.078
-515.872	510.563	-0.348	-0.815
-514.858	-163.137	-0.387	-0.019
-513.843	159.320	-0.309	-0.432
-512.829	-200.000	0.072	0.702
-511.814	17.537	0.591	0.473
-510.799	44.183	-0.412	-0.381
-509.785	177.010	0.132	0.194
-508.770	-153.800	0.461	-0.032
-507.756	43.828	0.949	-0.875
-506.741	39.975	1.018	0.920
-505.726	-25.565	-0.144	0.086
-504.712	238.352	-0.341	0.569
-503.697	429.232	0.278	0.604
-502.683	-90.364	-0.485	-0.142
-501.668	-84.301	-0.403	0.128
-500.653	-192.057	0.850	0.008
-499.639	479.308	-0.215	0.491
-498.624	-109.122	0.669	-0.143
-497.610	-3.204	-0.550	0.386
-496.595	-20.049	1.054	-0.654
-495.581	-67.461	-0.987	0.390
-494.566	-37.364	0.268	-0.144
-493.551	78.344	0.289	-0.311
-492.537	-200.000	-0.009	-0.435
-491.522	77.474	-0.130	-0.139
-490.508	-18.329	-0.708	-0.445
-489.493	-89.226	-0.230	-0.068
-488.478	97.069	0.297	-0.343
-487.464	-196.476	0.685	0.005
-486.449	-88.413	-0.441	-0.133
-485.435	-46.437	-0.433	-0.214
-484.420	-200.000	-0.057	0.889
-483.405	800.000	-0.171	0.681
-482.391	-200.000	0.005	-0.056
-481.376	259.104	0.340	-0.590
-480.362	-26.891	-0.172	0.101
-479.347	476.262	0.236	0.535
-478.332	-200.000	0.051	-1.179
-477.318	203.389	-0.234	-0.364
-476.303	392.674	-0.044	-0.092
-475.289	-180.687	0.330	0.007
-474.274	800.000	-0.162	0.662
-473.259	-116.182	0.024	0.004
-472.245	32.418	-0.313	0.272
-471.230	800.000	0.244	0.854
-470.216	78.011	0.211	-0.226
-469.201	-40.900	-0.165	0.086
-468.186	-200.000	0.047	-0.585
-467.172	602.319	0.068	-0.169
-466.157	-64.798	-0.366	-0.149
-465.143	262.089	-0.426	0.742
-464.128	185.091	-0.320	0.477
-463.113	703.193	-0.035	0.092
-462.099	-17.600	0.658	-0.416
-461.084	800.000	-0.143	0.468
-460.070	-172.766	-0.620	0.019
-459.055	405.102	0.107	0.228
-458.040	-149.044	-0.336	-0.027
-457.026	72.478	-0.246	0.258
-456.011	-70.302	0.501	-0.191
-454.997	-42.693	-0.695	-0.355
-453.982	215.416	0.239	-0.381
-452.968	261.807	0.139	-0.242
-451.953	-83.936	0.697	-0.223
-450.938	-200.000	-0.100	0.724
-449.924	800.000	0.033	0.138
-448.909	-13.889	0.452	-0.293
-447.895	370.337	-0.035	0.072
-446.880	-122.969	-0.637	0.103
-445.865	22.675	-0.809	-0.665
-444.851	279.251	-0.442	0.791
-443.836	-136.679	-1.291	-0.150
-442.822	-200.000	-0.073	0.362
-441.807	-64.374	0.227	0.093
-440.792	-94.128	0.152	-0.042
-439.778	-118.314	0.579	0.103
-438.763	-83.290	-0.208	0.067
-437.749	-48.159	-0.289	-0.140
-436.734	73.916	0.669	0.704
-435.719	800.000	-0.193	0.638
-434.705	-146.440	-0.759	-0.067
-433.690	-200.000	-0.032	-0.557
-432.676	-24.386	0.620	0.371
-431.661	210.080	0.387	0.609
-430.646	-35.838	-0.660	0.359
-429.632	-141.874	-0.461	-0.046
-428.617	136.108	-0.047	-0.061
-427.603	703.854	-0.153	0.405
-426.588	11.360	0.178	-0.136
-425.573	61.896	-0.160	-0.160
-424.559	800.000	-0.285	0.992
-423.544	-141.289	-0.297	0.030
-422.530	120.616	0.343	0.428
-421.515	369.199	0.157	0.319
-420.500	-40.686	-0.689	-0.358
-419.486	94.706	0.268	-0.306
-418.471	569.689	-0.265	0.646
-417.457	47.439	0.347	0.325
-416.442	-169.748	0.660	0.024
-415.428	-135.561	0.142	-0.017
-414.413	258.443	0.583	-1.008
-413.398	318.650	-0.399	-0.759
-412.384	-111.754	0.553	0.112
-411.369	-200.000	-0.016	0.579
-410.355	-200.000	-0.011	0.174
-409.340	-135.081	-0.338	-0.041
-408.325	-200.000	-0.003	0.579
-407.311	-97.028	-0.426	-0.112
-406.296	44.645	0.568	-0.523
-405.282	70.270	0.326	0.338
-404.267	409.609	0.079	-0.168
-403.252	-80.930	0.843	-0.280
-402.238	32.973	0.764	0.664
-401.223	33.434	-0.469	0.409
-400.209	-62.785	-0.536	0.223
-399.194	303.560	-0.327	-0.608
-398.179	-200.000	0.074	0.734
-397.165	-97.055	-0.254	0.067
-396.150	229.081	-0.160	0.261
-395.136	125.791	0.581	0.735
-394.121	-41.178	0.035	-0.018
-393.106	-41.545	0.218	0.112
-392.092	3.867	0.117	0.086
-391.077	-144.957	-0.825	-0.075
-390.063	-44.083	-0.590	0.297
-389.048	43.013	-0.213	-0.195
-388.033	-44.219	0.342	-0.172
-387.019	18.685	-0.437	-0.351
-386.004	800.000	0.158	0.500
-384.990	-135.277	0.882	-0.106
-383.975	-119.972	-0.410	-0.071
-382.960	-64.573	-0.997	-0.405
-381.946	74.030	-0.266	-0.279
-380.931	800.000	0.150	0.494
-379.917	-200.000	-0.095	0.722
-378.902	-200.000	0.006	-0.524
-377.888	72.916	-0.390	-0.408
-376.873	258.281	0.333	0.574
-375.858	-200.000	-0.096	0.549
-374.844	-32.613	0.377	0.210
-373.829	-200.000	0.004	0.308
-372.815	-200.000	0.063	-0.444
-371.800	-13.414	-0.442	-0.287
-370.785	-39.176	0.635	-0.334
-369.771	-74.581	0.396	0.143
-368.756	575.719	-0.294	-0.719
-367.742	800.000	0.119	-0.439
-366.727	390.423	-0.168	-0.348
-365.712	-40.119	0.457	0.238
-364.698	-131.320	0.381	0.051
-363.683	-200.000	0.005	0.639
-362.669	297.391	0.166	-0.305
-361.654	-135.312	0.305	0.037
-360.639	15.956	-0.143	-0.113
-359.625	616.958	0.292	-0.733
-358.610	-168.104	0.694	0.027
-357.596	800.000	-0.110	-0.378
-356.581	-83.393	0.088	0.028
-355.566	800.000	0.205	0.603
-354.552	-200.000	-0.055	1.063
-353.537	-195.442	-0.151	0.001
-352.523	-18.297	0.597	0.373
-351.508	-90.136	0.554	0.161
-350.493	800.000	-0.094	0.346
-349.479	-200.000	-0.061	-0.754
-348.464	-200.000	-0.045	-0.557
-347.450	800.000	0.121	-0.387
-346.435	800.000	0.057	-0.228
-345.420	-138.571	0.159	0.017
-344.406	37.227	-0.058	-0.051
-343.391	-112.061	-0.611	-0.123
-342.377	-200.000	-0.042	-0.205
-341.362	54.120	0.339	0.326
-340.348	248.892	0.645	1.093
-339.333	-17.169	-0.494	-0.312
-338.318	-100.405	0.584	-0.145
-337.304	-200.000	-0.032	0.311
-336.289	42.258	0.436	0.396
-335.275	-169.955	0.678	-0.024
-334.260	-158.778	-0.817	0.047
-333.245	-3.276	-0.444	0.309
-332.231	-67.078	0.304	0.120
-331.216	-16.868	-0.278	0.176
-330.202	800.000	-0.118	0.453
-329.187	41.712	-0.470	-0.426
-328.172	800.000	0.094	0.273
-327.158	-0.157	-0.013	0.009
-326.143	-200.000	0.015	-0.379
-325.129	629.804	0.062	-0.157
-324.114	800.000	0.004	-0.017
-323.099	-113.791	-0.807	0.157
-322.085	-167.531	-1.060	0.042
-321.070	149.357	-0.479	0.648
-320.056	-21.141	-0.620	0.379
-319.041	800.000	0.037	0.156
-318.026	206.228	-0.291	-0.452
-317.012	177.020	0.411	0.597
-315.997	-200.000	0.005	-0.039
-314.983	23.874	-0.190	-0.157
-313.968	800.000	-0.192	0.690
-312.953	-143.220	-0.527	0.051
-311.939	50.354	0.556	0.525
-310.924	800.000	0.243	0.743
-309.910	-39.902	-0.593	0.309
-308.895	-42.205	0.410	0.209
-307.880	197.237	-0.340	0.517
-306.866	306.776	-0.347	0.645
-305.851	675.318	-0.124	0.321
-304.837	296.568	0.452	-0.829
-303.822	113.151	-0.208	-0.252
-302.807	-100.625	0.417	-0.103
-301.793	-115.408	-0.244	0.046
-300.778	388.866	-0.144	0.297
-299.764	-200.000	-0.009	-0.598
-298.749	-200.000	0.029	-0.242
-297.735	-200.000	-0.164	0.856
-296.720	-200.000	0.135	0.647
-295.705	-77.895	-0.127	-0.044
-294.691	-35.573	-0.874	0.474
-293.676	-200.000	-0.040	-0.189
-292.662	625.179	-0.068	0.170
-291.647	24.589	-0.462	-0.382
-290.632	800.000	0.203	-0.562
-289.618	33.842	0.059	0.051
-288.603	77.371	-0.595	-0.632
-287.589	190.173	0.135	-0.203
-286.574	-200.000	-0.214	-1.118
-285.559	-200.000	-0.020	0.282
-284.545	-110.227	-0.630	-0.131
-283.530	-89.452	-0.331	0.097
-282.516	59.233	1.260	-1.238
-281.501	-78.837	-0.335	0.114
-280.486	1.954	0.367	0.264
-279.472	-86.869	0.711	-0.217
-278.457	191.901	-0.972	1.461
-277.443	-111.468	0.568	0.115
-276.428	-200.000	-0.019	0.087
-275.413	-140.696	-0.107	0.011
-274.399	532.223	0.239	0.565
-273.384	-64.079	0.432	0.176
-272.370	-200.000	-0.145	-0.795
-271.355	-106.074	-0.244	-0.055
-270.340	800.000	0.152	0.569
-269.326	571.628	-0.251	-0.610
-268.311	-75.754	-0.452	0.160
-267.297	-29.117	0.112	-0.064
-266.282	800.000	-0.169	-0.485
-265.267	-64.917	0.882	0.355
-264.253	-46.300	0.791	0.388
-263.238	-85.465	-0.509	0.158
-262.224	800.000	-0.165	0.491
-261.209	-56.115	0.842	0.374
-260.195	-133.965	-0.623	0.077
-259.180	-115.866	0.220	-0.041
-258.165	-124.720	-0.590	-0.091
-257.151	-200.000	-0.104	0.526
-256.136	229.749	0.502	0.818
-255.122	56.832	-0.479	-0.465
-254.107	-55.527	-0.975	0.435
-253.092	-19.609	0.522	0.322
-252.078	-139.687	0.982	0.104
-251.063	-105.236	0.453	-0.103
-250.049	266.914	0.319	0.556
-249.034	-200.000	0.001	-0.227
-248.019	-39.733	0.305	-0.159
-247.005	-76.110	0.316	0.111
-245.990	321.773	0.139	-0.263
-244.976	800.000	0.164	-0.455
-243.961	800.000	-0.239	0.675
-242.946	-125.143	-0.560	-0.086
-241.932	-154.285	-0.469	0.031
-240.917	139.082	0.132	-0.173
-239.903	67.050	0.305	0.310
-238.888	-44.822	0.356	0.177
-237.873	210.472	-0.045	-0.070
-236.859	-137.389	0.580	0.065
-235.844	4.645	-0.403	0.295
-234.830	-200.000	0.037	0.276
-233.815	800.000	-0.094	-0.330
-232.800	296.667	0.340	-0.622
-231.786	-94.060	0.379	-0.104
-230.771	474.446	-0.177	-0.399
-229.757	326.153	-0.299	-0.570
-228.742	-173.585	0.578	0.017
-227.727	-39.546	0.707	0.369
-226.713	-149.120	-0.410	0.033
-225.698	481.163	0.253	0.571
-224.684	-91.511	-0.322	0.091
-223.669	-56.681	1.457	-0.642
-222.655	-25.952	-0.302	-0.177
-221.640	227.022	0.214	0.347
-220.625	107.376	0.319	0.377
-219.611	294.917	-0.416	-0.757
-218.596	147.010	-0.728	-0.974
-217.582	108.808	-0.284	-0.338
-216.567	-58.433	-0.192	-0.083
-215.552	-61.362	-0.220	0.092
-214.538	122.412	-0.400	0.498
-213.523	800.000	0.166	-0.586
-212.509	-200.000	-0.092	0.788
-211.494	-155.292	0.541	-0.035
-210.479	-36.524	0.372	0.199
-209.465	-73.481	0.280	-0.102
-208.450	27.655	0.120	0.101
-207.436	-21.379	0.470	0.285
-206.421	35.289	-0.379	-0.330
-205.406	-200.000	0.049	0.632
-204.392	-77.777	0.499	0.172
-203.377	-9.985	0.551	0.364
-202.363	-200.000	-0.032	-0.639
-201.348	-28.291	-0.472	-0.271
-200.333	-50.273	-0.299	0.141
-199.319	129.936	-0.110	-0.140
-198.304	-37.875	-0.157	-0.083
-197.290	-200.000	-0.096	-0.492
-196.275	-116.466	-0.269	-0.049
-195.260	-200.000	-0.036	-0.878
-194.246	-74.003	0.208	0.075
-193.231	38.278	0.640	0.567
-192.217	303.857	0.248	0.457
-191.202	251.671	0.229	0.388
-190.187	-140.833	1.553	0.159
-189.173	-121.788	-0.088	-0.014
-188.158	-74.265	-0.429	0.154
-187.144	800.000	0.115	0.398
-186.129	-92.676	0.849	0.237
-185.114	-99.608	-0.772	0.193
-184.100	29.150	0.416	-0.351
-183.085	-47.219	0.742	-0.359
-182.071	-105.328	0.508	0.115
-181.056	-58.927	0.468	0.201
-180.042	17.125	0.107	0.084
-179.027	58.019	-0.452	-0.440
-178.012	-54.866	0.315	0.141
-176.998	-74.664	-0.397	-0.142
-175.983	103.059	-0.339	0.395
-174.969	455.475	0.065	-0.142
-173.954	-162.478	-0.625	0.031
-172.939	215.327	-0.411	-0.648
-171.925	-59.764	0.578	0.246
-170.910	-23.553	-0.480	-0.286
-169.896	-9.206	-0.193	0.128
-168.881	-30.017	-0.308	0.174
-167.866	377.876	-0.277	-0.563
-166.852	-95.881	-0.309	0.082
-165.837	-94.127	0.432	0.118
-164.823	-189.561	0.609	-0.007
-163.808	800.000	-0.215	-0.707
-162.793	92.470	0.562	-0.629
-161.779	-166.048	0.436	-0.018
-160.764	800.000	-0.094	0.302
-159.750	-106.737	-0.197	0.044
-158.735	-90.429	-0.518	-0.149
-157.720	800.000	-0.277	0.847
-156.706	522.904	0.014	-0.034
-155.691	514.507	-0.089	0.206
-154.677	299.789	-0.105	0.192
-153.662	299.190	-0.342	-0.626
-152.647	-125.397	0.248	0.038
-151.633	-107.352	0.854	-0.186
-150.618	-200.000	-0.005	0.486
-149.604	-115.229	-0.414	0.078
-148.589	-121.991	0.168	0.027
-147.574	182.377	-0.189	-0.276
-146.560	572.835	-0.111	0.267
-145.545	97.111	0.332	0.378
-144.531	-53.624	-0.515	0.234
-143.516	-102.350	-0.468	0.111
-142.502	515.075	-0.249	0.577
-141.487	-171.903	-0.846	0.027
-140.472	159.153	-0.441	-0.609
-139.458	-49.165	-0.655	-0.311
-138.443	209.834	0.479	-0.746
-137.429	518.117	-0.159	0.370
-136.414	-98.001	-0.243	-0.062
-135.399	800.000	0.046	0.162
-134.385	800.000	-0.104	-0.377
-133.370	262.159	-0.288	0.496
-132.356	800.000	0.153	0.654
-131.341	-200.000	0.019	0.851
-130.326	118.090	0.347	0.424
-129.312	-200.000	0.097	-0.510
-128.297	800.000	0.169	0.576
-127.283	-9.347	0.359	-0.238
-126.268	-68.203	-0.286	0.110
-125.253	-200.000	0.056	0.404
-124.239	327.088	0.424	0.805
-123.224	-12.008	0.564	-0.367
-122.210	-52.552	0.482	0.221
-121.195	800.000	-0.267	-0.919
-120.180	-96.195	-0.996	-0.262
-119.166	106.592	-0.443	0.521
-118.151	-1.359	0.766	-0.536
-117.137	-108.247	0.262	0.056
-116.122	800.000	0.067	-0.247
-115.107	-103.871	-0.847	-0.196
-114.093	-55.982	-0.178	0.079
-113.078	425.694	-0.418	-0.892
-112.064	-200.000	0.078	0.970
-111.049	16.789	-0.176	-0.138
-110.034	-200.000	0.075	-0.415
-109.020	-57.508	-0.577	0.251
-108.005	-200.000	0.054	-0.265
-106.991	-90.178	-0.803	-0.231
-105.976	800.000	-0.214	0.606
-104.962	-111.151	0.725	0.147
-103.947	-176.452	-0.490	-0.013
-102.932	-126.478	-0.539	-0.080
-101.918	209.541	-0.521	0.810
-100.903	-80.885	0.259	0.085
-99.889	258.127	-0.219	-0.373
-98.874	5.393	-0.458	-0.335
-97.859	306.624	-0.232	0.428
-96.845	800.000	-0.236	0.929
-95.830	7.038	0.469	0.346
-94.816	411.824	-0.279	0.586
-93.801	329.283	-0.210	-0.400
-92.786	120.479	0.367	-0.452
-91.772	-84.131	0.334	-0.105
-90.757	-138.792	-0.270	-0.029
-89.743	-107.938	0.399	-0.086
-88.728	326.958	0.275	-0.523
-87.713	-73.590	0.521	0.188
-86.699	143.011	-0.555	0.731
-85.684	-200.000	-0.071	0.999
-84.670	-158.627	-0.470	-0.027
-83.655	-200.000	0.040	-0.962
-82.640	2.763	0.260	0.187
-81.626	204.747	0.514	0.789
-80.611	-81.803	-0.374	-0.121
-79.597	-200.000	0.031	-0.225
-78.582	-66.095	0.491	0.194
-77.567	-200.000	0.041	0.509
-76.553	-103.605	-0.183	0.043
-75.538	-200.000	-0.043	-0.676
-74.524	-139.723	-0.413	-0.043
-73.509	-125.375	-0.424	-0.064
-72.494	142.244	-0.340	0.446
-71.480	-200.000	-0.042	-0.265
-70.465	319.878	-0.103	0.193
-69.451	-200.000	0.058	0.644
-68.436	-46.615	-0.508	0.247
-67.422	800.000	0.028	-0.085
-66.407	12.841	-0.447	-0.342
-65.392	-71.004	0.951	0.354
-64.378	184.358	-0.471	-0.690
-63.363	-70.833	0.788	0.294
-62.349	683.414	0.279	0.719
-61.334	-54.221	-0.326	-0.146
-60.319	-151.460	0.996	0.073
-59.305	800.000	-0.219	-0.899
-58.290	-60.557	0.859	0.361
-57.276	196.860	1.206	1.819
-56.261	-200.000	97.222	597.390
-55.246	661.204	1354.970	3452.675
-54.232	200.470	2526.149	3839.691
-53.217	109.204	2278.693	2697.091
-52.203	38.981	2045.837	1808.258
-51.188	33.949	1961.460	1689.027
-50.173	32.623	1943.547	1661.854
-49.159	47.770	1996.154	1842.635
-48.144	48.498	2014.319	1865.853
-47.130	34.760	1974.695	1707.408
-46.115	32.382	1965.352	1678.078
-45.100	32.140	1962.178	1673.151
-44.086	32.251	1960.058	1672.265
-43.071	32.091	1957.045	1668.205
-42.057	32.099	1954.717	1666.221
-41.042	32.076	1953.394	1664.829
-40.027	31.937	1952.006	1662.350
-39.013	32.156	1949.723	1662.270
-37.998	31.939	1949.263	1659.901
-36.984	32.122	1946.135	1658.780
-35.969	32.175	1943.780	1657.175
-34.954	32.442	1941.447	1657.478
-33.940	32.444	1940.915	1656.972
-32.925	32.217	1938.680	1653.003
-31.911	32.226	1938.257	1652.657
-30.896	32.294	1935.284	1650.649
-29.881	32.114	1934.917	1648.693
-28.867	32.112	1934.030	1647.854
-27.852	32.238	1932.079	1647.227
-26.838	32.208	1929.696	1644.868
-25.823	32.281	1928.244	1644.210
-24.809	32.348	1926.630	1643.348
-23.794	32.352	1923.385	1640.554
-22.779	32.265	1921.747	1638.336
-21.765	32.367	1919.744	1637.443
-20.750	32.360	1918.671	1636.406
-19.736	32.269	1916.397	1633.615
-18.721	32.325	1915.569	1633.328
-17.706	32.242	1914.289	1631.454
-16.692	32.191	1913.508	1630.280
-15.677	32.165	1911.559	1628.325
-14.663	32.231	1909.720	1627.270
-13.648	32.332	1908.574	1627.099
-12.633	32.324	1907.327	1625.908
-11.619	32.258	1905.113	1623.380
-10.604	32.324	1904.468	1623.338
-9.590	32.191	1903.289	1621.119
-8.575	32.212	1902.589	1620.643
-7.560	32.167	1901.372	1619.153
-6.546	32.527	1898.431	1619.680
-5.531	32.336	1898.016	1617.616
-4.517	32.495	1895.258	1616.574
-3.502	32.275	1895.541	1614.856
-2.487	32.313	1895.271	1614.889
-1.473	32.478	1892.661	1614.019
-0.458	32.146	1889.086	1608.060
0.556	33.213	1869.578	1579.413
1.571	29.082	1850.568	1528.990
2.586	25.048	1871.531	1512.211
3.600	23.808	1906.163	1529.388
4.615	22.988	1901.330	1518.333
5.629	18.118	1800.304	1397.818
6.644	8.501	1684.481	1233.872
7.659	3.743	1646.529	1169.997
8.673	3.336	1643.064	1164.359
9.688	3.123	1642.232	1162.058
10.702	3.376	1640.913	1162.927
11.717	3.086	1637.474	1158.202
12.731	3.605	1638.081	1162.445
13.746	10.267	1651.936	1222.626
14.761	19.614	1673.407	1309.609
15.775	24.560	1680.507	1352.602
16.790	24.983	1681.446	1356.447
17.804	24.529	1680.626	1352.222
18.819	24.521	1677.793	1349.766
19.834	24.303	1677.155	1347.486
20.848	24.249	1675.836	1345.898
21.863	24.345	1674.561	1345.480
22.877	24.585	1673.611	1346.406
23.892	24.557	1673.393	1345.901
24.907	24.447	1672.762	1344.447
25.921	24.332	1671.133	1342.149
26.936	24.375	1671.318	1342.503
27.950	24.726	1667.797	1342.194
28.965	24.514	1669.051	1341.495
29.980	24.629	1666.811	1340.433
30.994	24.646	1667.022	1340.616
32.009	24.496	1666.699	1339.111
33.023	24.653	1665.928	1339.549
34.038	24.583	1664.369	1337.656
35.053	24.420	1663.375	1335.516
36.067	24.626	1663.096	1336.713
37.082	24.667	1660.879	1335.123
38.096	24.460	1659.901	1332.671
39.111	24.493	1659.755	1332.683
40.126	24.668	1658.152	1332.584
41.140	24.601	1658.280	1332.071
42.155	24.607	1656.487	1330.555
43.169	24.302	1654.565	1326.627
44.184	24.048	1653.378	1323.669
45.199	24.016	1654.600	1324.291
46.213	24.079	1652.190	1322.711
47.228	23.986	1652.176	1321.895
48.242	24.180	1650.391	1321.787
49.257	24.446	1649.004	1322.532
50.271	24.657	1647.022	1322.384
51.286	24.362	1647.634	1320.574
52.301	24.434	1645.717	1319.457
53.315	24.599	1643.712	1318.951
54.330	24.344	1643.293	1316.612
55.344	24.295	1642.087	1315.171
56.359	24.389	1639.666	1313.809
57.374	24.221	1639.858	1312.608
58.388	24.224	1638.306	1311.274
59.403	24.104	1637.220	1309.400
60.417	24.147	1634.928	1307.766
61.432	24.004	1634.484	1306.252
62.447	23.972	1633.925	1305.452
63.461	23.892	1633.139	1304.123
64.476	23.890	1631.586	1302.752
65.490	23.975	1630.152	1302.111
66.505	24.053	1628.715	1301.423
67.520	23.777	1629.134	1299.623
68.534	24.153	1626.233	1299.937
69.549	23.869	1627.413	1298.690
70.563	24.102	1624.225	1297.730
71.578	23.930	1624.152	1296.307
72.593	23.887	1623.739	1295.544
73.607	23.773	1622.395	1293.527
74.622	23.845	1620.826	1292.687
75.636	23.739	1620.847	1291.823
76.651	23.740	1620.304	1291.278
77.666	23.753	1618.344	1289.700
78.680	24.022	1616.868	1290.355
79.695	23.806	1617.780	1289.401
80.709	23.963	1616.591	1289.481
81.724	23.826	1615.927	1287.847
82.739	24.185	1614.216	1288.965
83.753	24.207	1613.527	1288.458
84.768	24.185	1613.898	1288.484
85.782	24.547	1612.687	1290.017
86.797	24.731	1613.071	1291.537
87.812	24.830	1611.654	1291.008
88.826	24.552	1610.375	1287.864
89.841	24.541	1609.014	1286.582
90.855	24.423	1608.167	1284.942
91.870	24.612	1606.997	1285.253
92.884	24.692	1606.150	1285.034
93.899	24.685	1605.632	1284.453
94.914	24.932	1602.977	1283.993
95.928	24.808	1603.521	1283.424
96.943	24.805	1601.396	1281.584
97.957	24.658	1601.709	1280.673
98.972	24.717	1599.569	1279.268
99.987	24.831	1598.096	1278.795
101.001	24.850	1596.570	1277.591
102.016	24.642	1595.307	1274.988
103.030	24.427	1593.452	1271.860
104.045	24.497	1593.082	1271.952
105.060	24.547	1592.307	1271.572
106.074	24.370	1591.506	1269.562
107.089	24.270	1588.364	1266.231
108.103	24.047	1588.287	1264.477
109.118	24.059	1585.778	1262.451
110.133	23.715	1585.196	1259.434
111.147	23.805	1583.226	1258.401
112.162	23.874	1582.503	1258.201
113.176	23.872	1581.034	1256.908
114.191	24.049	1579.790	1257.055
115.206	24.121	1578.987	1256.817
116.220	23.991	1577.310	1254.455
117.235	24.063	1577.169	1254.737
118.249	24.382	1574.500	1254.746
119.264	23.947	1574.645	1251.692
120.279	23.809	1572.814	1249.154
121.293	23.873	1571.513	1248.464
122.308	23.885	1570.812	1247.875
123.322	23.872	1569.229	1246.417
124.337	23.882	1567.302	1244.845
125.352	23.804	1566.400	1243.477
126.366	23.469	1566.016	1240.716
127.381	23.554	1564.222	1239.776
128.395	23.933	1562.483	1240.937
129.410	23.749	1561.961	1239.129
130.424	23.599	1560.988	1237.198
131.439	23.488	1559.114	1234.831
132.454	23.623	1557.730	1234.564
133.468	23.632	1558.321	1234.989
134.483	24.118	1555.009	1235.627
135.497	24.191	1556.010	1236.819
136.512	23.995	1554.358	1234.043
137.527	24.069	1552.680	1233.110
138.541	24.279	1551.194	1233.275
139.556	23.795	1550.201	1229.029
140.570	24.060	1549.282	1230.024
141.585	24.288	1548.306	1230.717
142.600	24.457	1547.120	1230.830
143.614	24.417	1546.691	1230.101
144.629	24.517	1546.059	1230.178
145.643	24.750	1545.371	1231.130
146.658	24.505	1543.077	1227.504
147.673	24.408	1542.530	1226.292
148.687	24.271	1541.474	1224.405
149.702	24.539	1539.797	1224.806
150.716	24.451	1537.772	1222.482
151.731	24.106	1536.104	1218.685
152.746	23.801	1535.850	1216.289
153.760	23.760	1534.205	1214.598
154.775	24.154	1532.731	1216.019
155.789	24.209	1532.087	1215.776
156.804	24.585	1530.316	1216.821
157.819	24.450	1529.814	1215.397
158.833	24.337	1528.617	1213.566
159.848	24.367	1528.278	1213.399
160.862	24.477	1527.624	1213.518
161.877	24.253	1526.972	1211.367
162.892	24.282	1524.726	1209.678
163.906	24.111	1523.943	1207.792
164.921	23.897	1522.832	1205.353
165.935	23.854	1520.783	1203.335
166.950	24.023	1519.751	1203.554
167.964	24.023	1519.555	1203.290
168.979	24.424	1519.493	1205.847
169.994	24.532	1517.221	1204.667
171.008	24.277	1516.091	1201.944
172.023	24.134	1516.068	1200.850
173.037	23.776	1516.183	1198.422
174.052	24.150	1514.337	1199.380
175.067	24.257	1513.486	1199.319
176.081	24.381	1511.568	1198.525
177.096	24.136	1510.342	1195.802
178.110	24.032	1508.738	1193.731
179.125	23.780	1508.305	1191.590
180.140	24.083	1507.078	1192.545
181.154	24.187	1506.403	1192.602
182.169	24.198	1506.490	1192.640
183.183	24.319	1505.467	1192.535
184.198	24.452	1504.160	1192.280
185.213	24.514	1502.512	1191.282
186.227	24.466	1503.665	1191.769
187.242	24.563	1500.739	1189.993
188.256	24.449	1500.891	1189.248
189.271	24.580	1498.940	1188.469
190.286	24.529	1499.044	1188.104
191.300	24.592	1498.044	1187.630
192.315	24.389	1497.203	1185.504
193.329	24.211	1494.322	1181.941
194.344	24.224	1494.683	1182.206
195.359	24.119	1493.679	1180.614
196.373	24.260	1491.809	1179.962
197.388	23.697	1491.672	1176.021
198.402	23.722	1489.119	1174.075
199.417	24.079	1488.840	1176.108
200.432	24.467	1488.611	1178.387
201.446	24.690	1489.390	1180.367
202.461	24.699	1488.163	1179.349
203.475	24.461	1486.731	1176.542
204.490	24.737	1485.361	1177.171
205.504	24.467	1484.803	1174.849
206.519	24.224	1483.432	1172.065
207.534	24.237	1482.845	1171.580
208.548	24.001	1480.706	1168.236
209.563	24.081	1478.531	1166.943
210.577	24.209	1478.138	1167.367
211.592	23.885	1477.926	1164.971
212.607	23.836	1476.903	1163.747
213.621	24.197	1477.899	1166.791
214.636	24.652	1477.006	1168.961
215.650	24.430	1476.130	1166.713
216.665	24.426	1475.012	1165.698
217.680	24.584	1473.761	1165.638
218.694	24.591	1473.626	1165.471
219.709	24.973	1472.824	1167.227
220.723	24.540	1472.555	1164.090
221.738	24.772	1469.908	1163.404
222.753	24.678	1469.606	1162.451
223.767	24.237	1469.366	1159.288
224.782	24.016	1467.748	1156.475
225.796	24.253	1467.212	1157.485
226.811	24.457	1467.997	1159.332
227.826	24.555	1466.300	1158.520
228.840	24.503	1465.267	1157.267
229.855	24.339	1464.403	1155.417
230.869	24.405	1462.413	1154.175
231.884	24.335	1462.015	1153.308
232.899	24.375	1460.917	1152.596
233.913	24.077	1459.734	1149.635
234.928	23.974	1457.842	1147.379
235.942	24.109	1456.791	1147.319
236.957	24.117	1455.269	1146.070
237.972	24.261	1453.075	1145.168
238.986	23.593	1453.949	1141.463
240.001	23.595	1453.586	1141.087
241.015	23.976	1452.083	1142.254
242.030	23.876	1450.809	1140.512
243.045	24.072	1449.141	1140.353
244.059	24.241	1449.590	1141.686
245.074	24.313	1448.495	1141.183
246.088	24.306	1447.740	1140.444
247.103	24.550	1447.461	1141.680
248.117	24.355	1447.562	1140.415
249.132	24.648	1445.480	1140.543
250.147	24.556	1446.388	1140.571
251.161	24.880	1446.365	1142.520
252.176	25.074	1445.902	1143.291
253.190	25.446	1443.720	1143.833
254.205	25.414	1442.423	1142.504
255.220	25.350	1442.816	1142.307
256.234	25.463	1441.634	1141.985
257.249	25.291	1441.517	1140.702
258.263	25.394	1441.265	1141.052
259.278	25.198	1439.490	1138.304
260.293	25.100	1438.480	1136.785
261.307	25.211	1437.634	1136.717
262.322	25.261	1437.272	1136.644
263.336	25.673	1435.399	1137.673
264.351	25.329	1435.255	1135.283
265.366	25.136	1435.166	1133.890
266.380	25.514	1432.625	1134.165
267.395	25.206	1433.295	1132.650
268.409	25.332	1431.942	1132.278
269.424	25.177	1430.422	1129.999
270.439	25.267	1428.784	1129.171
271.453	25.165	1428.614	1128.295
272.468	25.214	1427.011	1127.239
273.482	25.123	1427.037	1126.589
274.497	24.860	1425.632	1123.729
275.512	25.032	1424.161	1123.548
276.526	24.829	1423.573	1121.711
277.541	24.771	1423.141	1120.905
278.555	24.895	1422.564	1121.131
279.570	24.832	1421.879	1120.100
280.585	25.247	1421.083	1121.966
281.599	25.302	1419.981	1121.339
282.614	25.269	1420.066	1121.103
283.628	25.311	1418.122	1119.731
284.643	24.802	1417.074	1115.629
285.657	24.760	1416.905	1115.139
286.672	24.726	1416.235	1114.298
287.687	25.106	1413.653	1114.531
288.701	24.855	1414.482	1113.524
289.716	24.745	1414.054	1112.405
290.730	24.900	1412.011	1111.661
291.745	25.207	1409.711	1111.659
292.760	24.876	1410.162	1109.862
293.774	24.987	1409.625	1110.029
294.789	24.817	1408.634	1108.096
295.803	24.996	1408.755	1109.206
296.818	25.189	1407.514	1109.319
297.833	25.233	1406.269	1108.516
298.847	24.927	1405.951	1106.274
299.862	24.947	1403.653	1104.492
300.876	24.926	1403.437	1104.096
301.891	24.934	1401.853	1102.803
302.906	24.776	1402.065	1101.896
303.920	25.135	1401.380	1103.471
304.935	25.403	1401.561	1105.167
305.949	25.470	1400.926	1104.981
306.964	25.694	1399.685	1105.275
307.979	25.584	1398.739	1103.757
308.993	25.489	1397.308	1101.948
310.008	25.133	1396.907	1099.351
311.022	25.230	1396.172	1099.271
312.037	25.493	1395.066	1099.915
313.052	25.577	1394.229	1099.671
314.066	25.416	1392.606	1097.305
315.081	25.212	1391.955	1095.452
316.095	24.790	1391.442	1092.373
317.110	24.425	1390.161	1089.045
318.125	24.853	1389.388	1090.955
319.139	24.636	1388.167	1088.575
320.154	24.908	1386.164	1088.563
321.168	24.594	1386.805	1087.061
322.183	24.861	1384.389	1086.692
323.197	24.950	1384.207	1086.992
324.212	24.786	1383.702	1085.506
325.227	24.827	1383.019	1085.124
326.241	25.113	1380.941	1085.130
327.256	25.140	1381.110	1085.330
328.270	24.909	1380.380	1083.262
329.285	24.824	1379.044	1081.601
330.300	24.836	1378.292	1080.990
331.314	25.089	1376.690	1081.161
332.329	25.266	1376.467	1081.958
333.343	25.200	1374.626	1080.019
334.358	24.980	1374.153	1078.229
335.373	25.057	1374.127	1078.574
336.387	25.172	1373.940	1079.028
337.402	25.547	1372.778	1080.273
338.416	25.147	1373.281	1078.169
339.431	25.334	1372.418	1078.515
340.446	25.398	1371.538	1078.115
341.460	25.548	1370.714	1078.273
342.475	25.783	1369.383	1078.536
343.489	25.881	1369.491	1079.110
344.504	26.106	1368.782	1079.803
345.519	25.640	1367.838	1076.176
346.533	26.005	1365.477	1076.405
347.548	25.963	1365.891	1076.384
348.562	26.043	1365.309	1076.311
349.577	26.000	1363.905	1074.847
350.592	25.637	1364.195	1072.817
351.606	25.413	1362.150	1069.783
352.621	25.110	1360.649	1066.704
353.635	25.285	1359.865	1067.036
354.650	25.050	1358.528	1064.497
355.665	25.157	1357.976	1064.608
356.679	24.994	1356.729	1062.565
357.694	24.963	1357.590	1062.964
358.708	25.482	1353.881	1063.035
359.723	25.575	1354.336	1063.848
360.738	25.478	1353.027	1062.156
361.752	25.420	1351.705	1060.682
362.767	25.242	1350.541	1058.625
363.781	25.694	1348.400	1059.514
364.796	25.684	1348.796	1059.671
365.810	25.379	1349.274	1058.154
366.825	25.816	1348.844	1060.298
367.840	25.944	1348.628	1060.785
368.854	25.928	1347.273	1059.535
369.869	26.261	1347.374	1061.479
370.883	26.035	1346.404	1059.289
371.898	26.251	1345.122	1059.460
372.913	25.836	1343.270	1055.474
373.927	25.804	1343.336	1055.246
374.942	25.835	1342.103	1054.362
375.956	25.914	1341.758	1054.463
376.971	25.878	1342.176	1054.489
377.986	25.837	1340.767	1053.048
379.000	25.709	1340.026	1051.621
380.015	26.072	1338.541	1052.481
381.029	26.293	1338.234	1053.437
382.044	26.213	1337.885	1052.601
383.059	26.348	1337.291	1052.828
384.073	26.025	1336.415	1050.169
385.088	26.236	1335.629	1050.684
386.102	26.120	1335.389	1049.728
387.117	26.258	1335.328	1050.390
388.132	26.181	1333.156	1048.140
389.146	25.849	1332.421	1045.542
390.161	25.631	1331.499	1043.459
391.175	25.722	1330.778	1043.334
392.190	25.697	1329.891	1042.402
393.205	25.734	1328.842	1041.700
394.219	25.680	1329.163	1041.544
395.234	25.875	1328.533	1042.091
396.248	26.037	1326.476	1041.317
397.263	25.916	1323.851	1038.467
398.278	25.620	1323.665	1036.524
399.292	25.775	1322.217	1036.189
400.307	25.796	1321.278	1035.486
401.321	26.122	1320.812	1036.901
402.336	25.855	1319.918	1034.573
403.350	25.688	1318.152	1032.141
404.365	25.188	1317.073	1028.342
405.380	25.639	1316.295	1030.226
406.394	25.611	1316.495	1030.128
407.409	25.700	1315.305	1029.615
408.423	25.619	1315.388	1029.124
409.438	25.836	1315.551	1030.403
410.453	26.166	1314.271	1031.192
411.467	26.258	1313.438	1030.978
412.482	26.262	1312.598	1030.247
413.496	26.306	1312.624	1030.427
414.511	26.174	1312.241	1029.281
415.526	26.338	1311.658	1029.668
416.540	26.652	1309.818	1029.920
417.555	26.580	1309.520	1029.188
418.569	26.583	1308.892	1028.617
419.584	26.502	1308.703	1027.920
420.599	26.492	1306.840	1026.304
421.613	143.115	1435.642	1792.917
422.628	138.658	1454.407	1792.908
