DTS Sentinel unit serial number:	SN413079Multiplexer serial number:	ORYXHardware model number:	OX4-SRSoftware version number:	ORYX F/W v4.00 Oryx Data Collector v3.7.2.0data status	okinstallation	princeton_trtdifferential loss correction	single-endedforward channel	channel 4reverse channel	N/Adate	2019/09/18time	01:33:35forward acquisition time	60.00reverse acquisition time	0.00gamma	496.2192k internal	0.2334k external	0.2334temperature offset calibration	0.9997default loss term (dB/km)	0.3790temperature slope calibration	1.0000multiplexer offset coefficient	1.0000multiplexer slope coefficient	1.0000fibre end	0.00T internal ref (°C)	23.06T ext. ref 1 (°C)	0.16T ext. ref 2 (°C)	16.74length (m)	temperature (°C)	Stokes	anti-Stokes-747.200	-155.479	0.203	0.013
-746.185	90.659	-0.080	0.090
-745.171	800.000	-0.066	-0.272
-744.156	-200.000	-0.189	0.000
-743.142	-98.488	0.342	-0.088
-742.127	64.684	-0.285	0.289
-741.112	522.561	-0.225	0.532
-740.098	-27.749	0.085	-0.049
-739.083	-128.797	0.288	-0.041
-738.069	-65.897	-0.278	0.112
-737.054	93.319	-0.079	-0.090
-736.039	11.175	-0.143	-0.110
-735.025	-101.281	0.088	0.022
-734.010	-200.000	0.034	-0.222
-732.996	262.040	-0.217	0.379
-731.981	-152.777	0.149	0.011
-730.966	-200.000	-0.015	-0.167
-729.952	252.830	-0.040	-0.069
-728.937	-32.058	0.251	0.141
-727.923	72.506	-0.177	-0.185
-726.908	390.608	0.163	0.339
-725.894	-52.446	0.161	-0.075
-724.879	-38.285	-0.080	-0.043
-723.864	282.784	0.056	0.100
-722.850	-126.080	-0.344	-0.052
-721.835	484.458	-0.103	0.235
-720.821	-131.536	0.195	-0.026
-719.806	800.000	0.042	-0.144
-718.791	69.743	-0.146	0.152
-717.777	-65.681	-0.236	-0.095
-716.762	-124.134	-0.343	-0.054
-715.748	10.488	0.122	0.093
-714.733	-175.875	-0.344	-0.009
-713.718	-71.675	-0.223	-0.084
-712.704	-200.000	0.023	-0.233
-711.689	44.652	-0.617	-0.570
-710.675	-100.978	0.176	0.043
-709.660	-92.272	0.260	-0.074
-708.645	30.839	-0.097	0.083
-707.631	98.719	-0.125	0.144
-706.616	363.348	0.047	0.095
-705.602	-200.000	0.006	0.390
-704.587	3.295	0.283	-0.207
-703.572	34.460	0.125	-0.109
-702.558	-123.089	-0.085	-0.014
-701.543	263.373	0.110	0.192
-700.529	-45.666	-0.173	0.086
-699.514	-136.301	-0.079	-0.009
-698.499	800.000	0.194	0.570
-697.485	-29.166	-0.128	-0.074
-696.470	3.580	-0.142	-0.104
-695.456	-200.000	-0.060	-0.617
-694.441	-131.054	-0.104	0.014
-693.426	-200.000	-0.260	-0.001
-692.412	-112.939	0.201	-0.040
-691.397	244.858	-0.041	-0.070
-690.383	-200.000	0.050	-0.301
-689.368	-11.620	-0.251	0.165
-688.354	787.700	-0.059	0.162
-687.339	-81.450	-0.242	0.080
-686.324	-1.666	0.189	-0.134
-685.310	-65.583	0.062	0.025
-684.295	15.710	-0.134	0.105
-683.281	148.321	-0.042	-0.057
-682.266	800.000	-0.015	-0.049
-681.251	-53.661	0.368	-0.169
-680.237	111.150	-0.182	0.220
-679.222	800.000	0.113	-0.407
-678.208	800.000	-0.090	0.300
-677.193	-55.426	0.450	0.202
-676.178	-200.000	0.068	-0.370
-675.164	-45.502	-0.290	-0.144
-674.149	-57.238	-0.047	0.021
-673.135	342.008	0.181	0.356
-672.120	-113.457	0.166	0.033
-671.105	-200.000	0.008	-0.136
-670.091	-200.000	0.013	0.170
-669.076	101.106	0.285	-0.332
-668.062	-83.466	0.389	-0.125
-667.047	-200.000	-0.035	-0.212
-666.032	800.000	0.029	0.111
-665.018	62.763	0.015	-0.015
-664.003	12.131	-0.151	0.116
-662.989	-200.000	0.000	-0.094
-661.974	-144.381	-0.113	0.011
-660.959	-135.720	0.327	0.039
-659.945	-174.375	-0.128	0.004
-658.930	-94.415	0.257	-0.070
-657.916	432.474	-0.093	-0.202
-656.901	-86.540	-0.109	0.033
-655.886	-200.000	-0.010	-0.226
-654.872	-85.403	0.247	0.077
-653.857	-9.074	0.163	0.109
-652.843	800.000	-0.047	0.155
-651.828	353.058	-0.051	-0.102
-650.814	101.968	0.192	-0.224
-649.799	800.000	-0.034	-0.124
-648.784	213.992	0.092	-0.146
-647.770	800.000	0.044	0.155
-646.755	-86.420	-0.053	-0.016
-645.741	542.232	-0.038	-0.090
-644.726	-34.320	0.193	0.106
-643.711	-98.133	0.100	-0.026
-642.697	-83.673	0.361	-0.115
-641.682	-99.721	-0.151	-0.038
-640.668	-200.000	-0.048	-0.279
-639.653	-128.579	0.202	-0.029
-638.638	-200.000	0.015	-0.431
-637.624	-57.169	-0.299	0.132
-636.609	37.584	0.207	-0.184
-635.595	348.151	-0.076	0.150
-634.580	800.000	0.030	0.087
-633.565	-68.174	-0.364	0.142
-632.551	130.828	0.139	0.179
-631.536	-184.684	-0.130	-0.002
-630.522	-29.255	0.236	-0.135
-629.507	800.000	-0.019	-0.052
-628.492	-68.465	-0.205	-0.080
-627.478	-78.982	0.224	-0.076
-626.463	216.829	-0.335	0.533
-625.449	255.341	0.068	-0.117
-624.434	-200.000	0.041	-0.240
-623.419	-187.776	0.305	0.004
-622.405	22.839	0.340	-0.278
-621.390	521.443	0.022	0.053
-620.376	174.706	0.137	0.198
-619.361	800.000	0.128	0.360
-618.346	137.315	-0.065	0.085
-617.332	-200.000	-0.018	0.347
-616.317	-200.000	-0.037	-0.303
-615.303	-55.937	-0.096	0.043
-614.288	-132.991	0.184	0.023
-613.273	-89.481	-0.168	-0.049
-612.259	151.106	0.052	-0.070
-611.244	-130.646	0.250	0.034
-610.230	-200.000	0.025	0.443
-609.215	327.352	0.023	0.043
-608.201	-65.034	0.275	-0.111
-607.186	-31.852	-0.110	0.062
-606.171	-51.054	-0.127	0.059
-605.157	161.364	-0.100	-0.140
-604.142	216.897	-0.125	-0.198
-603.128	-34.812	-0.112	0.061
-602.113	-62.568	0.199	0.082
-601.098	703.389	-0.072	-0.191
-600.084	-23.451	-0.096	0.058
-599.069	-148.594	-0.100	0.008
-598.055	-94.648	-0.299	0.081
-597.040	800.000	-0.073	-0.287
-596.025	800.000	0.024	0.099
-595.011	512.707	-0.102	0.238
-593.996	-131.874	-0.239	0.031
-592.982	260.418	-0.006	0.011
-591.967	2.363	-0.193	0.140
-590.952	-200.000	-0.015	-0.245
-589.938	407.677	-0.086	0.181
-588.923	28.579	0.064	-0.054
-587.909	-30.587	0.045	0.025
-586.894	91.837	0.253	0.284
-585.879	540.495	-0.077	0.184
-584.865	-86.198	-0.180	-0.055
-583.850	296.887	0.157	-0.289
-582.836	391.339	0.111	-0.230
-581.821	130.412	0.245	-0.314
-580.806	-109.446	-0.399	-0.084
-579.792	-59.636	-0.301	0.129
-578.777	54.518	-0.251	-0.242
-577.763	205.139	0.087	-0.134
-576.748	-14.692	-0.233	0.149
-575.733	-67.395	0.277	-0.109
-574.719	-102.536	-0.070	-0.017
-573.704	-78.405	0.260	0.089
-572.690	-142.816	0.044	-0.004
-571.675	747.097	-0.144	0.387
-570.661	-138.577	0.089	-0.010
-569.646	800.000	-0.060	0.174
-568.631	-117.113	-0.176	0.032
-567.617	438.334	0.078	0.171
-566.602	-22.264	0.303	-0.183
-565.588	-15.342	-0.172	0.110
-564.573	-13.671	0.072	0.046
-563.558	800.000	-0.023	0.084
-562.544	-60.411	0.172	-0.073
-561.529	449.928	-0.092	-0.202
-560.515	224.864	0.171	0.275
-559.500	275.672	0.113	-0.201
-558.485	16.085	0.067	0.052
-557.471	24.614	0.179	-0.148
-556.456	227.086	0.015	-0.025
-555.442	331.111	-0.019	0.037
-554.427	240.998	-0.051	-0.085
-553.412	-200.000	-0.075	0.448
-552.398	43.346	-0.133	0.121
-551.383	458.471	-0.070	0.155
-550.369	504.608	-0.052	0.120
-549.354	800.000	-0.110	0.374
-548.339	-49.585	-0.158	0.075
-547.325	307.662	0.146	-0.271
-546.310	-72.017	0.161	0.060
-545.296	-200.000	-0.004	0.224
-544.281	-8.189	-0.055	-0.037
-543.266	57.520	-0.072	-0.070
-542.252	-11.659	-0.218	0.143
-541.237	-6.428	0.355	-0.242
-540.223	-194.761	0.171	0.001
-539.208	191.039	-0.128	-0.192
-538.193	-73.072	0.117	0.043
-537.179	800.000	-0.063	-0.265
-536.164	-69.606	-0.190	0.073
-535.150	-155.135	-0.217	0.014
-534.135	-36.118	0.235	0.127
-533.121	-130.274	-0.403	0.055
-532.106	-200.000	0.018	-0.311
-531.091	341.300	-0.092	-0.178
-530.077	-160.178	-0.184	0.010
-529.062	22.444	0.124	-0.101
-528.048	-200.000	0.020	-0.219
-527.033	-200.000	0.060	0.276
-526.018	231.060	0.069	0.113
-525.004	-96.876	0.150	0.039
-523.989	141.456	-0.302	0.398
-522.975	-200.000	0.006	-0.031
-521.960	138.128	-0.102	-0.133
-520.945	-32.315	-0.124	0.069
-519.931	-86.095	0.148	-0.045
-518.916	800.000	0.043	-0.141
-517.902	-200.000	0.018	-0.165
-516.887	-16.917	-0.075	0.047
-515.872	-119.848	0.476	-0.082
-514.858	-103.813	0.086	0.020
-513.843	-85.901	0.228	0.070
-512.829	-116.584	-0.276	-0.051
-511.814	800.000	-0.072	-0.281
-510.799	-85.575	-0.253	0.078
-509.785	-71.063	0.308	0.116
-508.770	429.693	-0.068	0.147
-507.756	-131.445	-0.106	0.014
-506.741	-150.931	0.332	-0.025
-505.726	-83.418	-0.190	0.061
-504.712	-125.265	0.329	-0.050
-503.697	21.692	-0.156	-0.127
-502.683	800.000	-0.077	0.222
-501.668	-192.620	0.210	-0.002
-500.653	-149.343	0.317	0.025
-499.639	-80.675	-0.311	-0.103
-498.624	-153.472	-0.033	0.002
-497.610	87.833	-0.081	0.090
-496.595	-200.000	-0.001	-0.167
-495.581	-113.868	-0.103	0.020
-494.566	-200.000	-0.017	0.225
-493.551	687.829	-0.097	-0.254
-492.537	-41.283	-0.300	-0.154
-491.522	-67.826	-0.110	-0.043
-490.508	-133.872	0.143	0.018
-489.493	-200.000	0.019	-0.122
-488.478	-200.000	-0.019	-0.239
-487.464	800.000	-0.062	-0.230
-486.449	480.362	0.158	-0.357
-485.435	675.923	-0.110	-0.284
-484.420	54.312	-0.033	0.031
-483.405	75.173	-0.232	-0.244
-482.391	89.821	0.060	0.067
-481.376	-141.077	-0.332	0.034
-480.362	-11.749	-0.099	-0.065
-479.347	800.000	-0.049	-0.177
-478.332	435.082	-0.069	-0.149
-477.318	-200.000	0.033	0.170
-476.303	385.001	0.058	-0.119
-475.289	-200.000	-0.061	0.336
-474.274	87.037	0.032	-0.035
-473.259	800.000	-0.094	-0.405
-472.245	-200.000	0.018	-0.229
-471.230	174.225	0.186	0.267
-470.216	-200.000	-0.009	-0.109
-469.201	-46.485	-0.163	-0.080
-468.186	190.072	0.217	0.323
-467.172	-200.000	0.033	0.516
-466.157	-21.970	0.115	-0.070
-465.143	-186.583	-0.263	-0.004
-464.128	18.296	0.153	0.121
-463.113	-99.373	0.411	0.103
-462.099	-61.416	-0.160	0.067
-461.084	-108.237	0.144	-0.031
-460.070	161.089	-0.329	0.456
-459.055	800.000	-0.030	0.105
-458.040	800.000	-0.027	-0.091
-457.026	-149.669	-0.307	0.024
-456.011	-200.000	0.030	0.158
-454.997	233.299	-0.097	-0.159
-453.982	-150.080	-0.272	0.021
-452.968	-172.028	0.148	-0.005
-451.953	-170.225	-0.070	-0.002
-450.938	32.090	0.088	0.075
-449.924	-147.961	0.498	-0.041
-448.909	177.512	-0.216	-0.313
-447.895	102.307	-0.125	0.145
-446.880	125.184	-0.356	-0.446
-445.865	-200.000	0.007	-0.128
-444.851	-128.381	-0.244	0.034
-443.836	-37.549	0.062	-0.033
-442.822	79.886	0.209	-0.223
-441.807	57.885	-0.039	-0.038
-440.792	800.000	0.036	0.120
-439.778	-131.718	-0.070	-0.009
-438.763	60.976	-0.337	0.332
-437.749	800.000	0.041	0.125
-436.734	-38.197	-0.133	-0.070
-435.719	-113.748	0.380	-0.074
-434.705	701.936	-0.084	-0.220
-433.690	-73.846	-0.087	-0.032
-432.676	-31.595	-0.146	-0.082
-431.661	49.888	0.229	-0.214
-430.646	122.764	-0.215	0.267
-429.632	10.637	-0.256	0.194
-428.617	12.963	0.173	-0.133
-427.603	-73.072	-0.255	0.093
-426.588	272.786	0.065	0.114
-425.573	309.989	0.120	-0.223
-424.559	-200.000	-0.001	0.041
-423.544	159.693	-0.010	0.013
-422.530	356.778	-0.087	0.172
-421.515	-103.194	-0.208	-0.049
-420.500	800.000	0.008	-0.034
-419.486	-200.000	-0.006	-0.185
-418.471	-200.000	0.007	0.065
-417.457	-68.526	-0.320	0.123
-416.442	407.116	0.056	0.117
-415.428	112.656	-0.159	-0.191
-414.413	372.313	-0.033	-0.067
-413.398	270.197	0.109	-0.191
-412.384	664.442	-0.127	0.325
-411.369	-108.483	-0.286	0.061
-410.355	-154.388	0.071	0.005
-409.340	105.575	0.255	0.299
-408.325	-43.548	0.125	-0.062
-407.311	-200.000	-0.017	0.076
-406.296	-59.602	-0.025	-0.011
-405.282	-184.357	0.123	0.002
-404.267	-135.043	0.062	0.007
-403.252	-73.063	-0.209	0.076
-402.238	-155.052	-0.109	0.007
-401.223	232.699	0.032	0.052
-400.209	800.000	0.081	0.248
-399.194	-91.817	-0.036	0.010
-398.179	15.050	0.231	0.179
-397.165	150.887	0.274	0.369
-396.150	-70.440	0.386	-0.145
-395.136	-200.000	0.013	-0.452
-394.121	83.876	-0.102	-0.111
-393.106	-123.602	0.195	0.031
-392.092	-200.000	0.007	-0.225
-391.077	-134.125	-0.371	0.045
-390.063	-83.385	0.185	-0.059
-389.048	80.823	-0.252	-0.270
-388.033	-200.000	0.040	-0.216
-387.019	-200.000	-0.006	-0.223
-386.004	393.454	0.097	-0.201
-384.990	-61.499	-0.219	0.091
-383.975	-23.700	0.016	-0.010
-382.960	-8.199	0.242	-0.161
-381.946	433.232	-0.194	-0.417
-380.931	-200.000	0.033	0.250
-379.917	-200.000	0.006	0.234
-378.902	-200.000	0.006	-0.169
-377.888	-46.072	0.183	0.089
-376.873	538.593	-0.083	0.194
-375.858	-110.331	0.109	-0.022
-374.844	-64.981	0.268	0.107
-373.829	237.053	0.043	0.071
-372.815	-36.909	-0.410	0.218
-371.800	800.000	0.101	0.298
-370.785	-200.000	0.028	-0.244
-369.771	-200.000	-0.004	-0.206
-368.756	-200.000	0.096	0.521
-367.742	25.525	0.310	-0.255
-366.727	37.036	0.181	-0.159
-365.712	-200.000	-0.018	-0.255
-364.698	-128.025	-0.120	-0.017
-363.683	-65.276	-0.108	-0.043
-362.669	132.921	-0.109	0.139
-361.654	340.152	-0.104	0.201
-360.639	-200.000	0.045	0.367
-359.625	800.000	0.064	0.272
-358.610	194.267	0.020	-0.030
-357.596	38.866	0.175	0.154
-356.581	-122.498	-0.226	0.036
-355.566	10.089	0.343	-0.258
-354.552	-200.000	-0.022	-0.241
-353.537	287.190	0.123	-0.220
-352.523	32.095	0.219	0.187
-351.508	-200.000	0.048	-0.237
-350.493	164.815	-0.158	-0.221
-349.479	85.228	0.231	0.251
-348.464	-200.000	0.055	0.262
-347.450	-0.003	-0.222	0.157
-346.435	-200.000	-0.020	-0.132
-345.420	-200.000	-0.012	0.223
-344.406	667.175	0.103	0.263
-343.391	-128.839	0.162	-0.023
-342.377	-200.000	-0.008	0.073
-341.362	-36.072	0.148	-0.079
-340.348	-158.562	-0.436	-0.025
-339.333	-120.129	0.431	-0.073
-338.318	150.239	-0.137	0.184
-337.304	-193.453	-0.087	-0.001
-336.289	800.000	-0.037	0.148
-335.275	31.629	-0.171	0.145
-334.260	-45.293	-0.198	0.097
-333.245	-81.619	0.241	0.078
-332.231	-107.754	-0.421	0.091
-331.216	-57.791	0.270	0.117
-330.202	-136.046	0.370	0.043
-329.187	-200.000	-0.032	-0.276
-328.172	-106.355	0.086	-0.019
-327.158	-38.069	-0.157	0.082
-326.143	419.139	-0.120	-0.254
-325.129	-200.000	0.045	0.241
-324.114	-200.000	-0.009	0.343
-323.099	334.849	-0.041	-0.079
-322.085	-86.373	0.241	-0.073
-321.070	74.943	-0.135	0.141
-320.056	-200.000	-0.050	0.216
-319.041	-42.055	0.212	-0.107
-318.026	-200.000	0.024	-0.214
-317.012	-52.306	-0.274	-0.126
-315.997	433.085	0.032	0.068
-314.983	-200.000	-0.027	0.324
-313.968	13.808	-0.060	0.046
-312.953	-200.000	-0.012	-0.227
-311.939	310.853	-0.073	-0.135
-310.924	-69.092	-0.111	-0.042
-309.910	-199.249	-0.212	0.001
-308.895	-114.962	0.021	-0.004
-307.880	-151.679	-0.392	0.029
-306.866	254.957	0.132	0.223
-305.851	-200.000	0.102	-0.536
-304.837	183.491	0.185	-0.271
-303.822	800.000	-0.055	0.152
-302.807	-130.320	-0.096	0.013
-301.793	234.211	0.149	-0.242
-300.778	92.980	0.111	-0.124
-299.764	800.000	-0.080	-0.297
-298.749	-91.059	-0.092	0.026
-297.735	151.595	-0.125	0.168
-296.720	-200.000	0.008	0.291
-295.705	367.831	0.177	-0.354
-294.691	448.834	-0.021	0.047
-293.676	-101.425	0.135	0.033
-292.662	-75.592	0.143	-0.050
-291.647	800.000	-0.153	0.420
-290.632	361.665	0.080	-0.158
-289.618	28.848	-0.406	-0.340
-288.603	300.097	0.111	-0.203
-287.589	250.631	-0.153	-0.258
-286.574	147.382	-0.040	0.053
-285.559	-38.126	-0.265	0.139
-284.545	239.894	-0.178	-0.293
-283.530	340.288	-0.081	0.156
-282.516	4.373	0.216	-0.157
-281.501	116.848	0.296	-0.359
-280.486	-200.000	-0.012	-0.093
-279.472	-200.000	0.019	0.264
-278.457	-75.591	-0.193	0.068
-277.443	-82.081	-0.223	0.072
-276.428	601.783	0.055	-0.135
-275.413	56.847	0.273	-0.262
-274.399	191.845	0.069	0.102
-273.384	-115.466	0.139	-0.026
-272.370	800.000	-0.043	0.147
-271.355	800.000	-0.023	-0.077
-270.340	-61.046	-0.245	0.102
-269.326	-138.422	-0.162	-0.018
-268.311	269.503	-0.159	0.275
-267.297	-31.130	0.079	-0.044
-266.282	235.180	0.133	0.217
-265.267	37.454	-0.076	0.067
-264.253	398.250	0.227	-0.468
-263.238	-200.000	0.002	0.191
-262.224	-109.256	-0.121	-0.025
-261.209	327.172	0.036	-0.067
-260.195	48.929	-0.119	-0.110
-259.180	-200.000	0.051	-0.323
-258.165	-43.064	0.199	-0.100
-257.151	123.754	-0.086	-0.106
-256.136	-65.169	-0.129	-0.051
-255.122	-62.107	-0.128	-0.052
-254.107	-4.328	0.277	0.189
-253.092	-116.926	0.354	-0.064
-252.078	-200.000	-0.003	0.050
-251.063	-43.482	0.381	0.190
-250.049	-200.000	0.054	0.279
-249.034	-168.579	-0.405	-0.015
-248.019	800.000	0.128	-0.360
-247.005	195.011	-0.076	0.114
-245.990	-36.933	0.050	-0.026
-244.976	-200.000	-0.039	-0.274
-243.961	59.813	0.187	0.182
-242.946	-23.544	-0.184	-0.109
-241.932	183.092	-0.303	-0.441
-240.917	-200.000	-0.018	-0.285
-239.903	-88.704	0.517	-0.152
-238.888	-200.000	0.004	0.058
-237.873	800.000	0.041	0.114
-236.859	85.801	0.144	-0.156
-235.844	800.000	0.101	0.410
-234.830	5.851	-0.165	-0.120
-233.815	-200.000	0.029	0.133
-232.800	47.824	0.230	0.212
-231.786	84.421	0.161	0.173
-230.771	361.661	0.092	0.182
-229.757	15.651	0.218	0.169
-228.742	-27.844	-0.023	0.013
-227.727	657.797	-0.071	0.180
-226.713	-24.024	0.101	-0.059
-225.698	162.582	-0.064	-0.088
-224.684	-200.000	0.029	0.140
-223.669	38.640	-0.267	-0.235
-222.655	-43.845	0.057	-0.028
-221.640	28.145	-0.183	0.152
-220.625	-200.000	0.013	0.184
-219.611	-200.000	-0.020	0.263
-218.596	-200.000	-0.019	0.106
-217.582	-18.382	0.140	0.086
-216.567	800.000	0.110	0.332
-215.552	87.366	-0.049	-0.054
-214.538	85.025	0.043	0.047
-213.523	286.438	-0.140	0.250
-212.509	-200.000	0.021	0.154
-211.494	-200.000	-0.021	0.095
-210.479	-200.000	0.055	-0.286
-209.465	395.556	-0.109	-0.224
-208.450	197.412	0.144	-0.216
-207.436	-200.000	-0.007	0.046
-206.421	-120.071	0.371	0.063
-205.406	-114.457	-0.512	-0.097
-204.392	-130.557	0.070	-0.009
-203.377	-200.000	-0.041	0.344
-202.363	19.768	-0.198	-0.157
-201.348	32.719	-0.116	-0.099
-200.333	-200.000	0.066	-0.296
-199.319	-34.540	0.204	0.110
-198.304	192.623	-0.038	0.057
-197.290	800.000	-0.092	-0.373
-196.275	78.633	0.041	0.043
-195.260	767.081	0.038	-0.101
-194.246	246.688	-0.109	0.181
-193.231	313.717	-0.043	-0.080
-192.217	-200.000	0.031	0.233
-191.202	-129.184	0.185	-0.025
-190.187	-200.000	-0.005	-0.226
-189.173	103.808	-0.089	0.103
-188.158	28.187	-0.172	0.143
-187.144	-82.444	-0.294	0.094
-186.129	-200.000	-0.000	-0.161
-185.114	237.033	0.193	-0.314
-184.100	362.608	-0.064	-0.127
-183.085	-7.944	0.193	-0.128
-182.071	-191.727	-0.313	0.003
-181.056	219.149	-0.117	-0.184
-180.042	-200.000	-0.023	0.124
-179.027	-86.552	-0.121	0.036
-178.012	-5.277	0.266	0.179
-176.998	-200.000	0.015	0.228
-175.983	44.948	0.353	0.319
-174.969	114.657	0.168	-0.201
-173.954	36.215	0.125	-0.108
-172.939	581.054	0.070	-0.170
-171.925	-128.292	-0.135	-0.019
-170.910	-200.000	-0.006	0.385
-169.896	9.686	-0.516	-0.385
-168.881	-12.273	0.179	-0.115
-167.866	32.519	0.195	0.166
-166.852	44.118	0.115	-0.104
-165.837	-159.852	0.260	-0.014
-164.823	-97.275	0.096	-0.025
-163.808	-52.951	0.241	0.109
-162.793	455.508	-0.176	0.384
-161.779	328.083	0.042	0.079
-160.764	426.817	-0.072	-0.152
-159.750	394.946	0.098	0.201
-158.735	-76.978	0.137	0.047
-157.720	8.573	-0.123	0.091
-156.706	0.540	0.056	-0.039
-155.691	111.395	0.127	-0.150
-154.677	-200.000	-0.018	0.184
-153.662	-164.829	0.197	-0.009
-152.647	571.188	-0.142	0.341
-151.633	-77.620	0.189	-0.064
-150.618	-200.000	0.006	-0.169
-149.604	800.000	0.072	-0.272
-148.589	168.628	0.128	0.180
-147.574	107.319	-0.202	0.236
-146.560	-12.426	0.206	0.132
-145.545	233.750	-0.161	0.260
-144.531	137.863	-0.091	0.117
-143.516	390.535	-0.016	-0.032
-142.502	-145.492	-0.200	-0.018
-141.487	800.000	0.094	-0.255
-140.472	-200.000	-0.010	0.235
-139.458	-143.190	0.166	-0.016
-138.443	569.945	-0.064	-0.152
-137.429	-156.666	0.079	0.005
-136.414	402.627	-0.041	-0.084
-135.399	33.195	-0.126	-0.107
-134.385	334.217	0.016	0.030
-133.370	-55.430	0.065	0.029
-132.356	15.383	0.148	-0.114
-131.341	293.701	-0.076	-0.137
-130.326	-7.964	-0.195	-0.129
-129.312	-120.846	-0.462	0.076
-128.297	589.598	-0.097	0.234
-127.283	59.356	0.115	-0.111
-126.268	22.733	-0.335	0.269
-125.253	-200.000	-0.017	0.135
-124.239	87.088	-0.147	0.160
-123.224	561.426	0.026	-0.062
-122.210	-81.849	0.191	-0.061
-121.195	78.854	0.278	-0.291
-120.180	-76.783	0.367	0.126
-119.166	-136.387	0.503	0.057
-118.151	-122.341	-0.548	-0.088
-117.137	-6.639	-0.294	0.197
-116.122	345.737	-0.011	-0.022
-115.107	-57.695	-0.071	0.031
-114.093	-169.994	0.178	-0.006
-113.078	800.000	0.086	0.351
-112.064	-69.217	-0.159	0.060
-111.049	206.483	-0.144	-0.220
-110.034	13.407	-0.146	-0.111
-109.020	154.571	0.203	-0.274
-108.005	223.720	-0.103	0.164
-106.991	800.000	-0.086	0.293
-105.976	87.785	-0.022	0.024
-104.962	-0.461	0.130	0.091
-103.947	-200.000	0.008	0.295
-102.932	-22.287	-0.139	0.082
-101.918	-200.000	0.004	0.212
-100.903	4.701	0.135	-0.097
-99.889	68.398	0.072	-0.072
-98.874	-20.694	-0.021	-0.012
-97.859	0.179	-0.239	0.167
-96.845	62.686	0.326	0.319
-95.830	-200.000	0.030	-0.248
-94.816	-200.000	0.012	-0.114
-93.801	800.000	0.096	-0.358
-92.786	131.944	0.167	0.211
-91.772	-136.260	0.250	-0.029
-90.757	11.416	0.241	0.181
-89.743	25.434	-0.165	-0.134
-88.728	-200.000	0.001	0.110
-87.713	800.000	-0.017	-0.056
-86.699	57.623	0.087	-0.083
-85.684	46.031	-0.042	0.038
-84.670	800.000	-0.090	0.270
-83.655	-200.000	-0.057	-0.257
-82.640	-200.000	-0.032	-0.187
-81.626	-200.000	-0.008	0.069
-80.611	-165.089	-0.067	0.003
-79.597	-131.274	0.253	0.033
-78.582	800.000	-0.018	-0.051
-77.567	-29.185	0.224	-0.126
-76.553	192.482	0.095	0.141
-75.538	-200.000	0.028	0.277
-74.524	763.280	-0.088	0.234
-73.509	163.604	0.169	-0.233
-72.494	306.518	0.122	0.223
-71.480	-99.161	0.159	0.039
-70.465	-200.000	0.010	-0.316
-69.451	65.302	0.042	-0.041
-68.436	-51.228	0.085	-0.039
-67.422	90.886	0.131	0.144
-66.407	-150.654	-0.289	0.022
-65.392	-200.000	0.016	0.118
-64.378	-39.530	0.092	0.047
-63.363	-200.000	-0.059	0.403
-62.349	-200.000	0.023	-0.127
-61.334	50.806	-1.240	-1.150
-60.319	274.463	0.468	0.811
-59.305	490.105	-0.553	-1.238
-58.290	322.876	0.925	1.726
-57.276	800.000	0.411	1.503
-56.261	-200.000	125.886	670.761
-55.246	417.452	1586.675	3316.478
-54.232	138.507	2751.535	3534.232
-53.217	87.488	2330.941	2524.491
-52.203	29.599	2073.737	1726.305
-51.188	24.850	1988.394	1612.524
-50.173	23.651	1972.283	1588.671
-49.159	42.195	2045.825	1818.079
-48.144	40.211	2057.912	1810.622
-47.130	25.297	2010.198	1634.015
-46.115	23.080	1999.363	1605.040
-45.100	22.984	1995.889	1601.322
-44.086	22.975	1993.171	1598.997
-43.071	22.901	1991.577	1596.987
-42.057	22.918	1989.326	1595.271
-41.042	22.964	1987.519	1594.175
-40.027	22.917	1985.832	1592.329
-39.013	22.978	1983.378	1590.850
-37.998	22.932	1981.888	1589.177
-36.984	22.970	1980.267	1588.155
-35.969	22.874	1978.728	1585.996
-34.954	23.000	1976.553	1585.321
-33.940	23.012	1975.243	1584.319
-32.925	23.038	1973.653	1583.210
-31.911	23.099	1971.775	1582.190
-30.896	23.069	1970.085	1580.502
-29.881	23.127	1968.493	1579.680
-28.867	23.094	1967.683	1578.674
-27.852	23.213	1965.533	1577.947
-26.838	23.072	1963.884	1575.302
-25.823	23.147	1961.518	1574.013
-24.809	23.125	1959.654	1572.254
-23.794	23.033	1958.965	1570.823
-22.779	23.122	1956.435	1569.517
-21.765	23.151	1955.021	1568.577
-20.750	23.104	1953.192	1566.635
-19.736	23.015	1952.217	1565.004
-18.721	23.072	1950.304	1563.916
-17.706	23.078	1949.242	1563.048
-16.692	23.117	1947.098	1561.613
-15.677	23.081	1945.741	1560.147
-14.663	23.085	1944.214	1558.892
-13.648	23.092	1942.885	1557.834
-12.633	23.083	1941.571	1556.631
-11.619	23.015	1940.601	1555.196
-10.604	23.087	1938.639	1554.200
-9.590	23.106	1937.418	1553.319
-8.575	23.070	1936.448	1552.165
-7.560	23.049	1934.946	1550.716
-6.546	23.126	1933.534	1550.200
-5.531	23.110	1932.334	1549.039
-4.517	23.088	1931.012	1547.718
-3.502	23.049	1930.441	1546.859
-2.487	23.054	1928.841	1545.563
-1.473	23.034	1927.915	1544.583
-0.458	23.127	1922.644	1541.108
0.556	21.329	1902.419	1512.076
1.571	17.017	1884.070	1460.326
2.586	13.211	1907.143	1444.865
3.600	12.344	1942.356	1463.689
4.615	12.354	1935.215	1458.266
5.629	9.654	1836.005	1360.622
6.644	3.811	1723.778	1230.916
7.659	0.464	1691.587	1181.638
8.673	0.275	1688.262	1177.736
9.688	0.190	1687.788	1176.636
10.702	0.127	1686.497	1175.142
11.717	0.058	1682.448	1171.683
12.731	0.506	1680.651	1173.812
13.746	5.142	1690.640	1216.891
14.761	12.300	1705.222	1283.402
15.775	16.270	1711.913	1319.413
16.790	16.765	1711.705	1323.003
17.804	15.876	1708.764	1313.675
18.819	14.955	1705.333	1303.748
19.834	14.372	1702.773	1297.137
20.848	14.212	1700.936	1294.376
21.863	13.949	1699.345	1291.011
22.877	13.591	1698.675	1287.601
23.892	13.479	1696.763	1285.168
24.907	13.386	1695.299	1283.230
25.921	13.295	1694.370	1281.703
26.936	13.266	1693.663	1280.834
27.950	13.257	1692.562	1279.821
28.965	13.363	1692.374	1280.380
29.980	13.319	1691.658	1279.384
30.994	13.499	1690.200	1279.563
32.009	13.506	1689.199	1278.742
33.023	13.455	1688.838	1277.966
34.038	13.610	1687.547	1278.071
35.053	13.466	1686.777	1276.264
36.067	13.506	1685.431	1275.438
37.082	13.402	1684.353	1273.710
38.096	13.373	1683.244	1272.536
39.111	13.393	1682.854	1272.285
40.126	13.514	1682.007	1272.458
41.140	13.403	1681.206	1270.886
42.155	13.329	1679.808	1269.153
43.169	13.294	1678.519	1267.797
44.184	13.286	1677.626	1266.951
45.199	13.248	1676.823	1265.942
46.213	13.225	1675.079	1264.335
47.228	13.359	1673.826	1264.303
48.242	13.359	1672.452	1263.149
49.257	13.369	1671.736	1262.579
50.271	13.377	1670.246	1261.397
51.286	13.347	1668.994	1260.114
52.301	13.379	1667.542	1259.149
53.315	13.399	1666.611	1258.486
54.330	13.381	1664.517	1256.660
55.344	13.284	1663.537	1255.072
56.359	13.327	1661.858	1254.020
57.374	13.303	1661.158	1253.196
58.388	13.435	1659.285	1252.671
59.403	13.407	1657.955	1251.345
60.417	13.337	1656.397	1249.534
61.432	13.275	1655.694	1248.425
62.447	13.274	1654.365	1247.300
63.461	13.160	1653.557	1245.725
64.476	13.229	1652.516	1245.351
65.490	13.177	1651.102	1243.784
66.505	13.191	1649.952	1242.911
67.520	13.225	1648.557	1242.002
68.534	13.316	1647.365	1241.680
69.549	13.352	1646.003	1240.815
70.563	13.332	1644.332	1239.291
71.578	13.206	1643.908	1237.925
72.593	13.231	1642.364	1236.837
73.607	13.192	1642.111	1236.242
74.622	13.123	1640.630	1234.505
75.636	13.288	1639.359	1234.669
76.651	13.280	1638.437	1233.807
77.666	13.175	1637.944	1232.542
78.680	13.240	1636.540	1231.861
79.695	13.183	1636.238	1231.102
80.709	13.209	1635.076	1230.316
81.724	13.217	1634.064	1229.504
82.739	13.301	1633.336	1229.470
83.753	13.406	1631.776	1228.966
84.768	13.353	1631.054	1227.920
85.782	13.329	1630.664	1227.342
86.797	13.469	1629.318	1227.260
87.812	13.403	1628.319	1225.907
88.826	13.305	1627.262	1224.276
89.841	13.280	1626.277	1223.246
90.855	13.348	1624.990	1222.670
91.870	13.315	1624.494	1221.942
92.884	13.433	1622.517	1221.215
93.899	13.452	1621.655	1220.605
94.914	13.389	1621.011	1219.543
95.928	13.441	1619.412	1218.618
96.943	13.417	1618.079	1217.329
97.957	13.457	1616.433	1216.279
98.972	13.432	1614.910	1214.840
99.987	13.420	1613.801	1213.812
101.001	13.442	1611.980	1212.495
102.016	13.411	1610.220	1210.838
103.030	13.393	1609.332	1209.931
104.045	13.468	1608.219	1209.533
105.060	13.497	1606.237	1208.145
106.074	13.453	1605.581	1207.225
107.089	13.460	1603.737	1205.786
108.103	13.380	1602.098	1203.865
109.118	13.293	1600.858	1202.195
110.133	13.329	1598.880	1200.866
111.147	13.321	1598.037	1200.064
112.162	13.272	1596.615	1198.535
113.176	13.305	1595.088	1197.523
114.191	13.445	1593.259	1197.057
115.206	13.386	1592.355	1195.849
116.220	13.353	1590.984	1194.471
117.235	13.326	1589.999	1193.429
118.249	13.324	1589.262	1192.760
119.264	13.364	1587.296	1191.468
120.279	13.346	1585.693	1190.028
121.293	13.279	1584.713	1188.701
122.308	13.448	1582.183	1187.916
123.322	13.333	1581.221	1186.260
124.337	13.299	1579.893	1184.917
125.352	13.241	1578.745	1183.539
126.366	13.254	1577.760	1182.789
127.381	13.311	1576.326	1182.012
128.395	13.319	1575.111	1181.058
129.410	13.270	1573.524	1179.415
130.424	13.240	1572.632	1178.422
131.439	13.286	1571.241	1177.604
132.454	13.346	1569.789	1176.840
133.468	13.349	1568.340	1175.671
134.483	13.348	1566.403	1174.107
135.497	13.331	1565.409	1173.136
136.512	13.309	1564.516	1172.209
137.527	13.270	1562.960	1170.664
138.541	13.374	1561.647	1170.314
139.556	13.484	1559.920	1169.693
140.570	13.464	1558.536	1168.410
141.585	13.500	1557.557	1167.827
142.600	13.439	1556.531	1166.526
143.614	13.505	1554.680	1165.498
144.629	13.516	1553.678	1164.719
145.643	13.608	1552.573	1164.438
146.658	13.644	1551.149	1163.516
147.673	13.577	1549.077	1161.391
148.687	13.559	1547.742	1160.162
149.702	13.626	1545.889	1159.139
150.716	13.507	1544.766	1157.360
151.731	13.551	1542.962	1156.218
152.746	13.502	1541.908	1154.985
153.760	13.647	1539.813	1154.320
154.775	13.625	1539.253	1153.642
155.789	13.566	1537.934	1152.145
156.804	13.616	1536.788	1151.531
157.819	13.663	1535.490	1150.782
158.833	13.612	1534.668	1149.709
159.848	13.742	1533.484	1149.626
160.862	13.744	1532.065	1148.472
161.877	13.792	1530.474	1147.512
162.892	13.719	1529.428	1146.116
163.906	13.676	1528.112	1144.735
164.921	13.664	1526.699	1143.494
165.935	13.716	1525.807	1143.083
166.950	13.663	1525.008	1142.016
167.964	13.646	1523.634	1140.767
168.979	13.703	1522.156	1139.957
169.994	13.765	1520.928	1139.359
171.008	13.740	1520.272	1138.593
172.023	13.716	1519.481	1137.740
173.037	13.773	1518.111	1136.999
174.052	13.862	1516.943	1136.638
175.067	13.887	1515.482	1135.614
176.081	13.767	1514.493	1133.947
177.096	13.716	1513.082	1132.445
178.110	13.742	1511.953	1131.674
179.125	13.788	1510.634	1130.905
180.140	13.837	1509.398	1130.211
181.154	13.820	1508.672	1129.452
182.169	13.764	1507.235	1127.894
183.183	13.865	1506.561	1127.979
184.198	13.961	1505.192	1127.504
185.213	13.992	1503.808	1126.582
186.227	14.054	1502.433	1125.869
187.242	13.979	1502.060	1124.982
188.256	13.991	1500.816	1124.030
189.271	14.062	1499.750	1123.613
190.286	14.101	1498.559	1122.886
191.300	14.078	1497.575	1121.891
192.315	13.985	1496.579	1120.423
193.329	13.838	1495.190	1118.290
194.344	13.845	1494.077	1117.405
195.359	13.989	1493.017	1117.483
196.373	13.928	1492.040	1116.245
197.388	14.051	1490.791	1116.036
198.402	13.952	1489.999	1114.682
199.417	14.123	1488.866	1114.883
200.432	14.114	1487.996	1114.068
201.446	14.194	1486.491	1113.378
202.461	14.224	1485.676	1112.871
203.475	14.304	1484.372	1112.331
204.490	14.212	1483.598	1111.037
205.504	14.228	1482.622	1110.314
206.519	14.287	1481.341	1109.653
207.534	14.235	1480.218	1108.363
208.548	14.213	1478.908	1107.142
209.563	14.200	1478.049	1106.314
210.577	14.213	1476.704	1105.298
211.592	14.248	1476.183	1105.042
212.607	14.222	1475.573	1104.314
213.621	14.324	1474.366	1103.990
214.636	14.397	1473.590	1103.796
215.650	14.300	1472.350	1102.125
216.665	14.379	1471.330	1101.787
217.680	14.356	1470.597	1100.989
218.694	14.422	1469.963	1100.853
219.709	14.451	1468.468	1099.829
220.723	14.427	1468.007	1099.226
221.738	14.536	1466.288	1098.556
222.753	14.434	1466.278	1097.782
223.767	14.379	1465.474	1096.719
224.782	14.390	1464.030	1095.619
225.796	14.555	1463.045	1095.862
226.811	14.505	1462.573	1095.086
227.826	14.572	1461.339	1094.505
228.840	14.468	1460.740	1093.280
229.855	14.503	1460.010	1092.863
230.869	14.525	1458.736	1091.956
231.884	14.518	1457.912	1091.202
232.899	14.578	1456.493	1090.434
233.913	14.526	1455.700	1089.402
234.928	14.478	1454.470	1088.074
235.942	14.500	1453.076	1087.075
236.957	14.556	1451.912	1086.476
237.972	14.442	1450.833	1084.830
238.986	14.553	1449.970	1084.809
240.001	14.562	1448.457	1083.639
241.015	14.706	1447.491	1083.755
242.030	14.615	1446.543	1082.363
243.045	14.612	1445.645	1081.573
244.059	14.502	1444.987	1080.270
245.074	14.598	1444.287	1080.278
246.088	14.739	1443.094	1080.199
247.103	14.684	1442.360	1079.200
248.117	14.675	1441.531	1078.423
249.132	14.755	1440.475	1078.059
250.147	14.793	1440.562	1078.271
251.161	14.911	1439.553	1078.179
252.176	14.866	1438.594	1077.075
253.190	14.924	1438.224	1077.076
254.205	14.971	1437.127	1076.466
255.220	15.101	1435.984	1076.346
256.234	15.012	1435.191	1075.090
257.249	15.101	1434.434	1074.999
258.263	15.076	1433.371	1073.946
259.278	15.082	1432.705	1073.391
260.293	15.095	1431.621	1072.566
261.307	15.077	1430.800	1071.739
262.322	15.140	1430.664	1071.947
263.336	15.175	1429.466	1071.175
264.351	15.218	1428.013	1070.268
265.366	15.235	1427.152	1069.637
266.380	15.231	1425.886	1068.567
267.395	15.284	1425.436	1068.473
268.409	15.150	1424.880	1067.106
269.424	15.272	1423.456	1066.723
270.439	15.158	1422.703	1065.343
271.453	15.193	1421.668	1064.694
272.468	15.274	1420.662	1064.363
273.482	15.243	1420.098	1063.647
274.497	15.273	1419.031	1062.942
275.512	15.302	1418.347	1062.520
276.526	15.266	1417.325	1061.432
277.541	15.265	1416.439	1060.669
278.555	15.260	1415.671	1059.971
279.570	15.344	1414.485	1059.517
280.585	15.310	1414.061	1058.893
281.599	15.298	1412.864	1057.829
282.614	15.494	1411.481	1057.934
283.628	15.454	1410.476	1056.831
284.643	15.475	1409.419	1056.078
285.657	15.354	1408.477	1054.520
286.672	15.394	1407.663	1054.069
287.687	15.435	1406.789	1053.577
288.701	15.423	1405.734	1052.621
289.716	15.420	1405.016	1051.972
290.730	15.504	1403.995	1051.641
291.745	15.579	1402.837	1051.147
292.760	15.632	1401.971	1050.738
293.774	15.519	1401.000	1049.210
294.789	15.476	1400.401	1048.399
295.803	15.648	1399.250	1048.518
296.818	15.604	1398.409	1047.525
297.833	15.603	1397.543	1046.775
298.847	15.667	1396.490	1046.293
299.862	15.645	1395.166	1045.071
300.876	15.618	1394.806	1044.539
301.891	15.622	1393.453	1043.457
302.906	15.675	1392.691	1043.125
303.920	15.730	1391.821	1042.723
304.935	15.751	1391.389	1042.437
305.949	15.801	1390.498	1041.987
306.964	15.767	1389.935	1041.260
307.979	15.909	1388.280	1040.809
308.993	15.923	1387.456	1040.182
310.008	15.842	1386.749	1039.061
311.022	15.847	1385.688	1038.204
312.037	15.853	1385.184	1037.772
313.052	15.925	1384.016	1037.249
314.066	16.016	1382.273	1036.412
315.081	15.854	1381.859	1035.012
316.095	15.856	1380.560	1033.960
317.110	15.818	1379.624	1032.935
318.125	15.828	1378.847	1032.322
319.139	15.769	1378.144	1031.348
320.154	15.751	1377.140	1030.394
321.168	15.883	1375.951	1030.221
322.183	15.913	1374.977	1029.583
323.197	15.818	1374.066	1028.231
324.212	15.947	1373.305	1028.356
325.227	16.021	1372.269	1027.942
326.241	16.007	1371.451	1027.151
327.256	15.878	1370.962	1025.911
328.270	15.946	1369.719	1025.304
329.285	15.993	1368.935	1024.907
330.300	15.978	1368.279	1024.237
331.314	15.970	1366.973	1023.119
332.329	16.054	1366.487	1023.177
333.343	15.987	1365.307	1021.793
334.358	16.055	1364.364	1021.410
335.373	16.027	1363.539	1020.535
336.387	16.092	1362.889	1020.348
337.402	16.180	1361.968	1020.103
338.416	16.225	1360.992	1019.553
339.431	16.169	1360.867	1019.028
340.446	16.172	1360.233	1018.487
341.460	16.189	1359.173	1017.704
342.475	16.338	1357.650	1017.368
343.489	16.276	1357.145	1016.525
344.504	16.274	1356.404	1015.874
345.519	16.273	1355.504	1015.101
346.533	16.274	1354.845	1014.526
347.548	16.310	1353.916	1013.958
348.562	16.404	1352.713	1013.528
349.577	16.493	1351.843	1013.318
350.592	16.448	1351.062	1012.377
351.606	16.458	1349.780	1011.384
352.621	16.336	1349.110	1010.061
353.635	16.322	1348.270	1009.264
354.650	16.426	1347.174	1008.972
355.665	16.403	1346.370	1008.142
356.679	16.340	1345.617	1007.113
357.694	16.366	1344.208	1006.128
358.708	16.516	1342.612	1005.736
359.723	16.542	1341.888	1005.259
360.738	16.532	1341.191	1004.590
361.752	16.508	1340.293	1003.685
362.767	16.618	1338.636	1003.009
363.781	16.514	1338.182	1001.960
364.796	16.486	1337.374	1001.104
365.810	16.476	1336.958	1000.642
366.825	16.632	1335.768	1000.585
367.840	16.637	1335.649	1000.437
368.854	16.708	1334.334	999.782
369.869	16.741	1333.973	999.618
370.883	16.762	1332.835	998.802
371.898	16.725	1332.722	998.410
372.913	16.677	1331.899	997.423
373.927	16.636	1330.829	996.290
374.942	16.732	1329.639	995.880
375.956	16.808	1328.755	995.575
376.971	16.839	1328.218	995.266
377.986	16.955	1327.152	995.057
379.000	16.769	1326.472	993.370
380.015	16.828	1325.843	993.155
381.029	16.821	1325.172	992.525
382.044	16.790	1324.860	992.025
383.059	16.968	1323.827	992.201
384.073	17.013	1323.077	991.819
385.088	17.007	1322.234	991.061
386.102	17.022	1321.753	990.699
387.117	17.039	1320.676	989.907
388.132	17.005	1320.194	989.260
389.146	17.032	1319.171	988.561
390.161	16.938	1318.714	987.585
391.175	17.043	1317.452	987.162
392.190	16.933	1317.237	986.272
393.205	17.077	1316.238	986.278
394.219	17.085	1314.663	985.057
395.234	17.138	1313.295	984.251
396.248	17.057	1312.108	982.804
397.263	17.029	1311.028	981.747
398.278	17.088	1309.439	980.812
399.292	17.120	1308.186	979.970
400.307	17.067	1307.206	978.846
401.321	17.093	1306.483	978.367
402.336	17.017	1305.576	977.161
403.350	17.095	1304.401	976.642
404.365	17.046	1303.648	975.713
405.380	17.096	1302.351	974.945
406.394	17.173	1302.097	975.107
407.409	17.120	1301.417	974.210
408.423	17.121	1300.775	973.649
409.438	17.309	1299.700	973.833
410.453	17.355	1298.797	973.334
411.467	17.358	1298.309	972.897
412.482	17.307	1298.139	972.392
413.496	17.339	1296.905	971.569
414.511	17.352	1296.466	971.225
415.526	17.341	1295.626	970.447
416.540	17.430	1295.070	970.454
417.555	17.463	1294.278	969.963
418.569	17.489	1293.581	969.502
419.584	17.500	1293.196	969.191
420.599	17.441	1292.534	968.272
421.613	99.843	1361.153	1486.830
422.628	97.852	1371.097	1486.905
