DTS Sentinel unit serial number:	SN413079Multiplexer serial number:	ORYXHardware model number:	OX4-SRSoftware version number:	ORYX F/W v4.00 Oryx Data Collector v3.7.2.0data status	okinstallation	princeton_trtdifferential loss correction	single-endedforward channel	channel 4reverse channel	N/Adate	2019/09/15time	20:01:35forward acquisition time	60.00reverse acquisition time	0.00gamma	496.2192k internal	0.2307k external	0.2307temperature offset calibration	0.9934default loss term (dB/km)	0.3790temperature slope calibration	1.0000multiplexer offset coefficient	1.0000multiplexer slope coefficient	1.0000fibre end	0.00T internal ref (°C)	35.59T ext. ref 1 (°C)	7.57T ext. ref 2 (°C)	26.28length (m)	temperature (°C)	Stokes	anti-Stokes-747.200	82.091	0.020	-0.022
-746.185	200.488	-0.100	0.156
-745.171	276.682	0.012	0.022
-744.156	463.217	-0.046	-0.104
-743.142	193.970	-0.247	0.380
-742.127	-155.476	-0.277	-0.018
-741.112	66.122	0.126	-0.130
-740.098	621.684	-0.018	-0.046
-739.083	161.824	-0.132	0.188
-738.069	-83.368	-0.184	0.060
-737.054	537.594	-0.076	0.184
-736.039	-69.448	-0.455	-0.177
-735.025	-168.763	0.369	0.014
-734.010	16.302	-0.132	-0.106
-732.996	-113.551	-0.223	0.044
-731.981	27.653	0.285	0.244
-730.966	-136.875	0.300	0.035
-729.952	-30.743	0.168	0.096
-728.937	-53.545	0.067	0.031
-727.923	73.547	-0.116	0.123
-726.908	-200.000	-0.018	0.209
-725.894	-1.177	-0.200	-0.144
-724.879	-74.239	-0.349	-0.128
-723.864	-200.000	0.044	-0.359
-722.850	182.410	0.051	0.076
-721.835	137.151	0.134	-0.178
-720.821	223.861	-0.076	-0.124
-719.806	-149.214	0.242	-0.020
-718.791	19.855	-0.075	0.061
-717.777	178.415	-0.138	0.204
-716.762	800.000	-0.129	-0.394
-715.748	-63.448	0.064	0.027
-714.733	-200.000	0.002	-0.024
-713.718	-141.251	-0.114	-0.012
-712.704	-60.266	-0.088	-0.038
-711.689	-2.759	-0.152	-0.108
-710.675	-87.091	-0.309	-0.095
-709.660	208.666	0.129	-0.205
-708.645	-87.918	-0.092	-0.028
-707.631	-16.639	-0.163	0.105
-706.616	23.663	0.258	0.215
-705.602	-200.000	-0.069	-0.348
-704.587	-28.920	0.123	-0.072
-703.572	-36.532	-0.186	-0.102
-702.558	288.429	-0.254	0.467
-701.543	119.363	-0.098	-0.123
-700.529	157.786	0.050	-0.070
-699.514	90.033	0.262	-0.297
-698.499	-31.606	0.217	0.123
-697.485	-200.000	-0.012	0.065
-696.470	-183.186	-0.195	-0.003
-695.456	800.000	-0.093	-0.347
-694.441	32.474	-0.184	-0.161
-693.426	-90.899	-0.155	0.045
-692.412	-4.676	0.245	-0.172
-691.397	-200.000	-0.009	-0.231
-690.383	-200.000	0.002	0.162
-689.368	800.000	0.032	-0.094
-688.354	800.000	-0.166	-0.492
-687.339	341.945	0.059	-0.118
-686.324	-176.004	0.284	-0.008
-685.310	800.000	-0.043	0.166
-684.295	81.620	0.068	0.075
-683.281	572.583	-0.049	-0.122
-682.266	-62.346	-0.088	-0.037
-681.251	90.975	-0.093	-0.106
-680.237	-200.000	-0.007	0.236
-679.222	212.936	0.147	-0.236
-678.208	-76.013	-0.100	-0.036
-677.193	-200.000	-0.048	-0.214
-676.178	-61.227	0.166	-0.071
-675.164	-123.519	-0.334	-0.054
-674.149	13.975	0.200	-0.158
-673.135	-23.641	-0.261	0.159
-672.120	114.920	-0.086	0.106
-671.105	-5.487	0.068	0.047
-670.091	293.488	0.054	0.100
-669.076	-134.386	-0.098	0.012
-668.062	80.403	0.104	-0.113
-667.047	256.060	-0.069	-0.120
-666.032	-200.000	0.034	0.218
-665.018	-200.000	0.004	-0.192
-664.003	91.272	-0.082	-0.093
-662.989	-58.604	-0.447	0.197
-661.974	-163.638	-0.144	0.007
-660.959	-24.783	0.252	-0.152
-659.945	-200.000	0.011	0.321
-658.930	-68.413	-0.396	-0.156
-657.916	39.584	0.039	0.035
-656.901	-71.168	0.116	-0.044
-655.886	-200.000	0.002	0.055
-654.872	48.885	0.142	-0.135
-653.857	-142.625	-0.206	-0.020
-652.843	-58.406	0.115	0.051
-651.828	-97.961	0.176	-0.046
-650.814	499.454	-0.138	0.323
-649.799	-165.590	0.049	-0.002
-648.784	-81.319	-0.247	-0.083
-647.770	-61.059	-0.453	-0.194
-646.755	-200.000	-0.028	0.434
-645.741	800.000	-0.146	0.409
-644.726	-200.000	0.020	0.416
-643.711	303.512	0.032	0.060
-642.697	-71.479	0.184	-0.070
-641.682	-46.888	0.051	-0.025
-640.668	483.632	-0.061	-0.140
-639.653	571.468	0.095	-0.235
-638.638	-141.127	-0.254	0.026
-637.624	800.000	0.060	0.171
-636.609	-58.074	-0.124	0.055
-635.595	800.000	0.032	-0.094
-634.580	36.853	0.142	-0.128
-633.565	-200.000	-0.006	-0.223
-632.551	230.047	0.105	-0.174
-631.536	624.970	0.111	-0.283
-630.522	-74.563	-0.408	-0.149
-629.507	351.571	-0.125	0.251
-628.492	-90.184	-0.152	-0.045
-627.478	-151.113	-0.198	0.015
-626.463	-138.160	0.101	-0.011
-625.449	-169.526	0.271	0.010
-624.434	-103.476	-0.276	-0.066
-623.419	126.248	0.099	-0.126
-622.405	117.630	-0.044	-0.055
-621.390	153.123	-0.095	-0.131
-620.376	800.000	0.030	-0.109
-619.361	161.253	0.278	-0.393
-618.346	69.515	0.217	-0.226
-617.332	-23.596	0.173	-0.105
-616.317	392.509	-0.113	0.237
-615.303	32.861	-0.239	0.209
-614.288	-30.658	-0.216	0.123
-613.273	136.324	-0.184	0.243
-612.259	-157.099	0.051	0.003
-611.244	306.060	0.099	-0.187
-610.230	-118.407	-0.044	-0.008
-609.215	-89.227	0.337	0.101
-608.201	-84.409	-0.060	-0.019
-607.186	52.594	-0.087	0.084
-606.171	-106.791	0.352	0.079
-605.157	-200.000	-0.044	-0.217
-604.142	72.133	0.208	-0.219
-603.128	113.697	-0.108	0.132
-602.113	62.044	-0.072	0.073
-601.098	352.785	-0.044	0.088
-600.084	60.219	0.209	0.209
-599.069	-90.799	0.225	-0.066
-598.055	127.032	-0.035	0.045
-597.040	800.000	-0.070	0.261
-596.025	800.000	-0.066	-0.260
-595.011	-11.390	-0.225	-0.150
-593.996	-104.875	0.290	0.067
-592.982	-74.457	-0.347	-0.126
-591.967	-53.243	-0.098	-0.046
-590.952	299.017	-0.131	-0.244
-589.938	5.158	0.345	-0.257
-588.923	-52.652	-0.328	-0.153
-587.909	608.505	-0.076	0.192
-586.894	36.614	-0.326	-0.291
-585.879	-73.709	0.298	0.110
-584.865	-81.234	-0.362	0.121
-583.850	-60.984	-0.206	0.088
-582.836	198.946	-0.067	-0.103
-581.821	114.607	-0.121	0.149
-580.806	506.183	0.018	-0.043
-579.792	-93.456	0.027	0.008
-578.777	800.000	-0.073	-0.206
-577.763	-100.617	0.139	0.035
-576.748	11.655	0.111	-0.086
-575.733	-71.557	-0.384	0.145
-574.719	261.559	-0.021	-0.037
-573.704	165.239	-0.126	-0.179
-572.690	-8.958	0.073	0.049
-571.675	-200.000	0.021	-0.229
-570.661	-84.943	0.108	0.034
-569.646	-6.838	-0.327	0.224
-568.631	-200.000	-0.011	-0.255
-567.617	-200.000	0.055	0.347
-566.602	63.033	0.135	-0.136
-565.588	-70.834	0.370	0.141
-564.573	20.342	-0.193	-0.157
-563.558	-200.000	-0.046	0.295
-562.544	-88.233	0.274	0.083
-561.529	-80.001	-0.212	0.072
-560.515	155.029	-0.196	0.273
-559.500	28.047	-0.174	-0.148
-558.485	-140.884	-0.244	-0.025
-557.471	-200.000	0.018	-0.083
-556.456	-40.934	0.093	-0.049
-555.442	-102.508	-0.056	0.014
-554.427	800.000	0.060	0.194
-553.412	-174.093	-0.244	-0.007
-552.398	108.328	-0.049	-0.060
-551.383	46.814	0.247	-0.232
-550.369	74.690	-0.270	-0.286
-549.354	485.792	0.094	0.216
-548.339	62.064	-0.245	0.246
-547.325	258.297	-0.102	0.176
-546.310	-200.000	0.008	-0.366
-545.296	82.633	0.055	0.061
-544.281	-46.447	0.178	-0.088
-543.266	-132.783	-0.100	-0.013
-542.252	-125.452	0.253	0.039
-541.237	-58.460	0.404	0.177
-540.223	-200.000	0.056	-0.379
-539.208	146.133	0.308	0.417
-538.193	29.310	-0.145	-0.124
-537.179	264.402	-0.191	-0.336
-536.164	66.394	0.126	-0.129
-535.150	-164.088	-0.282	-0.013
-534.135	-8.016	0.402	-0.273
-533.121	523.504	-0.073	-0.173
-532.106	16.050	-0.033	-0.026
-531.091	-200.000	-0.020	-0.136
-530.077	34.675	0.214	0.188
-529.062	17.381	-0.101	0.081
-528.048	-175.781	-0.195	0.005
-527.033	78.907	0.126	-0.136
-526.018	-142.364	0.317	-0.032
-525.004	-133.398	-0.133	-0.017
-523.989	-43.658	-0.139	0.071
-522.975	372.713	-0.106	0.217
-521.960	75.346	0.187	0.199
-520.945	-36.688	-0.090	0.049
-519.931	111.949	-0.130	-0.158
-518.916	302.103	-0.232	0.433
-517.902	93.828	0.189	0.216
-516.887	226.623	0.099	0.162
-515.872	35.045	0.085	0.075
-514.858	383.391	-0.076	0.157
-513.843	-29.229	0.259	-0.149
-512.829	-137.274	-0.270	0.031
-511.814	157.321	0.247	0.345
-510.799	-151.108	-0.036	0.003
-509.785	-172.518	0.067	0.002
-508.770	-200.000	0.048	-0.406
-507.756	-92.680	0.135	0.038
-506.741	311.135	-0.080	0.151
-505.726	89.622	-0.119	-0.133
-504.712	28.931	-0.438	-0.374
-503.697	-3.560	-0.318	0.223
-502.683	-68.905	0.049	-0.019
-501.668	-43.221	-0.274	0.140
-500.653	-92.429	-0.108	0.031
-499.639	206.796	0.052	-0.082
-498.624	-39.119	0.309	-0.164
-497.610	-200.000	0.024	-0.262
-496.595	800.000	0.100	-0.294
-495.581	-133.671	-0.223	0.028
-494.566	-111.913	0.262	-0.053
-493.551	328.543	0.082	-0.158
-492.537	-86.068	-0.091	-0.028
-491.522	-68.983	-0.118	-0.046
-490.508	-175.772	-0.421	-0.011
-489.493	-29.401	0.065	-0.037
-488.478	-168.134	0.126	0.005
-487.464	-18.803	0.031	0.019
-486.449	800.000	-0.080	-0.297
-485.435	-100.241	-0.144	0.036
-484.420	717.987	0.011	-0.030
-483.405	-200.000	0.008	-0.067
-482.391	64.038	0.095	0.096
-481.376	-109.716	-0.226	-0.048
-480.362	-137.842	-0.203	0.023
-479.347	-9.399	-0.314	-0.211
-478.332	172.952	-0.057	0.082
-477.318	582.355	-0.062	-0.152
-476.303	-134.380	0.286	0.035
-475.289	-109.205	0.154	-0.033
-474.274	800.000	0.048	-0.179
-473.259	-200.000	0.025	0.156
-472.245	-129.144	-0.397	0.056
-471.230	-41.001	-0.200	-0.104
-470.216	350.653	0.048	-0.096
-469.201	-59.822	0.185	0.080
-468.186	430.611	0.178	0.388
-467.172	-98.465	-0.313	-0.081
-466.157	800.000	-0.039	0.166
-465.143	153.368	-0.363	0.500
-464.128	-121.966	-0.291	-0.048
-463.113	299.048	0.071	0.132
-462.099	-117.408	-0.207	-0.038
-461.084	-120.044	0.315	-0.054
-460.070	-22.668	-0.085	-0.052
-459.055	-30.216	-0.188	0.107
-458.040	-200.000	0.027	0.203
-457.026	360.839	0.112	0.225
-456.011	-76.805	0.242	0.085
-454.997	-200.000	0.019	0.122
-453.982	-200.000	0.032	0.239
-452.968	-200.000	-0.050	0.309
-451.953	-73.243	-0.242	0.089
-450.938	-3.047	0.135	-0.094
-449.924	-104.240	-0.545	-0.127
-448.909	164.110	-0.120	-0.170
-447.895	281.494	0.094	0.169
-446.880	151.583	0.156	0.213
-445.865	-169.936	-0.224	0.008
-444.851	-109.028	0.077	0.017
-443.836	800.000	0.060	-0.191
-442.822	327.081	0.147	-0.284
-441.807	800.000	-0.081	-0.288
-440.792	15.336	-0.219	0.172
-439.778	-135.897	-0.264	-0.031
-438.763	-124.568	-0.214	-0.033
-437.749	800.000	-0.050	0.172
-436.734	-154.024	-0.229	0.016
-435.719	73.578	-0.253	0.266
-434.705	-26.951	0.269	-0.158
-433.690	-107.860	0.149	-0.033
-432.676	748.749	-0.056	-0.151
-431.661	108.370	-0.151	-0.181
-430.646	169.464	-0.173	-0.248
-429.632	37.758	-0.148	-0.132
-428.617	80.939	-0.115	0.125
-427.603	12.504	0.130	0.100
-426.588	164.237	0.105	0.149
-425.573	-30.034	0.211	-0.121
-424.559	800.000	0.017	-0.066
-423.544	-116.936	0.237	-0.044
-422.530	76.135	-0.204	-0.217
-421.515	724.311	0.045	-0.121
-420.500	800.000	0.027	0.104
-419.486	-200.000	-0.006	-0.120
-418.471	93.247	0.088	-0.100
-417.457	95.641	0.077	0.089
-416.442	-53.859	-0.251	-0.115
-415.428	152.334	0.028	0.038
-414.413	603.394	-0.103	0.257
-413.398	-108.593	0.141	0.030
-412.384	-50.781	0.286	-0.135
-411.369	85.010	-0.203	0.223
-410.355	419.288	0.134	-0.288
-409.340	-200.000	-0.019	0.114
-408.325	493.801	-0.105	0.241
-407.311	-108.201	-0.330	-0.072
-406.296	-43.434	0.188	-0.095
-405.282	-89.529	0.172	0.051
-404.267	-33.179	0.303	0.168
-403.252	211.674	0.191	0.302
-402.238	-106.410	-0.170	-0.038
-401.223	-74.691	-0.252	-0.091
-400.209	-123.986	-0.291	0.046
-399.194	116.332	0.165	0.203
-398.179	-148.309	0.046	-0.004
-397.165	-27.495	0.114	-0.067
-396.150	61.865	-0.171	-0.171
-395.136	-152.677	0.176	-0.013
-394.121	-52.068	-0.222	0.103
-393.106	-162.728	0.298	-0.015
-392.092	800.000	0.043	-0.153
-391.077	800.000	0.087	-0.318
-390.063	-200.000	-0.025	-0.123
-389.048	125.920	-0.090	0.114
-388.033	480.905	-0.081	0.183
-387.019	-124.850	0.184	-0.028
-386.004	56.395	0.163	-0.159
-384.990	313.501	0.191	-0.359
-383.975	-146.145	0.367	-0.032
-382.960	800.000	0.079	-0.223
-381.946	-159.383	-0.129	-0.007
-380.931	-83.998	0.261	0.083
-379.917	51.621	-0.031	-0.030
-378.902	-107.194	-0.107	-0.024
-377.888	-200.000	0.047	-0.230
-376.873	487.198	0.135	-0.308
-375.858	756.512	-0.135	0.366
-374.844	-20.915	-0.083	-0.051
-373.829	355.872	0.104	0.208
-372.815	-158.895	0.121	-0.007
-371.800	59.177	0.043	-0.042
-370.785	60.130	-0.048	0.048
-369.771	185.638	0.081	0.121
-368.756	-200.000	0.001	-0.100
-367.742	-64.557	0.069	-0.028
-366.727	-110.741	0.365	0.075
-365.712	-200.000	0.039	-0.204
-364.698	-134.340	-0.070	0.009
-363.683	-155.003	-0.217	0.014
-362.669	662.711	-0.069	-0.179
-361.654	457.467	0.172	-0.383
-360.639	-200.000	-0.009	-0.271
-359.625	100.307	-0.134	0.155
-358.610	512.508	0.191	-0.445
-357.596	-52.752	-0.081	0.037
-356.581	194.424	0.051	-0.078
-355.566	-200.000	-0.002	-0.072
-354.552	56.454	-0.118	0.115
-353.537	-180.888	-0.107	-0.002
-352.523	800.000	-0.022	-0.085
-351.508	-158.560	0.345	0.020
-350.493	239.943	0.192	-0.320
-349.479	-121.534	-0.127	-0.021
-348.464	800.000	0.058	-0.251
-347.450	15.510	-0.347	0.273
-346.435	625.917	0.123	-0.310
-345.420	397.396	0.063	-0.133
-344.406	-12.728	-0.218	0.142
-343.391	-14.258	-0.191	0.123
-342.377	-142.939	0.236	0.023
-341.362	122.092	0.052	0.065
-340.348	62.794	0.379	0.380
-339.333	-35.548	0.238	0.129
-338.318	800.000	-0.020	-0.059
-337.304	168.791	0.268	0.382
-336.289	800.000	0.048	-0.156
-335.275	115.386	-0.211	-0.258
-334.260	67.885	-0.046	-0.047
-333.245	36.602	-0.103	0.091
-332.231	8.299	0.095	0.071
-331.216	-119.140	0.535	-0.094
-330.202	-59.832	0.095	-0.041
-329.187	800.000	-0.061	-0.174
-328.172	800.000	0.020	-0.077
-327.158	-200.000	0.044	0.193
-326.143	-7.742	0.230	0.155
-325.129	-100.334	0.371	0.092
-324.114	63.500	-0.246	0.247
-323.099	-108.009	-0.377	0.082
-322.085	-200.000	-0.017	0.123
-321.070	437.755	0.009	0.021
-320.056	299.653	-0.058	0.107
-319.041	-130.340	-0.137	0.019
-318.026	-13.076	-0.160	0.104
-317.012	-63.103	0.077	-0.032
-315.997	7.413	-0.078	0.058
-314.983	357.031	0.122	0.243
-313.968	541.434	-0.122	0.290
-312.953	681.281	-0.066	0.173
-311.939	-81.083	-0.103	-0.034
-310.924	-80.077	0.057	-0.019
-309.910	78.128	-0.128	-0.136
-308.895	134.867	0.051	-0.066
-307.880	136.125	-0.161	0.210
-306.866	375.485	0.072	0.148
-305.851	116.954	-0.192	-0.236
-304.837	-152.499	0.403	-0.029
-303.822	32.739	0.162	-0.140
-302.807	-200.000	0.031	-0.396
-301.793	-200.000	0.001	-0.131
-300.778	-57.397	0.356	0.156
-299.764	246.066	-0.014	0.024
-298.749	43.047	-0.335	-0.305
-297.735	6.200	0.292	0.216
-296.720	176.377	0.076	-0.110
-295.705	139.751	-0.022	0.029
-294.691	-95.351	-0.093	-0.025
-293.676	299.270	-0.102	0.188
-292.662	394.435	0.174	0.362
-291.647	58.598	0.222	-0.218
-290.632	350.154	-0.060	-0.118
-289.618	465.153	0.074	-0.165
-288.603	800.000	-0.036	0.120
-287.589	41.094	-0.094	-0.084
-286.574	800.000	-0.066	0.188
-285.559	180.010	0.096	0.141
-284.545	-4.266	0.088	-0.061
-283.530	674.627	-0.080	0.208
-282.516	-12.167	0.069	-0.045
-281.501	-35.207	-0.200	0.108
-280.486	-78.037	0.061	-0.021
-279.472	-200.000	0.057	-0.333
-278.457	44.103	0.140	-0.128
-277.443	187.958	-0.118	-0.176
-276.428	-200.000	-0.002	0.284
-275.413	49.712	-0.028	0.026
-274.399	57.096	0.123	0.120
-273.384	-200.000	-0.004	-0.171
-272.370	203.566	-0.066	-0.102
-271.355	800.000	0.156	-0.467
-270.340	-58.976	-0.158	0.068
-269.326	760.756	0.120	0.325
-268.311	-200.000	-0.061	-0.274
-267.297	-148.691	0.189	-0.015
-266.282	-76.872	0.206	-0.072
-265.267	207.301	-0.091	0.142
-264.253	10.601	0.239	-0.182
-263.238	-200.000	-0.044	-0.230
-262.224	115.817	-0.005	-0.007
-261.209	-13.891	-0.112	0.072
-260.195	-93.210	-0.131	-0.036
-259.180	-200.000	-0.016	-0.377
-258.165	-90.660	0.148	0.043
-257.151	-200.000	-0.018	0.194
-256.136	14.390	-0.160	-0.125
-255.122	-200.000	0.006	-0.265
-254.107	470.134	-0.099	-0.221
-253.092	800.000	0.063	0.220
-252.078	-137.007	-0.272	-0.031
-251.063	-48.250	-0.153	-0.074
-250.049	-97.143	0.411	-0.107
-249.034	212.814	-0.139	0.219
-248.019	15.478	0.205	0.161
-247.005	-200.000	0.054	0.352
-245.990	-7.010	-0.260	-0.176
-244.976	-28.950	0.347	0.199
-243.961	800.000	-0.104	0.293
-242.946	713.762	0.041	0.109
-241.932	-116.833	-0.112	-0.021
-240.917	-153.642	-0.317	-0.022
-239.903	-120.707	-0.328	0.055
-238.888	-104.596	-0.127	-0.029
-237.873	-131.543	-0.167	-0.022
-236.859	12.940	0.205	-0.158
-235.844	42.251	-0.259	0.235
-234.830	673.478	0.054	0.139
-233.815	12.950	-0.214	-0.165
-232.800	-135.477	0.128	0.015
-231.786	-121.365	0.135	-0.022
-230.771	-80.901	0.303	0.100
-229.757	-45.131	0.091	0.045
-228.742	-98.887	-0.082	0.021
-227.727	33.209	-0.079	0.068
-226.713	576.860	0.066	-0.160
-225.698	-200.000	0.045	0.219
-224.684	18.741	-0.081	0.064
-223.669	183.785	0.155	-0.228
-222.655	24.883	0.305	-0.252
-221.640	-200.000	-0.035	-0.222
-220.625	45.903	-0.224	-0.207
-219.611	800.000	0.078	-0.285
-218.596	-168.591	0.256	0.010
-217.582	-184.844	0.164	0.003
-216.567	-47.972	-0.474	0.228
-215.552	-78.437	0.249	0.085
-214.538	-200.000	-0.026	-0.199
-213.523	141.014	0.118	0.155
-212.509	-200.000	0.006	-0.164
-211.494	122.574	0.077	-0.096
-210.479	-160.193	-0.167	-0.009
-209.465	-162.002	0.188	-0.009
-208.450	-105.773	0.119	0.027
-207.436	-200.000	0.002	-0.100
-206.421	800.000	0.049	0.160
-205.406	-200.000	0.062	0.405
-204.392	-200.000	0.041	0.294
-203.377	14.139	-0.140	-0.109
-202.363	367.170	0.261	-0.525
-201.348	-189.176	0.170	-0.002
-200.333	800.000	0.090	-0.307
-199.319	800.000	-0.128	-0.466
-198.304	77.141	-0.255	0.269
-197.290	-54.256	-0.149	-0.067
-196.275	-64.048	0.328	-0.133
-195.260	114.363	0.264	-0.320
-194.246	-91.997	0.035	-0.010
-193.231	506.975	-0.051	0.117
-192.217	-200.000	0.012	0.223
-191.202	-200.000	0.016	0.110
-190.187	-91.318	0.276	-0.078
-189.173	324.597	0.210	0.398
-188.158	-200.000	-0.025	0.112
-187.144	43.519	-0.208	0.189
-186.129	-130.730	0.276	-0.037
-185.114	-15.420	0.432	0.274
-184.100	14.391	-0.143	0.111
-183.085	56.922	0.197	0.191
-182.071	-57.223	0.133	0.058
-181.056	-42.530	-0.158	0.080
-180.042	-136.205	0.195	-0.023
-179.027	68.515	0.444	0.453
-178.012	92.793	-0.220	0.247
-176.998	800.000	0.035	-0.104
-175.983	165.087	-0.101	-0.142
-174.969	-144.124	-0.176	0.016
-173.954	-200.000	-0.017	0.183
-172.939	-33.184	0.241	0.133
-171.925	-20.408	0.095	0.058
-170.910	-96.113	0.309	-0.082
-169.896	119.727	-0.152	0.188
-168.881	-64.985	-0.172	0.069
-167.866	-27.089	0.320	0.186
-166.852	196.932	-0.121	0.184
-165.837	-7.225	-0.158	0.107
-164.823	209.618	-0.132	0.206
-163.808	-77.304	0.106	-0.037
-162.793	22.605	-0.105	0.085
-161.779	624.108	-0.066	-0.165
-160.764	23.588	-0.175	0.143
-159.750	-172.506	0.200	0.006
-158.735	-200.000	-0.019	0.168
-157.720	210.316	-0.078	-0.122
-156.706	800.000	0.003	-0.011
-155.691	-123.573	-0.065	-0.010
-154.677	-200.000	-0.039	0.374
-153.662	-108.404	-0.099	0.021
-152.647	800.000	0.043	0.124
-151.633	325.990	0.073	0.139
-150.618	-144.928	0.159	-0.014
-149.604	-190.557	0.379	0.004
-148.589	800.000	-0.027	0.098
-147.574	-200.000	-0.050	-0.404
-146.560	27.678	-0.138	-0.115
-145.545	-80.051	-0.096	0.032
-144.531	35.061	-0.146	0.127
-143.516	-73.228	-0.342	0.124
-142.502	47.193	-0.245	0.227
-141.487	97.514	-0.130	0.148
-140.472	-68.252	-0.258	-0.100
-139.458	172.417	0.037	-0.052
-138.443	800.000	0.018	0.061
-137.429	-115.862	0.062	-0.012
-136.414	-101.550	0.397	0.096
-135.399	12.953	0.135	-0.104
-134.385	139.068	-0.115	-0.150
-133.370	-92.526	0.137	0.038
-132.356	2.213	-0.244	0.175
-131.341	-199.473	-0.306	-0.002
-130.326	115.490	0.132	0.160
-129.312	-200.000	0.014	-0.075
-128.297	-96.442	0.111	-0.029
-127.283	13.316	0.246	0.189
-126.268	-190.475	-0.213	0.002
-125.253	-148.102	0.239	-0.020
-124.239	-200.000	0.028	0.152
-123.224	800.000	-0.045	-0.189
-122.210	-63.000	0.108	0.044
-121.195	-200.000	0.111	-0.567
-120.180	-131.717	0.338	0.044
-119.166	-88.402	-0.316	0.093
-118.151	-200.000	0.038	-0.248
-117.137	-20.366	0.233	0.142
-116.122	-200.000	-0.002	-0.120
-115.107	74.250	0.163	-0.170
-114.093	-200.000	0.014	-0.250
-113.078	-51.261	-0.204	-0.095
-112.064	-164.159	-0.348	-0.016
-111.049	-62.558	0.216	-0.089
-110.034	-146.160	0.286	0.025
-109.020	71.670	0.028	0.029
-108.005	-200.000	-0.013	-0.351
-106.991	41.592	0.118	-0.106
-105.976	89.942	-0.177	0.197
-104.962	-200.000	0.022	-0.290
-103.947	-200.000	-0.009	0.087
-102.932	-102.328	-0.113	-0.027
-101.918	54.243	0.036	-0.034
-100.903	31.318	0.065	-0.055
-99.889	436.438	0.076	0.164
-98.874	381.223	0.171	0.348
-97.859	-31.005	-0.093	0.052
-96.845	162.997	0.165	0.230
-95.830	-200.000	0.020	0.480
-94.816	148.636	0.191	0.256
-93.801	-200.000	-0.033	0.358
-92.786	19.084	0.099	-0.079
-91.772	427.013	-0.124	0.266
-90.757	-200.000	-0.072	-0.317
-89.743	18.334	0.066	-0.052
-88.728	62.735	0.296	-0.293
-87.713	-77.542	0.282	-0.097
-86.699	9.461	-0.048	0.036
-85.684	-200.000	0.015	0.119
-84.670	66.658	0.127	0.128
-83.655	800.000	0.076	-0.258
-82.640	63.144	-0.195	-0.194
-81.626	-200.000	0.010	-0.097
-80.611	-64.956	-0.120	-0.048
-79.597	103.437	0.230	0.268
-78.582	-200.000	-0.007	0.116
-77.567	-54.140	0.186	-0.084
-76.553	13.799	0.319	0.246
-75.538	-200.000	0.039	-0.559
-74.524	-148.024	0.214	-0.018
-73.509	-170.564	0.243	0.008
-72.494	-105.013	-0.269	-0.061
-71.480	-200.000	0.000	-0.241
-70.465	164.415	-0.104	0.146
-69.451	-12.726	0.569	0.367
-68.436	-81.192	0.075	0.025
-67.422	-50.446	-0.219	0.103
-66.407	-200.000	0.024	-0.409
-65.392	-73.660	0.203	-0.073
-64.378	7.276	-0.041	0.030
-63.363	-200.000	0.023	-0.131
-62.349	1.610	-0.101	-0.072
-61.334	38.400	-1.078	-0.951
-60.319	273.983	0.239	0.419
-59.305	800.000	-0.280	-0.967
-58.290	438.336	0.528	1.140
-57.276	-200.000	0.291	1.540
-56.261	-200.000	94.662	568.875
-55.246	553.340	1369.595	3258.090
-54.232	154.770	2565.289	3488.399
-53.217	105.328	2312.721	2702.759
-52.203	42.261	2065.561	1857.170
-51.188	37.499	1978.699	1736.614
-50.173	35.738	1961.451	1705.804
-49.159	50.347	2011.588	1880.960
-48.144	52.986	2030.960	1922.718
-47.130	37.975	1989.600	1750.173
-46.115	35.626	1978.182	1719.077
-45.100	35.554	1975.048	1715.646
-44.086	35.480	1973.315	1713.406
-43.071	35.446	1970.618	1710.695
-42.057	35.414	1968.293	1708.326
-41.042	35.384	1966.640	1706.557
-40.027	35.479	1964.692	1705.644
-39.013	35.542	1962.446	1704.185
-37.998	35.534	1961.246	1703.004
-36.984	35.541	1959.079	1701.112
-35.969	35.597	1956.799	1699.560
-34.954	35.565	1955.597	1698.166
-33.940	35.574	1953.896	1696.708
-32.925	35.598	1952.430	1695.578
-31.911	35.617	1950.965	1694.400
-30.896	35.639	1948.591	1692.471
-29.881	35.542	1947.491	1690.594
-28.867	35.659	1945.297	1689.645
-27.852	35.609	1943.799	1687.841
-26.838	35.645	1942.049	1686.569
-25.823	35.618	1940.804	1685.191
-24.809	35.687	1938.420	1683.657
-23.794	35.679	1937.073	1682.346
-22.779	35.613	1935.279	1680.141
-21.765	35.641	1933.700	1678.949
-20.750	35.592	1931.789	1676.800
-19.736	35.697	1930.303	1676.362
-18.721	35.609	1928.635	1674.079
-17.706	35.625	1927.199	1672.907
-16.692	35.506	1926.064	1670.814
-15.677	35.653	1923.370	1669.689
-14.663	35.661	1922.094	1668.585
-13.648	35.630	1921.435	1667.675
-12.633	35.607	1920.135	1666.285
-11.619	35.597	1918.872	1665.039
-10.604	35.581	1917.541	1663.678
-9.590	35.611	1915.632	1662.208
-8.575	35.586	1914.200	1660.687
-7.560	35.522	1913.742	1659.668
-6.546	35.476	1912.309	1657.967
-5.531	35.579	1910.804	1657.484
-4.517	35.535	1909.804	1656.173
-3.502	35.548	1908.366	1654.968
-2.487	35.539	1907.241	1653.851
-1.473	35.574	1906.756	1653.667
-0.458	35.476	1901.544	1648.243
0.556	31.959	1879.947	1612.653
1.571	26.239	1856.026	1543.281
2.586	20.908	1874.587	1512.446
3.600	19.315	1909.113	1526.074
4.615	18.553	1903.618	1514.813
5.629	15.723	1811.369	1417.459
6.644	10.790	1702.869	1293.264
7.659	7.970	1668.005	1244.655
8.673	7.641	1664.625	1239.461
9.688	7.631	1663.522	1238.451
10.702	7.521	1662.037	1236.376
11.717	7.498	1658.020	1233.100
12.731	7.764	1656.944	1234.258
13.746	11.133	1664.763	1266.206
14.761	15.695	1673.892	1308.621
15.775	17.182	1676.021	1321.749
16.790	16.727	1672.852	1315.593
17.804	15.580	1669.956	1304.305
18.819	14.589	1666.749	1294.000
19.834	13.968	1663.624	1286.652
20.848	13.636	1661.934	1282.663
21.863	13.411	1660.614	1279.789
22.877	13.093	1659.116	1276.067
23.892	12.873	1658.324	1273.647
24.907	12.839	1656.876	1272.159
25.921	12.741	1655.997	1270.610
26.936	12.754	1654.988	1269.824
27.950	12.896	1653.445	1269.621
28.965	12.844	1653.373	1269.058
29.980	12.900	1652.631	1268.802
30.994	12.957	1651.480	1268.245
32.009	13.008	1650.692	1267.918
33.023	13.087	1649.294	1267.340
34.038	13.126	1648.372	1266.824
35.053	13.110	1647.736	1266.100
36.067	12.931	1646.636	1263.769
37.082	13.003	1644.959	1262.921
38.096	13.005	1644.069	1262.142
39.111	12.970	1643.829	1261.575
40.126	13.004	1642.879	1260.999
41.140	12.935	1642.527	1260.089
42.155	12.828	1640.590	1257.672
43.169	12.835	1638.722	1256.181
44.184	12.745	1637.659	1254.576
45.199	12.700	1636.930	1253.560
46.213	12.634	1635.634	1251.956
47.228	12.743	1634.478	1251.788
48.242	12.816	1633.131	1251.201
49.257	12.886	1631.912	1250.689
50.271	12.870	1631.205	1249.912
51.286	12.822	1629.377	1248.034
52.301	12.849	1628.437	1247.409
53.315	12.865	1627.309	1246.561
54.330	12.887	1625.078	1244.908
55.344	12.884	1623.666	1243.688
56.359	12.788	1621.951	1241.543
57.374	12.755	1621.484	1240.826
58.388	12.824	1619.999	1240.098
59.403	12.827	1618.607	1238.945
60.417	12.626	1617.665	1236.608
61.432	12.616	1616.815	1235.773
62.447	12.720	1614.958	1235.021
63.461	12.678	1614.084	1233.934
64.476	12.562	1612.775	1231.956
65.490	12.586	1611.753	1231.245
66.505	12.590	1610.768	1230.409
67.520	12.632	1609.747	1229.837
68.534	12.717	1608.480	1229.392
69.549	12.704	1607.650	1228.556
70.563	12.761	1605.976	1227.591
71.578	12.630	1605.178	1225.897
72.593	12.587	1604.143	1224.681
73.607	12.610	1603.168	1223.999
74.622	12.527	1601.709	1222.160
75.636	12.576	1600.950	1221.834
76.651	12.549	1600.561	1221.226
77.666	12.591	1599.684	1220.766
78.680	12.501	1598.600	1219.158
79.695	12.600	1597.850	1219.215
80.709	12.651	1597.005	1218.835
81.724	12.647	1596.363	1218.213
82.739	12.738	1595.398	1218.041
83.753	12.706	1594.445	1216.972
84.768	12.873	1593.355	1217.258
85.782	12.913	1592.581	1216.855
86.797	12.996	1591.639	1216.642
87.812	12.956	1590.773	1215.576
88.826	12.852	1589.767	1213.937
89.841	12.851	1588.358	1212.742
90.855	12.933	1587.330	1212.459
91.870	12.873	1586.662	1211.400
92.884	12.917	1585.271	1210.548
93.899	12.916	1584.319	1209.713
94.914	13.003	1582.985	1209.219
95.928	13.033	1582.140	1208.688
96.943	13.008	1580.520	1207.162
97.957	12.996	1579.000	1205.806
98.972	13.033	1577.426	1204.768
99.987	12.976	1576.147	1203.271
101.001	12.970	1574.556	1201.902
102.016	12.887	1573.155	1200.126
103.030	12.900	1572.229	1199.403
104.045	12.893	1571.139	1198.417
105.060	12.869	1569.561	1196.935
106.074	12.876	1567.757	1195.505
107.089	12.805	1566.463	1193.897
108.103	12.790	1564.835	1192.437
109.118	12.756	1563.402	1191.001
110.133	12.737	1561.654	1189.427
111.147	12.621	1560.875	1187.890
112.162	12.682	1559.574	1187.232
113.176	12.710	1558.382	1186.424
114.191	12.771	1556.602	1185.399
115.206	12.748	1555.602	1184.370
116.220	12.846	1554.428	1184.073
117.235	12.772	1553.139	1182.457
118.249	12.688	1551.853	1180.772
119.264	12.739	1550.095	1179.693
120.279	12.752	1549.124	1178.943
121.293	12.703	1547.420	1177.190
122.308	12.673	1546.137	1175.896
123.322	12.681	1544.587	1174.670
124.337	12.685	1543.009	1173.395
125.352	12.635	1542.037	1172.200
126.366	12.596	1540.938	1170.980
127.381	12.656	1539.711	1170.369
128.395	12.656	1538.832	1169.596
129.410	12.626	1537.237	1168.069
130.424	12.681	1536.069	1167.471
131.439	12.747	1534.281	1166.473
132.454	12.732	1533.213	1165.454
133.468	12.738	1531.604	1164.171
134.483	12.818	1530.511	1163.803
135.497	12.862	1529.183	1162.999
136.512	12.920	1527.363	1161.919
137.527	12.862	1526.325	1160.617
138.541	12.826	1525.285	1159.473
139.556	12.799	1523.382	1157.736
140.570	12.956	1521.968	1157.657
141.585	12.967	1520.972	1156.875
142.600	13.035	1519.600	1156.210
143.614	13.037	1518.510	1155.289
144.629	13.085	1517.546	1154.790
145.643	13.118	1516.166	1153.865
146.658	13.139	1514.647	1152.754
147.673	13.026	1513.635	1151.093
148.687	13.053	1511.901	1149.865
149.702	12.942	1510.614	1148.010
150.716	12.899	1509.309	1146.617
151.731	12.872	1507.718	1145.120
152.746	12.910	1506.749	1144.549
153.760	12.931	1505.573	1143.696
154.775	12.940	1503.687	1142.225
155.789	13.010	1502.222	1141.497
156.804	13.062	1501.402	1141.135
157.819	13.075	1500.709	1140.592
158.833	13.076	1499.184	1139.339
159.848	13.153	1498.288	1139.089
160.862	13.199	1496.814	1138.183
161.877	13.146	1495.839	1136.982
162.892	13.120	1495.007	1136.070
163.906	13.057	1493.066	1134.057
164.921	13.029	1492.038	1132.983
165.935	13.032	1491.192	1132.264
166.950	13.076	1490.259	1131.757
167.964	13.079	1488.832	1130.593
168.979	13.167	1487.947	1130.422
169.994	13.100	1486.646	1128.873
171.008	13.190	1485.331	1128.393
172.023	13.159	1484.666	1127.577
173.037	13.162	1483.500	1126.608
174.052	13.192	1482.832	1126.205
175.067	13.303	1481.171	1125.601
176.081	13.182	1480.240	1123.971
177.096	13.208	1478.724	1122.899
178.110	13.142	1477.159	1121.162
179.125	13.106	1476.015	1119.952
180.140	13.189	1475.177	1119.781
181.154	13.152	1474.135	1118.641
182.169	13.263	1472.864	1118.328
183.183	13.217	1472.036	1117.286
184.198	13.311	1471.141	1117.146
185.213	13.325	1469.953	1116.236
186.227	13.368	1468.943	1115.662
187.242	13.445	1467.541	1115.015
188.256	13.388	1466.924	1114.065
189.271	13.395	1465.543	1112.968
190.286	13.458	1464.612	1112.587
191.300	13.419	1463.582	1111.438
192.315	13.306	1461.822	1109.251
193.329	13.069	1461.239	1107.120
194.344	13.116	1459.560	1106.065
195.359	13.274	1458.648	1106.332
196.373	13.359	1457.155	1105.670
197.388	13.350	1456.496	1105.010
198.402	13.422	1455.623	1104.734
199.417	13.469	1454.925	1104.420
200.432	13.625	1453.505	1104.283
201.446	13.662	1452.549	1103.701
202.461	13.704	1451.734	1103.267
203.475	13.649	1450.744	1102.049
204.490	13.702	1449.694	1101.506
205.504	13.614	1448.454	1099.882
206.519	13.582	1447.646	1098.963
207.534	13.595	1445.979	1097.688
208.548	13.611	1444.987	1096.938
209.563	13.566	1444.115	1095.884
210.577	13.669	1443.259	1095.817
211.592	13.648	1442.211	1094.789
212.607	13.695	1441.094	1094.152
213.621	13.773	1440.959	1094.465
214.636	13.799	1439.741	1093.613
215.650	13.803	1438.956	1092.951
216.665	13.702	1438.128	1091.558
217.680	13.795	1437.416	1091.536
218.694	13.801	1436.841	1091.040
219.709	13.907	1435.766	1090.827
220.723	13.893	1434.512	1089.686
221.738	13.823	1434.035	1088.767
222.753	13.805	1433.180	1087.899
223.767	13.886	1431.614	1087.147
224.782	13.849	1430.803	1086.195
225.796	13.851	1430.213	1085.660
226.811	13.928	1429.348	1085.411
227.826	13.939	1428.990	1085.119
228.840	14.005	1427.939	1084.653
229.855	13.877	1426.609	1082.709
230.869	13.890	1425.280	1081.692
231.884	13.904	1424.436	1081.050
232.899	13.891	1423.458	1080.126
233.913	13.907	1422.468	1079.382
234.928	13.909	1421.007	1078.191
235.942	13.866	1420.101	1077.126
236.957	13.841	1418.941	1075.989
237.972	13.839	1417.654	1074.907
238.986	13.883	1416.417	1074.158
240.001	13.801	1415.738	1073.017
241.015	13.982	1414.771	1073.361
242.030	13.917	1413.307	1071.734
243.045	13.998	1412.343	1071.430
244.059	14.004	1411.579	1070.798
245.074	14.142	1410.262	1070.591
246.088	14.063	1410.579	1070.231
247.103	14.071	1409.562	1069.413
248.117	14.104	1408.697	1068.873
249.132	14.181	1407.728	1068.538
250.147	14.140	1407.391	1067.924
251.161	14.261	1406.711	1068.091
252.176	14.402	1405.544	1068.013
253.190	14.471	1405.015	1067.958
254.205	14.400	1404.170	1066.767
255.220	14.392	1403.679	1066.251
256.234	14.536	1402.447	1066.139
257.249	14.485	1402.128	1065.475
258.263	14.510	1401.190	1064.832
259.278	14.565	1400.048	1064.216
260.293	14.645	1399.050	1063.877
261.307	14.558	1398.171	1062.560
262.322	14.555	1397.804	1062.166
263.336	14.628	1396.943	1061.885
264.351	14.627	1396.134	1061.169
265.366	14.741	1394.529	1060.583
266.380	14.650	1393.950	1059.468
267.395	14.623	1393.260	1058.680
268.409	14.622	1392.789	1058.222
269.424	14.713	1391.263	1057.541
270.439	14.653	1390.106	1056.194
271.453	14.596	1388.995	1054.894
272.468	14.614	1388.354	1054.428
273.482	14.659	1387.726	1054.142
274.497	14.612	1387.079	1053.259
275.512	14.624	1385.966	1052.395
276.526	14.541	1385.328	1051.296
277.541	14.592	1384.178	1050.649
278.555	14.701	1383.539	1050.757
279.570	14.690	1382.543	1049.838
280.585	14.699	1381.536	1049.038
281.599	14.647	1381.116	1048.302
282.614	14.822	1379.592	1048.149
283.628	14.849	1378.542	1047.427
284.643	14.795	1377.423	1046.148
285.657	14.788	1376.122	1045.022
286.672	14.776	1375.626	1044.477
287.687	14.779	1374.436	1043.500
288.701	14.714	1373.821	1042.536
289.716	14.779	1372.918	1042.162
290.730	14.858	1371.819	1041.729
291.745	14.829	1371.273	1041.043
292.760	14.891	1369.979	1040.355
293.774	14.966	1369.002	1039.989
294.789	14.908	1368.265	1038.973
295.803	15.007	1367.407	1038.846
296.818	15.000	1366.475	1038.003
297.833	15.017	1365.316	1037.137
298.847	14.891	1364.590	1035.712
299.862	14.929	1363.229	1034.823
300.876	14.999	1362.678	1034.745
301.891	15.005	1361.447	1033.753
302.906	15.027	1361.110	1033.546
303.920	15.027	1360.870	1033.270
304.935	15.065	1359.727	1032.542
305.949	15.134	1358.544	1031.984
306.964	15.253	1357.768	1032.030
307.979	15.277	1356.922	1031.443
308.993	15.284	1356.036	1030.721
310.008	15.285	1354.916	1029.788
311.022	15.228	1354.266	1028.852
312.037	15.255	1353.056	1028.007
313.052	15.269	1352.280	1027.414
314.066	15.267	1351.552	1026.757
315.081	15.205	1350.099	1025.180
316.095	15.183	1348.937	1024.077
317.110	15.130	1348.276	1023.159
318.125	15.083	1347.476	1022.176
319.139	15.104	1346.830	1021.724
320.154	15.199	1345.880	1021.490
321.168	15.275	1344.207	1020.592
322.183	15.270	1343.233	1019.733
323.197	15.290	1342.243	1019.013
324.212	15.154	1341.960	1017.882
325.227	15.263	1341.133	1017.825
326.241	15.311	1340.300	1017.393
327.256	15.280	1338.913	1016.061
328.270	15.330	1338.184	1015.726
329.285	15.320	1337.316	1014.917
330.300	15.287	1336.864	1014.279
331.314	15.255	1335.832	1013.218
332.329	15.317	1334.893	1012.788
333.343	15.346	1333.983	1012.185
334.358	15.372	1332.775	1011.336
335.373	15.451	1332.091	1011.199
336.387	15.421	1331.503	1010.486
337.402	15.481	1330.728	1010.170
338.416	15.527	1329.936	1009.755
339.431	15.441	1329.537	1008.845
340.446	15.561	1328.638	1008.794
341.460	15.516	1328.070	1008.002
342.475	15.603	1326.923	1007.566
343.489	15.636	1325.812	1006.830
344.504	15.602	1325.615	1006.386
345.519	15.719	1324.366	1006.054
346.533	15.763	1323.559	1005.614
347.548	15.775	1322.729	1004.966
348.562	15.770	1321.873	1004.195
349.577	15.795	1320.670	1003.341
350.592	15.777	1320.201	1002.786
351.606	15.764	1319.199	1001.864
352.621	15.718	1317.643	1000.317
353.635	15.614	1317.123	999.218
354.650	15.581	1316.274	998.289
355.665	15.665	1315.110	997.816
356.679	15.781	1313.830	997.444
357.694	15.788	1312.852	996.656
358.708	15.828	1311.715	995.938
359.723	15.778	1310.884	994.923
360.738	15.768	1310.007	994.111
361.752	15.781	1309.218	993.500
362.767	15.843	1307.993	992.849
363.781	15.864	1306.945	992.094
364.796	15.727	1307.012	991.244
365.810	15.888	1305.846	991.221
366.825	15.859	1305.533	990.725
367.840	15.977	1304.627	990.645
368.854	15.932	1303.943	989.774
369.869	16.140	1303.183	990.331
370.883	16.068	1302.588	989.367
371.898	16.149	1301.706	989.086
372.913	16.102	1301.019	988.202
373.927	16.065	1300.215	987.286
374.942	16.082	1299.380	986.665
375.956	16.099	1298.520	986.022
376.971	16.232	1297.937	986.272
377.986	16.133	1297.194	985.038
379.000	16.175	1295.957	984.262
380.015	16.168	1295.510	983.792
381.029	16.281	1294.885	983.887
382.044	16.226	1294.319	983.050
383.059	16.350	1292.887	982.601
384.073	16.374	1292.490	982.347
385.088	16.336	1292.041	981.697
386.102	16.371	1291.384	981.320
387.117	16.366	1290.768	980.734
388.132	16.429	1289.653	980.166
389.146	16.333	1288.898	978.946
390.161	16.270	1288.097	977.889
391.175	16.299	1287.233	977.316
392.190	16.261	1286.740	976.634
393.205	16.345	1285.199	975.861
394.219	16.440	1284.634	975.894
395.234	16.405	1283.411	974.681
396.248	16.487	1281.910	973.922
397.263	16.456	1280.789	972.809
398.278	16.427	1279.527	971.597
399.292	16.340	1278.447	970.192
400.307	16.305	1277.455	969.150
401.321	16.249	1276.481	968.007
402.336	16.280	1275.598	967.427
403.350	16.375	1274.065	966.721
404.365	16.381	1273.625	966.339
405.380	16.302	1272.834	965.198
406.394	16.435	1271.869	965.143
407.409	16.391	1271.580	964.587
408.423	16.500	1270.649	964.420
409.438	16.426	1270.082	963.478
410.453	16.514	1269.259	963.272
411.467	16.676	1268.682	963.674
412.482	16.633	1268.380	963.113
413.496	16.844	1267.465	963.529
414.511	16.717	1266.792	962.213
415.526	16.699	1266.058	961.468
416.540	16.777	1265.174	961.156
417.555	16.825	1264.496	960.827
418.569	16.862	1264.128	960.671
419.584	16.794	1263.956	960.069
420.599	16.895	1262.679	959.585
421.613	90.015	1343.157	1440.383
422.628	87.767	1354.862	1440.494
