DTS Sentinel unit serial number:	SN413079Multiplexer serial number:	ORYXHardware model number:	OX4-SRSoftware version number:	ORYX F/W v4.00 Oryx Data Collector v3.7.2.0data status	okinstallation	princeton_trtdifferential loss correction	single-endedforward channel	channel 4reverse channel	N/Adate	2019/09/17time	06:05:35forward acquisition time	60.00reverse acquisition time	0.00gamma	496.2192k internal	0.2316k external	0.2316temperature offset calibration	0.9981default loss term (dB/km)	0.3790temperature slope calibration	1.0000multiplexer offset coefficient	1.0000multiplexer slope coefficient	1.0000fibre end	0.00T internal ref (°C)	28.69T ext. ref 1 (°C)	0.13T ext. ref 2 (°C)	22.23length (m)	temperature (°C)	Stokes	anti-Stokes-747.200	322.750	-0.062	0.119
-746.185	46.683	0.236	-0.222
-745.171	205.409	0.141	-0.222
-744.156	-92.079	-0.349	0.100
-743.142	90.946	0.267	-0.303
-742.127	-200.000	0.020	-0.119
-741.112	-55.011	-0.085	-0.039
-740.098	-122.320	0.103	-0.017
-739.083	-46.620	-0.033	0.016
-738.069	-84.624	-0.546	0.174
-737.054	-80.818	0.222	0.075
-736.039	-200.000	-0.013	-0.113
-735.025	-200.000	0.035	0.463
-734.010	-70.394	-0.368	-0.141
-732.996	-200.000	0.036	-0.236
-731.981	59.389	-0.314	0.313
-730.966	-200.000	0.001	-0.187
-729.952	-13.246	-0.074	0.049
-728.937	480.549	0.176	-0.404
-727.923	22.623	0.136	0.113
-726.908	351.602	-0.108	-0.217
-725.894	451.356	-0.087	-0.195
-724.879	121.635	-0.181	0.229
-723.864	-104.716	0.089	0.021
-722.850	-152.604	-0.099	-0.007
-721.835	590.150	-0.087	-0.218
-720.821	-118.905	-0.189	-0.034
-719.806	-126.744	0.142	0.021
-718.791	-58.486	0.114	0.050
-717.777	-110.352	-0.150	0.032
-716.762	-200.000	0.008	0.147
-715.748	-34.946	-0.184	-0.102
-714.733	227.324	0.182	-0.299
-713.718	463.229	0.159	-0.359
-712.704	-99.652	-0.240	-0.061
-711.689	32.467	0.196	0.171
-710.675	-67.015	0.305	0.122
-709.660	128.011	-0.245	0.316
-708.645	-46.002	0.207	-0.103
-707.631	310.150	0.148	0.280
-706.616	-200.000	-0.017	0.249
-705.602	-200.000	-0.070	0.316
-704.587	-107.234	0.202	0.045
-703.572	-86.397	0.209	-0.065
-702.558	-200.000	0.015	0.174
-701.543	-200.000	-0.058	-0.384
-700.529	21.683	0.024	0.020
-699.514	617.786	-0.081	-0.206
-698.499	59.225	0.188	-0.187
-697.485	-47.922	-0.216	0.106
-696.470	239.960	0.041	0.068
-695.456	-87.457	0.430	-0.132
-694.441	-63.310	-0.160	-0.066
-693.426	-121.164	0.088	0.015
-692.412	-200.000	-0.077	-0.455
-691.397	57.890	-0.222	0.220
-690.383	800.000	-0.091	0.262
-689.368	-158.432	-0.172	-0.010
-688.354	16.805	0.022	0.018
-687.339	25.083	-0.199	0.167
-686.324	-200.000	-0.042	0.295
-685.310	61.110	-0.004	0.004
-684.295	3.895	-0.076	0.056
-683.281	-42.442	-0.359	-0.185
-682.266	337.465	0.097	-0.190
-681.251	800.000	-0.079	0.232
-680.237	130.124	0.194	0.250
-679.222	-122.820	-0.296	-0.048
-678.208	-50.430	-0.226	-0.108
-677.193	800.000	-0.076	0.311
-676.178	-23.518	0.140	0.085
-675.164	-8.311	0.158	-0.107
-674.149	684.095	0.059	-0.155
-673.135	544.159	0.104	-0.250
-672.120	-77.640	0.437	0.153
-671.105	-98.751	-0.240	0.062
-670.091	800.000	-0.029	-0.092
-669.076	235.647	-0.039	0.066
-668.062	54.354	0.333	-0.324
-667.047	-99.993	-0.292	-0.074
-666.032	800.000	-0.042	0.132
-665.018	-88.229	0.309	0.093
-664.003	333.420	-0.052	-0.102
-662.989	-82.813	-0.093	0.030
-661.974	11.709	0.232	-0.180
-660.959	-98.884	0.154	-0.039
-659.945	365.990	0.104	-0.212
-658.930	-151.217	0.176	0.013
-657.916	289.683	-0.170	0.312
-656.901	-36.843	-0.049	-0.026
-655.886	-7.364	0.042	0.028
-654.872	86.330	0.128	-0.142
-653.857	107.696	-0.268	0.323
-652.843	-115.703	0.143	0.027
-651.828	-200.000	-0.036	0.179
-650.814	-68.778	0.162	0.063
-649.799	800.000	-0.037	0.127
-648.784	-5.499	0.103	0.072
-647.770	537.483	-0.124	-0.296
-646.755	800.000	-0.039	-0.110
-645.741	-200.000	-0.023	-0.105
-644.726	46.589	-0.091	0.085
-643.711	35.973	0.162	0.144
-642.697	104.530	-0.092	-0.109
-641.682	-31.849	-0.133	0.075
-640.668	-200.000	-0.004	0.115
-639.653	-200.000	0.009	0.242
-638.638	800.000	-0.137	-0.399
-637.624	639.704	0.040	0.102
-636.609	-96.462	0.149	-0.040
-635.595	-98.305	-0.357	0.092
-634.580	-132.874	0.306	-0.039
-633.565	35.028	0.243	-0.215
-632.551	-200.000	0.000	-0.093
-631.536	107.388	-0.123	-0.148
-630.522	-200.000	0.007	0.118
-629.507	-200.000	0.012	0.340
-628.492	-134.498	0.212	-0.026
-627.478	800.000	0.082	-0.274
-626.463	-200.000	0.082	-0.538
-625.449	235.472	0.226	0.376
-624.434	-200.000	-0.023	0.129
-623.419	-146.720	0.076	0.007
-622.405	40.948	-0.224	-0.204
-621.390	-200.000	-0.042	-0.223
-620.376	800.000	0.055	-0.199
-619.361	138.827	-0.096	-0.127
-618.346	236.347	0.152	0.254
-617.332	-96.993	-0.169	0.045
-616.317	23.761	-0.084	-0.070
-615.303	-200.000	-0.029	-0.285
-614.288	-76.971	0.225	-0.079
-613.273	33.658	0.176	0.154
-612.259	-46.609	-0.279	-0.138
-611.244	-17.268	-0.202	0.128
-610.230	37.620	0.183	0.164
-609.215	368.700	-0.165	-0.336
-608.201	-112.595	0.053	-0.011
-607.186	9.055	0.043	-0.033
-606.171	-131.968	0.323	0.042
-605.157	-200.000	-0.026	-0.325
-604.142	293.841	0.148	-0.272
-603.128	-200.000	0.036	-0.442
-602.113	-90.737	0.173	0.050
-601.098	-7.907	-0.192	0.131
-600.084	116.653	-0.012	-0.014
-599.069	345.133	-0.045	-0.089
-598.055	-183.494	-0.299	-0.005
-597.040	-200.000	-0.017	0.223
-596.025	-69.880	-0.201	0.077
-595.011	-60.012	-0.471	0.203
-593.996	-35.677	-0.188	0.103
-592.982	-16.138	0.142	0.091
-591.967	-200.000	-0.001	-0.034
-590.952	10.920	0.140	-0.108
-589.938	311.326	-0.205	0.388
-588.923	101.410	-0.186	-0.218
-587.909	-200.000	-0.076	0.398
-586.894	357.973	0.136	-0.273
-585.879	-126.674	-0.370	-0.055
-584.865	-10.972	0.351	0.234
-583.850	800.000	0.056	-0.218
-582.836	-111.298	0.232	0.048
-581.821	-95.308	0.168	-0.045
-580.806	610.856	0.124	0.312
-579.792	166.199	0.226	0.322
-578.777	-125.100	-0.289	-0.045
-577.763	391.313	0.054	0.112
-576.748	-19.528	0.244	-0.152
-575.733	-24.919	-0.233	-0.139
-574.719	39.862	-0.188	0.170
-573.704	-104.267	0.141	-0.033
-572.690	-24.764	0.140	-0.084
-571.675	-163.469	0.198	0.009
-570.661	800.000	-0.085	-0.354
-569.646	800.000	0.051	-0.211
-568.631	558.541	-0.074	-0.180
-567.617	-49.965	-0.143	0.068
-566.602	-120.211	0.381	-0.066
-565.588	-200.000	-0.001	0.028
-564.573	218.302	-0.139	0.223
-563.558	379.384	0.066	-0.135
-562.544	63.987	-0.162	0.164
-561.529	-21.722	0.253	0.155
-560.515	-14.819	-0.206	0.133
-559.500	-96.952	0.308	0.081
-558.485	-200.000	-0.072	0.465
-557.471	-135.147	-0.263	-0.032
-556.456	137.210	0.264	-0.347
-555.442	240.567	-0.179	0.301
-554.427	-200.000	0.053	-0.257
-553.412	800.000	0.070	0.254
-552.398	-200.000	0.008	0.267
-551.383	-200.000	-0.012	0.203
-550.369	-151.779	0.331	0.024
-549.354	-27.809	0.081	-0.047
-548.339	31.734	0.132	-0.115
-547.325	-17.681	0.100	-0.063
-546.310	-127.942	0.225	-0.032
-545.296	-117.297	-0.037	-0.007
-544.281	-200.000	0.017	0.362
-543.266	-188.868	0.220	-0.003
-542.252	800.000	-0.033	-0.118
-541.237	55.184	0.236	0.229
-540.223	-9.559	-0.096	0.064
-539.208	-200.000	-0.026	0.322
-538.193	-64.720	-0.279	0.113
-537.179	367.654	0.266	0.541
-536.164	-37.466	-0.118	-0.063
-535.150	121.766	-0.135	-0.170
-534.135	-200.000	-0.018	-0.244
-533.121	-62.894	-0.292	-0.121
-532.106	-200.000	0.000	-0.248
-531.091	700.608	0.092	-0.243
-530.077	-88.658	-0.350	-0.105
-529.062	-84.807	-0.398	-0.126
-528.048	71.987	-0.124	-0.129
-527.033	-83.904	0.162	0.052
-526.018	-26.360	-0.245	0.145
-525.004	-158.331	-0.083	0.005
-523.989	-89.004	-0.322	0.096
-522.975	90.725	-0.069	-0.078
-521.960	800.000	0.031	0.132
-520.945	-54.271	-0.408	-0.186
-519.931	-173.793	-0.517	0.015
-518.916	-9.166	0.161	-0.108
-517.902	800.000	-0.068	-0.240
-516.887	-200.000	-0.000	-0.152
-515.872	-152.837	0.423	0.030
-514.858	9.107	-0.237	-0.179
-513.843	-200.000	-0.030	-0.186
-512.829	-23.813	0.217	0.130
-511.814	158.519	-0.090	-0.126
-510.799	468.088	0.142	-0.320
-509.785	-200.000	0.004	-0.172
-508.770	641.879	0.140	-0.359
-507.756	136.437	0.174	-0.228
-506.741	-68.893	-0.339	-0.131
-505.726	46.101	-0.091	-0.084
-504.712	87.421	-0.151	-0.167
-503.697	163.970	0.284	0.401
-502.683	-119.091	0.052	-0.009
-501.668	-200.000	0.010	0.212
-500.653	321.479	-0.124	-0.237
-499.639	587.202	-0.059	0.145
-498.624	-10.196	-0.163	0.109
-497.610	800.000	-0.050	-0.185
-496.595	156.520	-0.078	-0.107
-495.581	-200.000	0.260	0.001
-494.566	659.932	-0.076	0.197
-493.551	800.000	0.034	0.110
-492.537	67.864	-0.209	-0.215
-491.522	-7.683	-0.161	-0.109
-490.508	111.039	0.137	-0.165
-489.493	-200.000	-0.043	-0.430
-488.478	34.464	0.202	-0.177
-487.464	2.732	-0.337	-0.245
-486.449	-79.456	-0.186	-0.063
-485.435	-200.000	0.045	-0.253
-484.420	-109.658	0.125	0.026
-483.405	127.557	0.199	0.254
-482.391	-200.000	-0.032	-0.216
-481.376	-200.000	0.009	-0.435
-480.362	210.984	0.010	-0.016
-479.347	-152.061	-0.126	0.009
-478.332	-200.000	0.021	0.128
-477.318	-55.555	0.165	-0.074
-476.303	39.134	-0.144	-0.129
-475.289	-66.692	0.292	0.116
-474.274	-200.000	0.005	-0.242
-473.259	-100.531	-0.153	0.038
-472.245	11.930	-0.281	0.216
-471.230	296.702	0.063	-0.115
-470.216	583.547	0.047	-0.115
-469.201	-89.319	0.095	0.028
-468.186	-67.001	-0.107	0.042
-467.172	-59.601	-0.166	-0.071
-466.157	165.692	0.230	-0.326
-465.143	33.243	0.331	0.288
-464.128	-92.828	0.218	0.061
-463.113	28.503	0.036	0.030
-462.099	800.000	0.033	0.127
-461.084	-200.000	0.040	-0.377
-460.070	800.000	0.109	-0.303
-459.055	134.969	-0.141	-0.183
-458.040	159.322	0.118	0.165
-457.026	800.000	0.005	-0.015
-456.011	40.906	-0.349	0.315
-454.997	-200.000	-0.014	0.201
-453.982	-200.000	-0.053	0.253
-452.968	-143.407	-0.318	-0.030
-451.953	52.612	0.172	0.165
-450.938	-93.137	0.090	0.025
-449.924	-23.107	0.248	-0.150
-448.909	472.994	0.075	-0.168
-447.895	62.747	-0.110	0.111
-446.880	-57.658	-0.130	0.057
-445.865	13.900	0.388	0.302
-444.851	-72.337	0.222	0.082
-443.836	800.000	0.050	-0.184
-442.822	-59.424	-0.067	-0.029
-441.807	373.693	0.059	-0.120
-440.792	-200.000	0.034	-0.243
-439.778	800.000	0.040	0.150
-438.763	-95.839	0.160	0.043
-437.749	-67.534	0.373	0.146
-436.734	16.667	0.038	-0.030
-435.719	0.875	-0.108	0.077
-434.705	110.828	0.066	0.080
-433.690	279.990	-0.209	-0.375
-432.676	96.799	-0.159	-0.183
-431.661	0.805	0.180	0.129
-430.646	25.858	0.223	-0.186
-429.632	-2.228	-0.119	-0.084
-428.617	-12.809	-0.127	0.083
-427.603	-34.029	0.269	-0.148
-426.588	-200.000	0.037	-0.206
-425.573	800.000	0.111	-0.352
-424.559	373.015	-0.050	-0.101
-423.544	-93.077	-0.155	-0.043
-422.530	114.293	0.151	0.184
-421.515	510.689	-0.155	-0.360
-420.500	-200.000	-0.052	-0.366
-419.486	-84.170	0.293	0.093
-418.471	152.475	0.226	-0.309
-417.457	88.082	-0.251	-0.278
-416.442	-49.231	-0.054	-0.026
-415.428	-200.000	0.025	0.122
-414.413	460.617	0.123	0.273
-413.398	-200.000	0.021	0.131
-412.384	10.291	-0.100	-0.076
-411.369	-200.000	-0.017	-0.085
-410.355	800.000	-0.117	0.420
-409.340	162.040	0.077	-0.107
-408.325	-79.345	-0.298	0.101
-407.311	515.945	0.178	-0.415
-406.296	158.484	-0.281	0.390
-405.282	82.801	0.253	0.275
-404.267	-200.000	0.002	-0.097
-403.252	-56.723	0.053	-0.023
-402.238	56.918	0.253	-0.247
-401.223	431.716	-0.019	-0.042
-400.209	-111.960	0.222	0.045
-399.194	800.000	-0.031	0.123
-398.179	800.000	0.081	0.247
-397.165	-119.389	-0.193	-0.034
-396.150	-1.867	0.161	0.113
-395.136	5.679	0.020	0.015
-394.121	800.000	-0.039	0.146
-393.106	576.031	0.105	-0.256
-392.092	-200.000	0.013	-0.072
-391.077	6.129	-0.098	0.073
-390.063	-200.000	-0.007	-0.097
-389.048	-6.093	0.153	-0.105
-388.033	800.000	0.044	-0.154
-387.019	11.164	-0.157	0.120
-386.004	-132.576	-0.354	-0.045
-384.990	-200.000	0.057	0.265
-383.975	9.973	0.172	-0.131
-382.960	-46.690	-0.299	-0.146
-381.946	-173.276	0.346	-0.011
-380.931	83.654	0.050	-0.054
-379.917	267.343	-0.057	-0.099
-378.902	420.285	-0.098	0.210
-377.888	-59.231	0.254	-0.109
-376.873	800.000	0.021	0.084
-375.858	-56.853	0.258	0.114
-374.844	-129.033	0.087	-0.012
-373.829	-19.562	-0.139	0.086
-372.815	429.596	-0.100	-0.216
-371.800	-200.000	0.006	-0.099
-370.785	-200.000	0.009	0.090
-369.771	-93.643	-0.093	-0.026
-368.756	252.368	0.134	-0.228
-367.742	-200.000	0.021	0.188
-366.727	800.000	0.053	-0.201
-365.712	-3.549	0.351	0.244
-364.698	-159.758	0.267	0.015
-363.683	261.577	-0.037	0.064
-362.669	23.696	0.120	0.099
-361.654	21.501	-0.242	-0.196
-360.639	45.657	-0.089	-0.082
-359.625	-114.339	-0.383	0.074
-358.610	-35.279	0.046	0.025
-357.596	425.238	0.092	0.197
-356.581	70.499	0.014	-0.014
-355.566	74.348	-0.070	-0.073
-354.552	-30.896	-0.344	-0.194
-353.537	-86.203	0.373	0.115
-352.523	-120.793	0.202	-0.034
-351.508	-200.000	0.026	0.438
-350.493	-200.000	0.043	-0.261
-349.479	-200.000	-0.006	0.128
-348.464	-120.300	-0.338	0.058
-347.450	-200.000	-0.003	-0.059
-346.435	-79.878	-0.022	0.007
-345.420	-3.367	-0.110	0.076
-344.406	43.610	0.104	0.095
-343.391	-200.000	-0.045	-0.222
-342.377	543.530	0.037	-0.088
-341.362	-176.691	-0.040	0.001
-340.348	203.199	0.046	0.072
-339.333	406.060	0.073	0.155
-338.318	-19.543	-0.515	0.318
-337.304	142.630	-0.310	0.411
-336.289	-64.630	-0.113	0.046
-335.275	482.805	0.091	-0.206
-334.260	76.344	0.206	0.217
-333.245	-49.733	0.338	0.160
-332.231	50.950	-0.152	-0.144
-331.216	-50.771	-0.180	-0.084
-330.202	-56.393	0.283	0.125
-329.187	157.657	-0.133	0.183
-328.172	800.000	-0.128	0.490
-327.158	73.028	-0.159	0.166
-326.143	170.169	0.040	-0.058
-325.129	-200.000	-0.087	0.474
-324.114	667.615	-0.054	0.139
-323.099	-4.477	0.259	-0.178
-322.085	-129.106	-0.495	-0.069
-321.070	-102.927	0.083	0.020
-320.056	800.000	0.012	0.034
-319.041	-132.876	0.228	-0.029
-318.026	-200.000	-0.001	0.005
-317.012	28.843	0.174	-0.147
-315.997	38.779	-0.152	-0.136
-314.983	28.537	-0.299	0.252
-313.968	642.532	0.074	0.188
-312.953	-200.000	-0.084	0.535
-311.939	800.000	0.048	0.197
-310.924	-200.000	0.016	-0.071
-309.910	-200.000	0.074	0.350
-308.895	-200.000	0.000	0.072
-307.880	99.850	-0.138	-0.160
-306.866	-200.000	0.005	0.218
-305.851	86.604	0.164	-0.180
-304.837	-112.666	-0.126	0.025
-303.822	233.670	-0.101	-0.165
-302.807	101.929	0.077	-0.090
-301.793	-59.315	0.192	-0.082
-300.778	59.954	-0.085	0.084
-299.764	42.026	0.068	-0.061
-298.749	3.555	0.104	-0.075
-297.735	-195.123	-0.356	-0.003
-296.720	-43.277	-0.149	0.075
-295.705	-34.879	-0.098	-0.053
-294.691	-12.084	-0.235	-0.153
-293.676	359.714	-0.094	0.187
-292.662	35.801	-0.283	-0.247
-291.647	-76.432	-0.189	-0.066
-290.632	-31.069	0.334	-0.187
-289.618	-40.973	-0.231	0.119
-288.603	43.054	0.102	-0.093
-287.589	424.032	0.101	0.216
-286.574	-129.517	-0.264	-0.036
-285.559	409.200	0.106	0.223
-284.545	-200.000	0.002	0.277
-283.530	-142.124	0.078	0.008
-282.516	-23.547	-0.309	-0.185
-281.501	-56.253	-0.194	-0.086
-280.486	-19.002	-0.212	-0.131
-279.472	527.774	-0.088	0.207
-278.457	-123.183	0.276	-0.044
-277.443	183.020	-0.055	-0.080
-276.428	365.426	-0.134	-0.269
-275.413	612.111	0.080	-0.199
-274.399	117.155	-0.063	-0.077
-273.384	63.441	0.086	0.086
-272.370	-6.980	0.265	-0.179
-271.355	-99.502	0.351	0.088
-270.340	800.000	-0.075	-0.321
-269.326	-22.946	0.097	0.058
-268.311	-200.000	-0.024	0.199
-267.297	800.000	-0.025	0.093
-266.282	-19.630	0.203	-0.125
-265.267	77.896	-0.231	-0.245
-264.253	-80.602	-0.281	-0.093
-263.238	-80.141	-0.262	-0.087
-262.224	19.578	0.076	0.061
-261.209	59.711	0.111	0.109
-260.195	130.469	0.340	0.433
-259.180	-54.589	0.155	-0.070
-258.165	628.552	-0.083	-0.208
-257.151	-74.999	-0.067	0.024
-256.136	-130.126	-0.399	0.054
-255.122	32.358	-0.155	-0.133
-254.107	-40.807	0.093	0.048
-253.092	13.431	0.342	0.264
-252.078	-52.965	-0.244	0.111
-251.063	-200.000	0.030	0.148
-250.049	800.000	-0.062	-0.268
-249.034	259.401	-0.048	0.083
-248.019	-75.171	0.186	-0.066
-247.005	-16.640	-0.217	-0.136
-245.990	468.936	-0.089	-0.199
-244.976	-200.000	-0.040	-0.441
-243.961	-25.026	0.132	-0.078
-242.946	800.000	-0.053	0.172
-241.932	-41.725	0.143	0.073
-240.917	-200.000	-0.044	0.243
-239.903	-117.887	0.229	-0.041
-238.888	3.489	-0.170	-0.123
-237.873	-9.809	0.098	-0.065
-236.859	340.781	-0.128	-0.248
-235.844	77.761	-0.265	0.280
-234.830	-200.000	0.012	0.275
-233.815	196.883	0.192	0.290
-232.800	131.290	0.180	0.230
-231.786	212.955	-0.240	0.376
-230.771	-109.755	-0.332	-0.069
-229.757	-48.382	-0.122	0.058
-228.742	70.185	0.086	0.088
-227.727	800.000	-0.100	-0.362
-226.713	-114.188	0.366	-0.070
-225.698	-105.878	0.162	-0.036
-224.684	-7.143	0.314	-0.212
-223.669	-200.000	-0.075	0.577
-222.655	353.650	0.159	0.313
-221.640	287.870	-0.133	0.238
-220.625	159.943	0.219	0.303
-219.611	800.000	-0.033	-0.111
-218.596	-200.000	-0.036	-0.343
-217.582	152.659	0.066	-0.089
-216.567	-102.974	-0.302	-0.071
-215.552	24.960	0.097	0.080
-214.538	48.402	-0.156	-0.145
-213.523	-67.192	-0.135	-0.053
-212.509	-145.978	-0.324	0.028
-211.494	-125.239	0.231	-0.035
-210.479	509.405	0.121	0.280
-209.465	-60.497	-0.153	-0.065
-208.450	17.136	0.127	0.100
-207.436	-200.000	-0.049	0.218
-206.421	800.000	-0.060	0.250
-205.406	-30.300	0.169	0.095
-204.392	-200.000	0.018	-0.164
-203.377	-200.000	0.054	0.259
-202.363	-58.804	-0.086	-0.037
-201.348	-98.225	0.203	-0.052
-200.333	-13.242	-0.035	-0.023
-199.319	416.469	0.093	-0.197
-198.304	19.215	-0.258	-0.206
-197.290	-74.965	-0.230	-0.082
-196.275	49.278	0.121	-0.113
-195.260	46.741	0.287	0.264
-194.246	40.166	0.246	0.220
-193.231	-200.000	0.064	-0.304
-192.217	306.439	-0.102	-0.188
-191.202	-200.000	-0.059	-0.499
-190.187	558.651	-0.052	0.123
-189.173	329.991	0.058	-0.111
-188.158	62.489	0.066	0.065
-187.144	104.154	0.311	0.362
-186.129	-200.000	0.090	0.400
-185.114	-144.749	0.014	0.001
-184.100	7.426	0.161	-0.119
-183.085	-200.000	-0.006	0.275
-182.071	613.262	-0.014	-0.035
-181.056	-15.442	-0.055	-0.035
-180.042	800.000	-0.045	-0.125
-179.027	-8.685	0.112	-0.074
-178.012	54.087	0.193	0.184
-176.998	131.108	0.064	0.082
-175.983	-141.738	-0.212	-0.021
-174.969	150.814	-0.049	0.065
-173.954	-105.258	0.109	0.025
-172.939	-53.046	-0.242	-0.110
-171.925	246.306	0.040	0.066
-170.910	61.568	0.141	0.139
-169.896	-106.099	-0.172	-0.038
-168.881	144.785	0.088	0.116
-167.866	406.764	-0.162	0.339
-166.852	-9.557	-0.121	0.080
-165.837	-200.000	0.000	-0.264
-164.823	162.076	0.310	-0.430
-163.808	402.515	-0.139	-0.289
-162.793	386.567	-0.069	0.142
-161.779	800.000	0.113	0.388
-160.764	-200.000	-0.008	-0.172
-159.750	44.254	0.067	0.061
-158.735	-81.885	-0.205	0.067
-157.720	-119.987	0.486	0.083
-156.706	-27.484	-0.279	0.161
-155.691	-200.000	0.006	0.211
-154.677	-38.808	0.254	0.133
-153.662	123.680	-0.246	0.305
-152.647	460.030	0.114	0.252
-151.633	-166.276	0.131	0.005
-150.618	-106.541	0.284	0.063
-149.604	26.818	-0.047	0.039
-148.589	130.709	0.157	-0.200
-147.574	237.496	0.036	-0.059
-146.560	-133.414	-0.206	-0.026
-145.545	-200.000	-0.017	0.227
-144.531	-107.687	0.344	0.074
-143.516	-25.208	-0.230	0.135
-142.502	800.000	0.068	0.230
-141.487	70.188	0.149	-0.153
-140.472	-66.303	-0.367	-0.144
-139.458	-10.401	0.428	0.280
-138.443	-32.008	0.215	-0.119
-137.429	-151.780	-0.119	-0.009
-136.414	-128.177	0.251	0.035
-135.399	-141.064	-0.482	-0.049
-134.385	-54.177	0.184	-0.083
-133.370	298.323	-0.146	0.266
-132.356	-114.895	0.351	0.066
-131.341	-104.205	-0.010	0.002
-130.326	-159.768	-0.305	-0.017
-129.312	153.273	0.164	-0.221
-128.297	196.107	-0.054	0.081
-127.283	329.510	0.067	0.128
-126.268	-200.000	0.020	-0.291
-125.253	-200.000	0.025	-0.181
-124.239	144.660	-0.209	0.276
-123.224	-200.000	-0.009	-0.046
-122.210	-40.029	-0.157	-0.081
-121.195	-81.985	0.077	-0.025
-120.180	-59.429	-0.141	-0.060
-119.166	-67.200	-0.259	-0.101
-118.151	536.896	-0.097	-0.229
-117.137	35.332	-0.070	0.061
-116.122	-59.205	-0.110	0.047
-115.107	63.339	0.135	-0.134
-114.093	-37.386	-0.209	0.110
-113.078	583.777	0.087	-0.211
-112.064	-200.000	-0.027	-0.290
-111.049	-177.312	-0.407	-0.010
-110.034	-80.781	-0.104	0.034
-109.020	-80.124	0.132	-0.044
-108.005	-116.322	0.188	0.034
-106.991	31.854	0.056	-0.047
-105.976	-200.000	0.009	0.103
-104.962	108.065	-0.009	-0.011
-103.947	-16.789	-0.100	-0.062
-102.932	-88.784	0.184	0.054
-101.918	7.106	-0.332	-0.245
-100.903	-190.505	0.307	-0.003
-99.889	800.000	-0.028	0.080
-98.874	25.308	-0.193	-0.159
-97.859	-200.000	-0.009	-0.247
-96.845	57.664	-0.188	-0.182
-95.830	35.254	-0.174	0.151
-94.816	375.268	-0.072	0.144
-93.801	-56.903	-0.168	0.073
-92.786	-70.808	-0.180	0.067
-91.772	-200.000	0.028	0.241
-90.757	-200.000	-0.001	0.183
-89.743	26.978	0.212	0.176
-88.728	-200.000	0.030	0.182
-87.713	-114.484	-0.117	-0.022
-86.699	-27.892	-0.285	-0.163
-85.684	-100.414	0.330	0.081
-84.670	-106.892	-0.058	-0.013
-83.655	-200.000	0.036	-0.532
-82.640	-89.745	-0.390	0.113
-81.626	334.516	-0.088	-0.168
-80.611	-6.824	-0.286	-0.192
-79.597	-200.000	-0.060	-0.280
-78.582	-77.816	0.280	-0.096
-77.567	-125.463	0.304	0.046
-76.553	-77.164	0.175	-0.060
-75.538	-200.000	0.042	0.250
-74.524	63.601	-0.122	-0.120
-73.509	-59.875	0.167	-0.070
-72.494	52.175	0.463	0.435
-71.480	35.917	-0.210	-0.183
-70.465	193.311	0.084	0.125
-69.451	71.177	0.194	0.199
-68.436	127.066	-0.052	-0.065
-67.422	-156.988	0.275	0.017
-66.407	-84.034	-0.279	0.087
-65.392	-63.194	0.054	0.022
-64.378	800.000	0.024	0.102
-63.363	-46.840	0.284	-0.137
-62.349	-133.109	0.098	0.012
-61.334	126.355	-0.928	-1.158
-60.319	-22.719	0.623	0.371
-59.305	556.027	-0.485	-1.152
-58.290	-200.000	0.264	1.201
-57.276	307.066	0.772	1.418
-56.261	-200.000	112.292	640.914
-55.246	454.469	1512.504	3304.214
-54.232	142.086	2691.974	3520.538
-53.217	96.403	2325.606	2623.623
-52.203	35.301	2074.353	1793.545
-51.188	30.545	1990.398	1678.067
-50.173	29.016	1974.083	1650.545
-49.159	46.416	2031.817	1857.643
-48.144	46.530	2047.058	1872.545
-47.130	31.102	2005.765	1695.819
-46.115	28.723	1995.761	1665.754
-45.100	28.630	1992.975	1662.513
-44.086	28.525	1990.971	1659.828
-43.071	28.463	1988.232	1656.921
-42.057	28.507	1985.947	1655.350
-41.042	28.490	1984.571	1653.983
-40.027	28.638	1982.439	1653.470
-39.013	28.547	1980.777	1651.199
-37.998	28.582	1978.637	1649.662
-36.984	28.675	1976.619	1648.753
-35.969	28.542	1975.088	1646.215
-34.954	28.538	1974.237	1645.404
-33.940	28.641	1971.911	1644.323
-32.925	28.705	1970.166	1643.382
-31.911	28.728	1968.905	1642.471
-30.896	28.698	1967.084	1640.611
-29.881	28.701	1965.801	1639.506
-28.867	28.669	1964.386	1637.972
-27.852	28.769	1962.582	1637.298
-26.838	28.698	1960.729	1635.050
-25.823	28.668	1959.029	1633.301
-24.809	28.795	1956.703	1632.425
-23.794	28.670	1955.447	1630.202
-22.779	28.712	1953.823	1629.159
-21.765	28.748	1951.954	1627.854
-20.750	28.724	1950.411	1626.293
-19.736	28.718	1948.736	1624.778
-18.721	28.723	1947.184	1623.461
-17.706	28.771	1945.546	1622.457
-16.692	28.732	1943.607	1620.432
-15.677	28.740	1942.044	1619.135
-14.663	28.641	1941.135	1617.439
-13.648	28.658	1939.972	1616.552
-12.633	28.738	1938.213	1615.734
-11.619	28.645	1937.503	1614.256
-10.604	28.748	1935.650	1613.551
-9.590	28.713	1934.611	1612.317
-8.575	28.697	1933.262	1610.984
-7.560	28.739	1931.984	1610.231
-6.546	28.776	1930.224	1609.019
-5.531	28.761	1928.950	1607.762
-4.517	28.725	1928.115	1606.687
-3.502	28.752	1926.747	1605.717
-2.487	28.762	1925.363	1604.591
-1.473	28.696	1924.901	1603.570
-0.458	28.689	1919.925	1599.297
0.556	26.646	1899.507	1569.931
1.571	22.091	1880.101	1514.576
2.586	17.875	1902.446	1495.585
3.600	16.685	1937.057	1512.032
4.615	16.492	1931.617	1505.935
5.629	13.070	1831.451	1398.773
6.644	5.214	1714.142	1246.553
7.659	0.607	1677.440	1183.700
8.673	0.220	1674.029	1178.166
9.688	0.176	1672.623	1176.726
10.702	0.121	1671.011	1175.059
11.717	0.014	1668.213	1172.151
12.731	0.587	1666.961	1175.630
13.746	6.518	1679.854	1231.049
14.761	14.370	1695.678	1304.226
15.775	17.284	1699.819	1330.126
16.790	16.958	1697.715	1325.813
17.804	16.012	1693.589	1315.099
18.819	14.936	1691.108	1304.667
19.834	14.335	1688.666	1297.987
20.848	14.126	1687.410	1295.278
21.863	13.844	1685.423	1291.440
22.877	13.591	1684.142	1288.380
23.892	13.330	1682.828	1285.231
24.907	13.353	1680.779	1283.736
25.921	13.260	1680.521	1282.702
26.936	13.202	1679.306	1281.210
27.950	13.264	1678.579	1281.019
28.965	13.342	1677.962	1281.039
29.980	13.436	1676.981	1280.910
30.994	13.463	1676.047	1280.289
32.009	13.486	1675.323	1279.804
33.023	13.492	1674.471	1279.082
34.038	13.553	1673.701	1278.849
35.053	13.512	1672.407	1277.435
36.067	13.436	1671.760	1276.243
37.082	13.522	1670.205	1275.602
38.096	13.397	1669.776	1274.199
39.111	13.457	1668.785	1273.796
40.126	13.475	1668.120	1273.313
41.140	13.457	1667.175	1272.340
42.155	13.371	1665.725	1270.462
43.169	13.248	1664.468	1268.443
44.184	13.292	1663.271	1267.758
45.199	13.245	1661.821	1266.181
46.213	13.257	1660.509	1265.160
47.228	13.269	1659.325	1264.240
48.242	13.382	1658.244	1264.163
49.257	13.302	1657.308	1262.727
50.271	13.429	1655.431	1262.153
51.286	13.387	1654.673	1261.148
52.301	13.377	1653.172	1259.816
53.315	13.434	1651.519	1258.876
54.330	13.339	1650.689	1257.408
55.344	13.328	1648.660	1255.671
56.359	13.312	1647.068	1254.228
57.374	13.304	1646.452	1253.587
58.388	13.312	1644.980	1252.415
59.403	13.348	1643.033	1251.096
60.417	13.288	1642.183	1249.885
61.432	13.304	1640.560	1248.656
62.447	13.309	1639.589	1247.848
63.461	13.223	1638.290	1246.098
64.476	13.097	1638.068	1244.870
65.490	13.094	1636.791	1243.766
66.505	13.197	1635.349	1243.336
67.520	13.062	1634.594	1241.639
68.534	13.280	1633.164	1242.075
69.549	13.193	1632.373	1240.716
70.563	13.305	1630.479	1240.003
71.578	13.218	1629.354	1238.388
72.593	13.246	1628.211	1237.617
73.607	13.173	1627.618	1236.510
74.622	13.097	1626.353	1234.874
75.636	13.109	1625.474	1234.187
76.651	13.135	1624.828	1233.783
77.666	13.104	1624.023	1232.830
78.680	13.187	1622.919	1232.501
79.695	13.181	1621.960	1231.620
80.709	13.188	1620.926	1230.778
81.724	13.221	1619.911	1230.139
82.739	13.233	1618.898	1229.353
83.753	13.249	1618.687	1229.206
84.768	13.321	1617.383	1228.636
85.782	13.315	1616.666	1227.942
86.797	13.436	1615.327	1227.713
87.812	13.390	1614.649	1226.749
88.826	13.434	1613.197	1225.860
89.841	13.304	1612.271	1224.089
90.855	13.335	1611.510	1223.627
91.870	13.436	1610.379	1223.408
92.884	13.391	1609.101	1222.001
93.899	13.454	1608.255	1221.715
94.914	13.430	1607.058	1220.521
95.928	13.462	1605.776	1219.672
96.943	13.514	1604.488	1218.967
97.957	13.487	1603.178	1217.665
98.972	13.389	1601.615	1215.655
99.987	13.519	1599.879	1215.182
101.001	13.477	1598.303	1213.566
102.016	13.373	1596.711	1211.496
103.030	13.395	1595.793	1210.849
104.045	13.360	1594.491	1209.500
105.060	13.394	1593.112	1208.594
106.074	13.425	1592.066	1207.920
107.089	13.365	1589.977	1205.788
108.103	13.291	1588.592	1204.097
109.118	13.208	1587.155	1202.293
110.133	13.176	1585.644	1200.809
111.147	13.278	1584.323	1200.444
112.162	13.285	1582.703	1199.162
113.176	13.197	1581.732	1197.687
114.191	13.257	1580.402	1197.008
115.206	13.371	1579.121	1196.752
116.220	13.373	1577.586	1195.501
117.235	13.283	1576.864	1194.192
118.249	13.233	1575.437	1192.647
119.264	13.308	1574.144	1192.107
120.279	13.278	1572.564	1190.583
121.293	13.284	1571.190	1189.487
122.308	13.283	1569.854	1188.359
123.322	13.208	1568.367	1186.588
124.337	13.238	1566.662	1185.409
125.352	13.250	1565.500	1184.516
126.366	13.293	1564.457	1183.925
127.381	13.268	1563.344	1182.798
128.395	13.204	1562.756	1181.796
129.410	13.248	1560.841	1180.554
130.424	13.318	1558.832	1179.434
131.439	13.289	1558.304	1178.720
132.454	13.302	1557.138	1177.825
133.468	13.389	1555.529	1177.122
134.483	13.393	1553.984	1175.878
135.497	13.444	1552.516	1175.024
136.512	13.343	1551.812	1173.673
137.527	13.432	1549.744	1172.634
138.541	13.366	1548.748	1171.313
139.556	13.379	1547.489	1170.346
140.570	13.362	1546.229	1169.171
141.585	13.445	1544.591	1168.415
142.600	13.500	1543.379	1167.784
143.614	13.417	1542.325	1166.296
144.629	13.508	1540.944	1165.788
145.643	13.522	1539.639	1164.800
146.658	13.648	1538.276	1164.546
147.673	13.556	1537.009	1162.842
148.687	13.575	1534.935	1161.299
149.702	13.527	1534.112	1160.244
150.716	13.499	1532.317	1158.582
151.731	13.550	1530.777	1157.673
152.746	13.519	1529.726	1156.557
153.760	13.514	1528.077	1155.179
154.775	13.534	1527.173	1154.532
155.789	13.573	1525.631	1153.534
156.804	13.597	1524.495	1152.743
157.819	13.524	1523.633	1151.478
158.833	13.513	1522.272	1150.273
159.848	13.588	1521.307	1149.961
160.862	13.752	1520.103	1150.089
161.877	13.743	1519.009	1149.097
162.892	13.641	1517.537	1147.176
163.906	13.536	1516.260	1145.380
164.921	13.581	1514.848	1144.522
165.935	13.584	1514.104	1143.880
166.950	13.604	1512.711	1142.862
167.964	13.639	1511.568	1142.143
168.979	13.708	1510.566	1141.758
169.994	13.674	1509.499	1140.615
171.008	13.609	1508.585	1139.377
172.023	13.625	1507.369	1138.473
173.037	13.626	1506.592	1137.786
174.052	13.688	1505.193	1137.059
175.067	13.772	1503.969	1136.610
176.081	13.687	1503.046	1135.230
177.096	13.739	1501.608	1134.396
178.110	13.717	1500.056	1132.974
179.125	13.774	1499.035	1132.488
180.140	13.833	1497.670	1131.764
181.154	13.893	1496.850	1131.448
182.169	13.749	1495.760	1129.546
183.183	13.828	1494.300	1128.884
184.198	13.785	1494.042	1128.297
185.213	13.927	1492.318	1127.854
186.227	13.925	1491.174	1126.878
187.242	13.920	1490.316	1126.100
188.256	13.846	1490.040	1125.288
189.271	14.028	1488.171	1125.007
190.286	14.051	1487.290	1124.395
191.300	13.958	1486.289	1122.912
192.315	13.862	1484.862	1121.086
193.329	13.673	1483.957	1119.028
194.344	13.709	1482.676	1118.207
195.359	13.821	1481.449	1117.940
196.373	13.842	1480.499	1117.264
197.388	13.915	1479.906	1117.207
198.402	14.027	1478.285	1116.636
199.417	13.933	1477.359	1115.205
200.432	13.962	1476.474	1114.634
201.446	14.070	1475.194	1114.293
202.461	14.099	1474.042	1113.521
203.475	14.061	1473.184	1112.518
204.490	14.210	1471.903	1112.451
205.504	14.140	1471.114	1111.285
206.519	14.085	1469.877	1109.888
207.534	14.182	1468.357	1109.288
208.548	14.128	1467.503	1108.186
209.563	14.161	1466.435	1107.499
210.577	14.072	1466.088	1106.547
211.592	14.047	1464.909	1105.392
212.607	14.175	1463.962	1105.432
213.621	14.283	1463.052	1105.364
214.636	14.287	1462.341	1104.753
215.650	14.298	1461.421	1104.039
216.665	14.287	1460.365	1103.067
217.680	14.289	1459.339	1102.206
218.694	14.349	1459.193	1102.395
219.709	14.438	1457.716	1101.772
220.723	14.439	1456.697	1100.909
221.738	14.332	1456.033	1099.607
222.753	14.369	1455.118	1099.061
223.767	14.367	1454.451	1098.447
224.782	14.449	1453.025	1097.812
225.796	14.482	1451.945	1097.117
226.811	14.450	1451.423	1096.417
227.826	14.534	1450.784	1096.388
228.840	14.503	1450.152	1095.611
229.855	14.447	1448.839	1094.154
230.869	14.454	1447.760	1093.288
231.884	14.501	1446.715	1092.710
232.899	14.518	1445.600	1091.885
233.913	14.570	1444.251	1091.104
234.928	14.457	1443.122	1089.419
235.942	14.368	1442.224	1088.061
236.957	14.444	1440.774	1087.369
237.972	14.406	1439.965	1086.412
238.986	14.435	1438.655	1085.518
240.001	14.410	1437.779	1084.599
241.015	14.433	1436.783	1083.898
242.030	14.540	1435.181	1083.294
243.045	14.530	1434.723	1082.782
244.059	14.467	1434.030	1081.757
245.074	14.583	1432.984	1081.626
246.088	14.650	1431.890	1081.138
247.103	14.561	1431.535	1080.197
248.117	14.718	1430.056	1080.004
249.132	14.733	1429.384	1079.497
250.147	14.811	1428.667	1079.363
251.161	14.892	1427.865	1079.184
252.176	14.926	1427.655	1079.146
253.190	14.874	1426.734	1078.023
254.205	14.974	1425.882	1077.929
255.220	15.010	1425.110	1077.476
256.234	14.968	1424.179	1076.412
257.249	14.979	1423.519	1075.890
258.263	14.975	1422.711	1075.158
259.278	15.049	1421.977	1074.982
260.293	14.977	1421.168	1073.810
261.307	15.060	1419.932	1073.317
262.322	15.095	1419.043	1072.771
263.336	15.177	1418.254	1072.604
264.351	15.067	1417.575	1071.292
265.366	15.133	1416.587	1070.875
266.380	15.176	1415.620	1070.322
267.395	15.201	1414.386	1069.456
268.409	15.216	1413.466	1068.760
269.424	15.207	1412.546	1067.915
270.439	15.190	1411.362	1066.816
271.453	15.115	1410.907	1065.900
272.468	15.127	1410.066	1065.242
273.482	15.166	1408.716	1064.381
274.497	15.097	1408.369	1063.585
275.512	15.215	1407.429	1063.527
276.526	15.142	1406.615	1062.355
277.541	15.188	1405.362	1061.607
278.555	15.156	1404.773	1060.866
279.570	15.244	1403.669	1060.496
280.585	15.244	1402.372	1059.423
281.599	15.303	1401.750	1059.230
282.614	15.316	1400.891	1058.570
283.628	15.333	1399.747	1057.719
284.643	15.294	1398.708	1056.597
285.657	15.357	1397.707	1056.141
286.672	15.346	1396.878	1055.352
287.687	15.378	1395.821	1054.663
288.701	15.399	1394.502	1053.702
289.716	15.490	1393.776	1053.636
290.730	15.327	1393.546	1052.343
291.745	15.346	1392.031	1051.228
292.760	15.364	1390.954	1050.433
293.774	15.489	1389.647	1050.134
294.789	15.493	1388.697	1049.346
295.803	15.555	1388.346	1049.380
296.818	15.591	1387.325	1048.738
297.833	15.452	1386.980	1047.519
298.847	15.358	1385.991	1046.088
299.862	15.518	1385.023	1046.262
300.876	15.548	1383.456	1045.173
301.891	15.489	1383.107	1044.453
302.906	15.557	1382.030	1043.967
303.920	15.631	1381.079	1043.616
304.935	15.682	1380.383	1043.317
305.949	15.663	1379.513	1042.450
306.964	15.720	1378.877	1042.232
307.979	15.716	1378.139	1041.553
308.993	15.671	1376.780	1040.156
310.008	15.698	1376.223	1039.811
311.022	15.758	1374.951	1039.128
312.037	15.774	1373.828	1038.285
313.052	15.914	1372.710	1038.211
314.066	15.871	1371.589	1037.011
315.081	15.789	1371.325	1036.214
316.095	15.659	1370.007	1034.328
317.110	15.714	1368.662	1033.558
318.125	15.745	1368.079	1033.217
319.139	15.729	1367.020	1032.224
320.154	15.779	1366.274	1031.878
321.168	15.729	1365.243	1030.700
322.183	15.830	1364.051	1030.326
323.197	15.732	1363.313	1029.080
324.212	15.783	1362.470	1028.661
325.227	15.857	1361.424	1028.236
326.241	15.912	1359.983	1027.393
327.256	15.857	1359.711	1026.758
328.270	15.792	1359.313	1025.974
329.285	15.881	1357.796	1025.277
330.300	15.773	1357.226	1024.102
331.314	15.828	1356.498	1023.794
332.329	15.863	1355.336	1023.041
333.343	15.883	1354.130	1022.160
334.358	15.958	1353.454	1022.013
335.373	15.933	1353.158	1021.549
336.387	16.010	1351.903	1020.980
337.402	16.042	1351.078	1020.459
338.416	16.018	1350.314	1019.647
339.431	16.041	1349.721	1019.248
340.446	16.150	1349.254	1019.460
341.460	16.219	1347.894	1018.762
342.475	16.172	1347.155	1017.828
343.489	16.220	1346.214	1017.316
344.504	16.234	1345.026	1016.413
345.519	16.139	1344.408	1015.285
346.533	16.285	1343.637	1015.492
347.548	16.270	1342.496	1014.449
348.562	16.346	1341.452	1014.029
349.577	16.346	1340.954	1013.561
350.592	16.329	1340.375	1012.930
351.606	16.228	1339.618	1011.667
352.621	16.319	1338.043	1010.927
353.635	16.288	1336.861	1009.764
354.650	16.216	1336.305	1008.823
355.665	16.207	1335.395	1007.995
356.679	16.240	1334.425	1007.365
357.694	16.233	1333.438	1006.492
358.708	16.345	1331.928	1005.933
359.723	16.310	1331.167	1005.059
360.738	16.339	1330.156	1004.377
361.752	16.466	1328.838	1004.048
362.767	16.493	1327.924	1003.429
363.781	16.443	1327.109	1002.427
364.796	16.468	1326.523	1002.044
365.810	16.455	1325.825	1001.353
366.825	16.398	1325.341	1000.560
367.840	16.491	1324.241	1000.190
368.854	16.575	1323.287	999.878
369.869	16.735	1322.878	1000.425
370.883	16.609	1322.092	998.997
371.898	16.633	1321.666	998.733
372.913	16.651	1320.498	997.866
373.927	16.680	1319.532	997.218
374.942	16.607	1318.708	996.077
375.956	16.645	1318.360	995.948
376.971	16.763	1317.273	995.734
377.986	16.723	1316.444	994.789
379.000	16.762	1315.490	994.209
380.015	16.653	1315.059	993.154
381.029	16.711	1314.446	992.945
382.044	16.854	1313.612	993.064
383.059	16.860	1312.837	992.425
384.073	16.923	1311.896	991.991
385.088	16.904	1311.289	991.336
386.102	16.881	1310.697	990.665
387.117	16.889	1310.357	990.369
388.132	16.865	1309.433	989.439
389.146	16.817	1308.325	988.236
390.161	16.930	1307.604	988.265
391.175	16.873	1306.881	987.295
392.190	16.926	1305.636	986.576
393.205	16.849	1305.334	985.812
394.219	16.948	1304.247	985.479
395.234	17.012	1302.967	984.796
396.248	16.924	1301.932	983.418
397.263	16.892	1300.448	982.026
398.278	16.953	1298.822	981.061
399.292	16.913	1298.040	980.153
400.307	16.969	1296.889	979.522
401.321	16.900	1295.869	978.269
402.336	16.942	1294.926	977.709
403.350	16.878	1294.364	976.832
404.365	17.012	1293.331	976.737
405.380	17.053	1292.291	976.103
406.394	17.052	1291.348	975.295
407.409	17.066	1290.607	974.732
408.423	17.180	1289.989	974.831
409.438	17.206	1289.259	974.341
410.453	17.222	1288.481	973.760
411.467	17.175	1287.678	972.801
412.482	17.264	1287.410	973.017
413.496	17.282	1286.645	972.458
414.511	17.316	1285.600	971.780
415.526	17.440	1284.520	971.584
416.540	17.453	1284.023	971.197
417.555	17.405	1283.401	970.362
418.569	17.353	1283.231	969.855
419.584	17.393	1282.470	969.422
420.599	17.370	1282.058	968.893
421.613	95.837	1355.266	1472.650
422.628	93.755	1365.846	1472.737
