DTS Sentinel unit serial number:	SN413079Multiplexer serial number:	ORYXHardware model number:	OX4-SRSoftware version number:	ORYX F/W v4.00 Oryx Data Collector v3.7.2.0data status	okinstallation	princeton_trtdifferential loss correction	single-endedforward channel	channel 4reverse channel	N/Adate	2019/09/10time	19:31:11forward acquisition time	60.00reverse acquisition time	0.00gamma	496.2192k internal	0.2309k external	0.2309temperature offset calibration	0.9939default loss term (dB/km)	0.3790temperature slope calibration	1.0000multiplexer offset coefficient	1.0000multiplexer slope coefficient	1.0000fibre end	0.00T internal ref (°C)	33.44T ext. ref 1 (°C)	-0.41T ext. ref 2 (°C)	26.11length (m)	temperature (°C)	Stokes	anti-Stokes-747.200	-134.791	0.065	0.008
-746.185	-142.683	0.258	-0.026
-745.171	246.084	-0.216	-0.370
-744.156	118.034	0.121	0.152
-743.142	-36.818	0.097	0.053
-742.127	472.414	0.119	0.273
-741.112	735.961	0.091	-0.248
-740.098	140.937	-0.218	0.292
-739.083	-44.071	0.301	-0.154
-738.069	-200.000	-0.027	0.397
-737.054	263.562	0.121	-0.213
-736.039	-58.289	0.125	-0.055
-735.025	-159.326	0.558	-0.032
-734.010	-83.914	-0.377	-0.122
-732.996	-200.000	-0.003	-0.358
-731.981	104.952	0.173	0.208
-730.966	552.577	-0.012	-0.029
-729.952	-183.808	0.181	-0.003
-728.937	78.925	-0.231	0.251
-727.923	140.654	0.006	0.008
-726.908	189.538	0.124	-0.189
-725.894	-200.000	-0.010	-0.194
-724.879	-176.425	0.293	-0.008
-723.864	-152.073	0.277	-0.020
-722.850	520.182	0.078	0.185
-721.835	-200.000	0.014	-0.196
-720.821	-22.013	-0.265	-0.164
-719.806	161.683	0.104	-0.147
-718.791	179.897	0.278	-0.414
-717.777	-117.636	-0.267	0.049
-716.762	800.000	-0.045	0.160
-715.748	-200.000	0.027	-0.120
-714.733	30.180	-0.249	-0.216
-713.718	-44.719	0.151	-0.076
-712.704	10.328	-0.043	0.033
-711.689	456.550	-0.176	-0.398
-710.675	-4.254	0.111	-0.078
-709.660	-100.529	0.214	0.054
-708.645	460.606	-0.065	-0.148
-707.631	-50.361	0.185	-0.089
-706.616	53.400	0.237	-0.230
-705.602	-66.145	0.152	0.062
-704.587	25.725	0.069	-0.059
-703.572	-97.967	-0.122	0.032
-702.558	501.454	0.036	-0.085
-701.543	44.411	0.042	-0.039
-700.529	19.289	0.044	0.036
-699.514	-200.000	0.024	-0.182
-698.499	-160.367	-0.293	-0.016
-697.485	24.143	-0.101	0.084
-696.470	-200.000	-0.076	-0.450
-695.456	79.171	0.138	0.150
-694.441	20.347	-0.283	-0.232
-693.426	-17.543	-0.103	-0.065
-692.412	275.844	0.128	0.230
-691.397	-58.491	0.260	-0.115
-690.383	29.587	-0.181	-0.156
-689.368	586.251	-0.057	0.141
-688.354	-101.256	-0.103	-0.026
-687.339	64.966	0.022	0.022
-686.324	-16.422	-0.075	-0.048
-685.310	370.742	0.085	0.176
-684.295	-49.067	0.117	-0.057
-683.281	29.424	0.117	0.101
-682.266	114.589	0.091	-0.113
-681.251	351.445	0.260	0.522
-680.237	18.497	0.142	0.115
-679.222	-200.000	0.039	0.213
-678.208	-19.968	-0.143	-0.090
-677.193	800.000	0.076	-0.250
-676.178	-200.000	-0.025	-0.280
-675.164	138.030	0.310	0.412
-674.149	286.202	0.201	0.367
-673.135	-146.903	-0.153	0.013
-672.120	-14.454	-0.201	0.131
-671.105	-200.000	0.062	0.281
-670.091	-200.000	-0.057	-0.258
-669.076	-200.000	-0.014	0.488
-668.062	63.651	0.073	-0.075
-667.047	-155.311	-0.232	0.015
-666.032	800.000	0.043	-0.122
-665.018	-145.605	-0.159	0.014
-664.003	-73.325	-0.024	0.009
-662.989	-6.719	0.066	-0.045
-661.974	800.000	-0.043	0.147
-660.959	119.642	0.074	-0.093
-659.945	-57.848	-0.210	0.093
-658.930	-142.363	0.171	-0.017
-657.916	-48.103	-0.196	-0.096
-656.901	-200.000	-0.009	-0.138
-655.886	-200.000	0.047	-0.210
-654.872	-200.000	-0.018	0.261
-653.857	751.685	-0.164	0.449
-652.843	-34.538	0.131	0.073
-651.828	-93.715	-0.200	-0.056
-650.814	-102.716	-0.318	0.077
-649.799	-200.000	0.014	0.125
-648.784	-123.011	0.200	0.033
-647.770	-25.528	0.112	0.067
-646.755	-34.611	-0.156	-0.086
-645.741	-46.763	-0.219	-0.109
-644.726	-156.980	0.230	0.014
-643.711	108.248	0.109	-0.132
-642.697	-137.760	-0.749	0.085
-641.682	132.060	0.074	-0.096
-640.668	-6.862	-0.114	0.078
-639.653	-27.958	0.185	-0.108
-638.638	800.000	-0.083	-0.278
-637.624	-18.243	0.178	0.112
-636.609	-116.345	0.062	-0.012
-635.595	-200.000	0.026	0.220
-634.580	-200.000	-0.049	-0.284
-633.565	160.791	-0.155	-0.219
-632.551	2.745	-0.143	-0.105
-631.536	-36.581	-0.102	-0.055
-630.522	72.667	0.199	-0.210
-629.507	42.180	0.184	0.169
-628.492	83.778	0.132	-0.146
-627.478	800.000	0.099	-0.282
-626.463	46.777	-0.122	-0.114
-625.449	-138.159	0.337	0.038
-624.434	-149.429	-0.332	-0.027
-623.419	-44.274	0.270	0.137
-622.405	35.149	0.183	0.162
-621.390	124.047	0.090	-0.115
-620.376	-118.328	-0.210	0.038
-619.361	-92.250	-0.076	-0.022
-618.346	800.000	-0.078	-0.235
-617.332	39.853	-0.105	-0.095
-616.317	162.356	-0.086	0.122
-615.303	-57.785	-0.076	-0.034
-614.288	39.445	0.177	-0.160
-613.273	66.968	0.151	0.156
-612.259	-51.616	-0.163	0.077
-611.244	-50.660	0.539	-0.257
-610.230	-200.000	-0.016	0.098
-609.215	-116.834	-0.038	0.007
-608.201	356.803	-0.081	-0.163
-607.186	-200.000	0.002	-0.102
-606.171	458.011	0.049	-0.111
-605.157	-200.000	-0.026	-0.193
-604.142	-31.560	0.128	0.073
-603.128	-200.000	0.007	-0.107
-602.113	-200.000	-0.014	0.173
-601.098	39.955	0.156	0.142
-600.084	-43.707	-0.109	0.055
-599.069	-200.000	0.014	-0.298
-598.055	-200.000	-0.008	0.073
-597.040	25.528	-0.171	0.143
-596.025	-83.373	-0.304	0.098
-595.011	311.672	-0.288	0.545
-593.996	-58.031	-0.146	-0.064
-592.982	-78.082	-0.194	-0.067
-591.967	45.908	-0.252	0.236
-590.952	-200.000	-0.037	0.275
-589.938	11.499	-0.332	0.257
-588.923	800.000	0.030	0.120
-587.909	-28.856	0.058	0.034
-586.894	627.271	0.160	0.407
-585.879	-200.000	0.064	0.386
-584.865	-200.000	-0.012	0.172
-583.850	-40.761	-0.124	0.065
-582.836	31.820	0.108	0.094
-581.821	-128.788	-0.332	-0.047
-580.806	313.998	-0.181	-0.344
-579.792	800.000	-0.040	-0.169
-578.777	101.141	-0.239	-0.281
-577.763	116.706	0.227	-0.281
-576.748	198.681	0.073	-0.113
-575.733	800.000	-0.008	0.027
-574.719	-151.801	0.254	-0.019
-573.704	-156.270	0.089	-0.006
-572.690	-65.294	-0.174	-0.071
-571.675	30.115	0.282	0.243
-570.661	-200.000	-0.016	-0.261
-569.646	158.213	-0.187	0.262
-568.631	19.670	-0.190	-0.154
-567.617	-200.000	0.042	-0.242
-566.602	-117.018	-0.093	-0.017
-565.588	800.000	0.138	-0.385
-564.573	429.553	-0.040	0.087
-563.558	-200.000	0.016	-0.095
-562.544	-84.782	-0.316	0.100
-561.529	-107.657	-0.093	-0.021
-560.515	-200.000	0.002	0.027
-559.500	-55.661	0.250	-0.113
-558.485	414.143	-0.097	-0.207
-557.471	52.555	0.204	0.197
-556.456	800.000	0.080	0.335
-555.442	-54.907	-0.228	0.104
-554.427	163.129	-0.182	-0.258
-553.412	-24.104	0.118	-0.071
-552.398	181.940	0.023	0.034
-551.383	-200.000	0.004	-0.127
-550.369	233.595	0.147	0.244
-549.354	751.312	-0.044	0.118
-548.339	112.262	0.183	-0.223
-547.325	-163.412	0.099	0.005
-546.310	-26.588	-0.140	0.082
-545.296	260.284	-0.033	-0.058
-544.281	-160.466	-0.140	-0.008
-543.266	-1.521	0.248	0.176
-542.252	-10.348	0.049	0.033
-541.237	-200.000	-0.024	-0.328
-540.223	635.742	-0.124	0.317
-539.208	-88.130	0.346	-0.105
-538.193	800.000	0.094	-0.416
-537.179	171.784	0.116	-0.168
-536.164	-13.845	-0.148	0.097
-535.150	-131.812	-0.237	0.031
-534.135	-200.000	-0.013	-0.261
-533.121	-200.000	-0.011	0.066
-532.106	26.913	0.134	-0.113
-531.091	-55.185	-0.036	-0.016
-530.077	-99.289	0.045	0.012
-529.062	-200.000	-0.044	-0.230
-528.048	155.182	0.251	-0.348
-527.033	502.873	-0.043	-0.100
-526.018	-42.965	-0.135	-0.069
-525.004	-181.083	-0.368	0.007
-523.989	-200.000	0.008	0.192
-522.975	423.760	-0.072	0.157
-521.960	-119.911	-0.107	0.019
-520.945	-1.595	0.105	-0.075
-519.931	-121.826	-0.069	-0.011
-518.916	-18.872	0.189	-0.119
-517.902	-40.774	0.232	-0.121
-516.887	-160.644	0.553	-0.030
-515.872	-200.000	-0.028	-0.156
-514.858	620.673	-0.127	-0.323
-513.843	179.873	-0.102	-0.151
-512.829	-65.242	0.142	-0.058
-511.814	-57.660	-0.338	0.149
-510.799	13.220	0.122	0.095
-509.785	-200.000	0.378	0.002
-508.770	-92.232	0.478	0.136
-507.756	-48.148	-0.068	0.033
-506.741	-77.905	-0.143	0.050
-505.726	-200.000	0.066	-0.484
-504.712	240.588	0.130	-0.218
-503.697	593.353	0.137	0.340
-502.683	-9.983	0.206	-0.138
-501.668	-30.046	0.158	-0.091
-500.653	-200.000	0.044	0.276
-499.639	-200.000	0.032	0.225
-498.624	800.000	-0.136	0.523
-497.610	-200.000	-0.092	0.477
-496.595	800.000	-0.104	0.323
-495.581	-2.625	-0.123	0.087
-494.566	-200.000	-0.017	0.228
-493.551	-120.974	0.109	-0.018
-492.537	-200.000	-0.192	0.000
-491.522	-200.000	-0.021	-0.110
-490.508	381.352	-0.156	-0.322
-489.493	-200.000	-0.007	-0.193
-488.478	-167.771	0.242	-0.010
-487.464	-170.043	0.161	0.006
-486.449	800.000	0.090	0.296
-485.435	-27.453	0.149	0.087
-484.420	-75.436	-0.053	0.019
-483.405	441.536	0.133	-0.292
-482.391	-38.078	-0.117	-0.063
-481.376	800.000	0.055	0.156
-480.362	186.337	-0.209	0.313
-479.347	-134.852	-0.206	0.025
-478.332	25.230	0.156	-0.130
-477.318	-200.000	0.044	-0.322
-476.303	59.390	-0.235	-0.233
-475.289	-200.000	-0.105	0.000
-474.274	127.235	-0.215	-0.274
-473.259	1.854	-0.125	-0.091
-472.245	231.479	-0.152	-0.250
-471.230	22.248	0.105	0.086
-470.216	-200.000	0.003	0.023
-469.201	235.550	-0.087	-0.145
-468.186	406.930	0.041	0.087
-467.172	800.000	-0.041	0.136
-466.157	-166.325	-0.196	0.008
-465.143	-24.588	0.253	-0.152
-464.128	800.000	0.063	0.250
-463.113	381.601	0.023	0.048
-462.099	-0.544	-0.296	-0.211
-461.084	-87.466	0.070	-0.021
-460.070	18.999	-0.285	-0.229
-459.055	-131.387	0.230	0.031
-458.040	440.738	0.070	-0.154
-457.026	-111.594	-0.085	-0.017
-456.011	-29.751	0.250	0.143
-454.997	-79.634	-0.154	0.052
-453.982	146.785	0.069	0.093
-452.968	800.000	-0.012	-0.039
-451.953	3.690	0.195	0.143
-450.938	-81.338	0.078	-0.026
-449.924	136.668	0.102	0.133
-448.909	-127.350	-0.079	0.012
-447.895	800.000	-0.031	0.090
-446.880	800.000	0.073	-0.226
-445.865	-124.774	-0.381	-0.059
-444.851	-73.654	0.133	0.049
-443.836	-122.702	0.149	-0.024
-442.822	-86.163	-0.227	-0.070
-441.807	161.841	0.132	0.185
-440.792	-45.259	0.077	-0.038
-439.778	-119.946	0.345	0.060
-438.763	-200.000	0.042	-0.255
-437.749	800.000	-0.048	-0.186
-436.734	-74.885	0.307	0.111
-435.719	278.565	-0.116	0.207
-434.705	-108.085	0.208	-0.045
-433.690	-4.871	-0.074	-0.051
-432.676	685.959	0.101	-0.266
-431.661	800.000	0.140	-0.471
-430.646	-71.030	-0.128	0.048
-429.632	7.089	0.068	-0.051
-428.617	691.817	-0.192	0.505
-427.603	342.376	0.218	0.427
-426.588	800.000	0.039	-0.136
-425.573	13.285	0.138	0.108
-424.559	124.441	-0.251	0.317
-423.544	47.427	-0.219	0.204
-422.530	-109.424	-0.115	-0.024
-421.515	-200.000	0.009	0.133
-420.500	-68.592	-0.196	-0.076
-419.486	24.368	-0.091	-0.075
-418.471	393.761	0.158	0.331
-417.457	-200.000	0.028	-0.260
-416.442	800.000	0.016	0.069
-415.428	240.545	0.082	0.137
-414.413	-143.596	-0.339	0.032
-413.398	-200.000	-0.036	-0.307
-412.384	1.962	0.154	0.111
-411.369	-16.954	0.252	-0.160
-410.355	-200.000	0.020	0.368
-409.340	-148.280	0.145	0.012
-408.325	11.230	-0.140	0.107
-407.311	15.496	-0.176	0.139
-406.296	32.313	0.209	-0.181
-405.282	-200.000	0.028	-0.240
-404.267	111.367	0.188	-0.228
-403.252	-60.476	-0.082	-0.035
-402.238	-200.000	0.005	-0.193
-401.223	446.558	-0.154	-0.340
-400.209	-200.000	-0.008	0.035
-399.194	-51.977	-0.195	0.091
-398.179	-100.253	0.222	0.055
-397.165	-60.538	0.136	0.058
-396.150	290.692	-0.189	-0.344
-395.136	276.533	0.112	-0.200
-394.121	800.000	0.053	-0.198
-393.106	99.049	-0.297	0.344
-392.092	-159.636	0.139	0.008
-391.077	-5.504	-0.063	0.044
-390.063	19.631	-0.094	-0.076
-389.048	71.392	0.157	-0.163
-388.033	87.818	-0.113	-0.126
-387.019	322.340	-0.058	0.111
-386.004	800.000	-0.066	-0.260
-384.990	423.667	0.194	-0.417
-383.975	-200.000	0.037	0.174
-382.960	319.332	0.111	0.211
-381.946	800.000	-0.049	0.207
-380.931	-94.741	-0.134	-0.036
-379.917	-161.805	-0.212	0.011
-378.902	-83.713	-0.383	0.123
-377.888	-82.964	0.435	0.141
-376.873	-39.758	-0.309	-0.162
-375.858	10.158	-0.168	0.128
-374.844	-200.000	0.009	0.161
-373.829	-76.123	0.147	0.052
-372.815	3.817	0.367	0.269
-371.800	161.489	-0.226	0.317
-370.785	400.111	0.040	-0.084
-369.771	592.708	0.083	0.206
-368.756	6.679	-0.273	-0.203
-367.742	261.863	-0.129	0.225
-366.727	-200.000	0.014	-0.324
-365.712	-79.155	-0.186	-0.063
-364.698	41.422	0.094	-0.085
-363.683	3.247	0.242	-0.176
-362.669	392.268	0.075	0.156
-361.654	-81.986	-0.196	-0.064
-360.639	-200.000	0.037	-0.212
-359.625	800.000	-0.057	-0.201
-358.610	386.117	-0.121	-0.250
-357.596	296.939	0.105	-0.193
-356.581	-82.599	-0.042	-0.013
-355.566	387.706	-0.200	-0.414
-354.552	316.653	0.053	0.100
-353.537	-43.678	0.156	0.079
-352.523	724.596	-0.042	-0.113
-351.508	380.667	-0.067	0.138
-350.493	-60.615	-0.177	-0.075
-349.479	361.239	-0.107	0.215
-348.464	-54.662	-0.269	0.122
-347.450	800.000	-0.063	0.230
-346.435	37.646	0.142	0.126
-345.420	800.000	0.066	-0.254
-344.406	421.882	0.099	0.213
-343.391	27.476	0.206	0.173
-342.377	-69.242	0.172	-0.066
-341.362	800.000	0.093	-0.407
-340.348	-200.000	-0.035	0.340
-339.333	217.732	-0.029	-0.046
-338.318	-118.331	0.184	-0.033
-337.304	-200.000	-0.031	0.166
-336.289	282.016	0.014	-0.026
-335.275	642.984	-0.110	0.281
-334.260	-129.166	0.258	-0.036
-333.245	472.666	0.066	0.148
-332.231	800.000	-0.081	0.301
-331.216	753.257	0.023	-0.062
-330.202	-30.725	-0.090	-0.051
-329.187	-77.930	-0.140	-0.048
-328.172	-86.001	0.320	0.099
-327.158	-125.087	0.260	0.040
-326.143	-113.478	0.039	0.008
-325.129	58.196	0.113	-0.110
-324.114	-19.398	-0.237	0.147
-323.099	11.885	-0.095	0.073
-322.085	800.000	-0.057	0.227
-321.070	-200.000	0.008	0.045
-320.056	59.721	-0.027	-0.027
-319.041	-26.452	-0.359	0.211
-318.026	-88.870	-0.289	0.086
-317.012	-72.152	0.303	-0.112
-315.997	-200.000	-0.036	0.160
-314.983	-58.974	0.269	-0.116
-313.968	25.981	0.134	-0.112
-312.953	-164.766	-0.300	0.013
-311.939	311.389	-0.205	-0.383
-310.924	-5.046	0.145	0.100
-309.910	71.542	0.144	0.149
-308.895	305.826	-0.049	-0.091
-307.880	1.294	-0.367	-0.263
-306.866	-200.000	-0.036	-0.352
-305.851	751.136	-0.058	-0.157
-304.837	473.067	-0.149	-0.335
-303.822	-38.155	-0.308	0.163
-302.807	71.539	0.193	0.200
-301.793	-71.950	-0.179	-0.067
-300.778	-200.000	0.016	-0.370
-299.764	136.774	0.168	-0.219
-298.749	336.624	0.070	-0.137
-297.735	650.216	-0.083	-0.213
-296.720	-0.879	-0.210	0.148
-295.705	-62.991	0.221	0.091
-294.691	218.641	0.117	-0.186
-293.676	-159.313	0.588	0.033
-292.662	800.000	0.046	0.128
-291.647	-104.295	0.152	-0.035
-290.632	-98.590	-0.162	0.041
-289.618	43.550	-0.054	0.049
-288.603	-200.000	-0.027	-0.200
-287.589	-147.990	-0.021	-0.002
-286.574	598.893	-0.087	-0.216
-285.559	-90.597	-0.154	0.044
-284.545	-12.517	0.290	-0.189
-283.530	4.852	0.230	-0.169
-282.516	-183.979	0.115	0.002
-281.501	10.494	0.182	0.138
-280.486	25.744	-0.180	-0.150
-279.472	133.946	0.177	-0.228
-278.457	137.153	-0.103	-0.134
-277.443	-6.327	0.017	-0.012
-276.428	45.771	-0.259	0.239
-275.413	-88.525	0.493	-0.147
-274.399	48.474	0.060	-0.056
-273.384	800.000	-0.051	0.196
-272.370	21.894	-0.245	0.199
-271.355	54.678	0.178	-0.171
-270.340	444.816	-0.041	0.089
-269.326	-27.003	0.046	0.027
-268.311	121.608	-0.117	0.145
-267.297	-200.000	-0.000	0.129
-266.282	107.959	-0.177	0.211
-265.267	-200.000	0.000	0.013
-264.253	-200.000	-0.019	0.110
-263.238	6.676	0.233	-0.173
-262.224	-74.795	0.081	0.029
-261.209	584.150	-0.107	0.263
-260.195	-101.118	0.332	-0.081
-259.180	436.268	-0.059	0.128
-258.165	-4.412	-0.128	0.088
-257.151	103.905	0.108	0.126
-256.136	303.552	-0.095	0.175
-255.122	53.484	-0.397	-0.380
-254.107	0.226	-0.186	-0.132
-253.092	-145.771	0.290	0.026
-252.078	-108.514	-0.216	0.046
-251.063	347.480	0.121	-0.238
-250.049	-200.000	0.002	-0.129
-249.034	23.715	-0.043	-0.035
-248.019	-53.006	-0.359	0.165
-247.005	-127.749	0.114	0.016
-245.990	223.104	-0.048	0.078
-244.976	-200.000	0.002	0.184
-243.961	-25.566	0.103	-0.060
-242.946	-124.830	0.113	0.017
-241.932	152.578	-0.262	0.356
-240.917	-195.858	0.375	-0.003
-239.903	116.787	-0.073	0.090
-238.888	280.552	-0.175	-0.312
-237.873	-84.355	0.074	-0.023
-236.859	-200.000	-0.005	0.149
-235.844	365.738	0.100	-0.202
-234.830	-40.035	0.296	0.154
-233.815	-29.989	-0.136	-0.077
-232.800	56.292	-0.057	0.056
-231.786	800.000	0.023	-0.094
-230.771	-91.482	-0.307	0.087
-229.757	-200.000	-0.010	-0.096
-228.742	-83.288	0.274	-0.088
-227.727	-200.000	0.121	-0.000
-226.713	-200.000	-0.062	0.544
-225.698	609.877	0.150	0.373
-224.684	800.000	-0.046	-0.142
-223.669	-200.000	-0.003	0.114
-222.655	307.833	-0.077	0.142
-221.640	-131.598	0.188	-0.025
-220.625	196.318	-0.016	-0.025
-219.611	588.544	-0.049	0.121
-218.596	240.635	-0.179	0.298
-217.582	-19.400	-0.413	-0.255
-216.567	-26.065	0.243	0.142
-215.552	145.929	0.044	-0.058
-214.538	-106.708	-0.378	0.084
-213.523	146.907	0.179	0.239
-212.509	800.000	-0.018	0.072
-211.494	-49.494	-0.131	0.062
-210.479	-200.000	0.042	-0.225
-209.465	21.325	0.156	0.126
-208.450	7.057	-0.160	0.119
-207.436	800.000	0.075	-0.310
-206.421	56.576	-0.100	-0.097
-205.406	-55.175	-0.056	-0.025
-204.392	-124.038	-0.261	-0.041
-203.377	-200.000	0.009	0.106
-202.363	159.301	-0.098	-0.135
-201.348	-98.119	0.420	0.107
-200.333	131.512	0.128	-0.164
-199.319	-135.456	0.072	0.009
-198.304	-38.450	-0.092	0.048
-197.290	-43.110	-0.065	-0.033
-196.275	-9.395	0.173	0.115
-195.260	592.215	-0.106	0.260
-194.246	34.044	0.146	0.126
-193.231	-173.604	0.164	-0.005
-192.217	234.388	-0.154	-0.252
-191.202	471.564	-0.049	0.109
-190.187	-29.560	-0.072	-0.041
-189.173	106.977	0.127	0.149
-188.158	-200.000	-0.030	0.187
-187.144	-99.914	-0.155	0.039
-186.129	-19.207	-0.138	0.085
-185.114	-85.771	0.175	-0.054
-184.100	179.831	0.110	-0.161
-183.085	315.629	-0.039	-0.074
-182.071	-68.548	-0.219	0.085
-181.056	-34.998	0.133	0.072
-180.042	-200.000	-0.267	-0.001
-179.027	142.600	0.060	-0.079
-178.012	-23.509	0.297	0.177
-176.998	-118.821	0.109	-0.019
-175.983	-200.000	-0.012	0.058
-174.969	-51.861	-0.189	0.087
-173.954	800.000	-0.068	0.205
-172.939	177.735	0.045	0.066
-171.925	7.004	0.202	-0.149
-170.910	125.561	-0.134	0.169
-169.896	8.511	0.105	-0.079
-168.881	553.114	-0.053	0.126
-167.866	538.494	-0.061	0.144
-166.852	213.554	-0.135	-0.212
-165.837	113.248	-0.206	-0.248
-164.823	12.745	0.288	0.221
-163.808	-124.663	0.011	0.002
-162.793	0.177	0.090	-0.064
-161.779	42.705	0.071	0.064
-160.764	564.117	0.142	0.343
-159.750	55.956	0.112	0.108
-158.735	-111.096	-0.305	0.062
-157.720	299.491	0.103	0.189
-156.706	800.000	-0.020	0.083
-155.691	-200.000	-0.048	0.234
-154.677	-75.929	-0.310	-0.109
-153.662	-20.959	0.222	-0.135
-152.647	-85.801	0.070	-0.022
-151.633	19.010	0.222	0.177
-150.618	-178.003	0.295	-0.007
-149.604	-41.076	0.137	0.070
-148.589	-47.562	-0.093	-0.045
-147.574	-97.286	0.065	-0.017
-146.560	261.115	-0.152	0.260
-145.545	109.670	-0.050	0.059
-144.531	-108.524	0.063	-0.013
-143.516	-86.618	0.228	0.069
-142.502	-28.853	0.362	0.207
-141.487	-81.456	0.339	0.111
-140.472	1.177	0.325	0.231
-139.458	800.000	0.062	-0.170
-138.443	-3.267	0.272	0.188
-137.429	-33.447	0.288	-0.158
-136.414	-136.463	-0.462	0.053
-135.399	-200.000	-0.008	0.133
-134.385	-200.000	0.047	0.230
-133.370	-62.925	-0.046	-0.019
-132.356	-50.096	0.090	0.042
-131.341	230.560	0.095	0.154
-130.326	148.931	0.297	-0.398
-129.312	172.624	-0.247	0.353
-128.297	-34.669	0.177	-0.096
-127.283	-56.624	0.007	-0.003
-126.268	76.742	-0.061	-0.064
-125.253	589.231	-0.013	0.031
-124.239	-196.740	-0.179	0.001
-123.224	745.275	-0.100	0.268
-122.210	513.834	0.116	-0.267
-121.195	-193.250	0.102	0.001
-120.180	-156.622	0.338	-0.021
-119.166	-200.000	-0.003	0.080
-118.151	-97.209	-0.202	0.052
-117.137	-165.112	0.344	0.015
-116.122	249.794	0.072	0.122
-115.107	-9.397	0.158	0.105
-114.093	90.647	-0.078	-0.087
-113.078	-6.544	0.045	0.031
-112.064	-114.407	0.319	-0.061
-111.049	496.031	0.054	0.122
-110.034	15.010	-0.148	-0.115
-109.020	-200.000	0.038	-0.376
-108.005	-56.128	0.349	-0.154
-106.991	-140.784	0.371	-0.038
-105.976	-60.797	-0.012	0.005
-104.962	-78.037	-0.138	-0.047
-103.947	-37.245	-0.175	-0.093
-102.932	19.113	0.218	-0.173
-101.918	-49.412	0.204	-0.096
-100.903	650.848	-0.085	0.217
-99.889	-139.973	0.323	-0.034
-98.874	-113.344	-0.244	-0.047
-97.859	104.772	-0.116	-0.136
-96.845	-200.000	0.022	-0.219
-95.830	-80.200	0.284	0.094
-94.816	395.928	0.072	-0.149
-93.801	-46.903	-0.063	-0.031
-92.786	-200.000	-0.046	-0.237
-91.772	-96.848	0.450	-0.117
-90.757	-115.692	-0.038	0.007
-89.743	800.000	-0.076	-0.246
-88.728	-123.430	-0.425	-0.067
-87.713	-162.457	-0.299	-0.015
-86.699	172.701	-0.048	-0.068
-85.684	-28.842	0.417	-0.237
-84.670	34.750	0.193	0.167
-83.655	119.998	0.026	-0.032
-82.640	800.000	-0.083	0.272
-81.626	31.502	0.172	0.146
-80.611	-16.502	-0.114	0.071
-79.597	-174.509	0.094	-0.003
-78.582	703.180	-0.082	0.215
-77.567	-95.974	-0.092	-0.024
-76.553	-98.083	0.257	0.065
-75.538	169.521	0.204	0.288
-74.524	-120.396	-0.384	-0.065
-73.509	-81.007	0.075	-0.024
-72.494	800.000	0.113	-0.384
-71.480	44.429	0.091	0.082
-70.465	-73.443	0.254	-0.092
-69.451	-200.000	-0.004	0.073
-68.436	-200.000	-0.160	-0.000
-67.422	328.290	0.119	-0.225
-66.407	800.000	0.012	-0.049
-65.392	800.000	0.049	-0.206
-64.378	521.611	0.073	0.170
-63.363	254.909	0.051	0.087
-62.349	-147.087	-0.387	0.033
-61.334	60.512	-0.854	-0.837
-60.319	109.088	0.469	0.555
-59.305	800.000	-0.200	-0.782
-58.290	278.554	0.696	1.227
-57.276	632.973	0.701	1.758
-56.261	-200.000	102.090	618.954
-55.246	588.748	1441.017	3511.849
-54.232	178.895	2655.593	3839.836
-53.217	107.563	2333.599	2746.866
-52.203	39.930	2079.913	1847.380
-51.188	35.237	1993.608	1728.461
-50.173	33.693	1975.388	1698.784
-49.159	48.192	2029.064	1876.956
-48.144	49.915	2047.936	1910.005
-47.130	35.797	2004.848	1743.005
-46.115	33.462	1993.557	1712.045
-45.100	33.368	1990.823	1708.781
-44.086	33.371	1988.212	1706.499
-43.071	33.199	1986.430	1703.359
-42.057	33.250	1983.693	1701.397
-41.042	33.229	1982.011	1699.703
-40.027	33.315	1980.344	1698.973
-39.013	33.373	1977.921	1697.352
-37.998	33.334	1976.226	1695.480
-36.984	33.406	1974.414	1694.499
-35.969	33.371	1972.576	1692.546
-34.954	33.377	1971.067	1691.239
-33.940	33.434	1968.911	1689.828
-32.925	33.512	1967.457	1689.206
-31.911	33.469	1965.626	1687.190
-30.896	33.418	1964.434	1685.642
-29.881	33.460	1962.676	1684.441
-28.867	33.558	1960.997	1683.806
-27.852	33.481	1959.342	1681.634
-26.838	33.458	1957.242	1679.560
-25.823	33.527	1955.306	1678.437
-24.809	33.406	1954.430	1676.552
-23.794	33.555	1952.098	1675.799
-22.779	33.413	1950.483	1673.094
-21.765	33.467	1948.387	1671.704
-20.750	33.516	1947.107	1670.976
-19.736	33.427	1945.999	1669.176
-18.721	33.454	1944.589	1668.139
-17.706	33.432	1942.480	1666.068
-16.692	33.461	1940.960	1664.953
-15.677	33.440	1938.861	1662.896
-14.663	33.519	1937.487	1662.352
-13.648	33.417	1936.388	1660.449
-12.633	33.476	1935.502	1660.138
-11.619	33.416	1934.514	1658.701
-10.604	33.414	1933.039	1657.347
-9.590	33.467	1931.467	1656.399
-8.575	33.399	1930.195	1654.651
-7.560	33.414	1929.002	1653.691
-6.546	33.431	1927.281	1652.302
-5.531	33.405	1926.521	1651.356
-4.517	33.510	1924.989	1650.895
-3.502	33.492	1923.586	1649.466
-2.487	33.454	1922.513	1648.152
-1.473	33.371	1921.945	1646.873
-0.458	33.382	1917.335	1642.958
0.556	30.478	1896.799	1612.685
1.571	25.885	1876.174	1555.474
2.586	21.691	1897.937	1536.673
3.600	20.539	1933.960	1555.400
4.615	20.422	1930.396	1551.347
5.629	15.682	1830.174	1430.438
6.644	5.812	1708.262	1256.302
7.659	0.120	1668.596	1182.395
8.673	-0.306	1665.363	1176.659
9.688	-0.371	1663.881	1174.998
10.702	-0.468	1662.445	1173.123
11.717	-0.496	1658.945	1170.330
12.731	-0.119	1658.128	1172.589
13.746	6.360	1674.873	1235.289
14.761	15.507	1695.340	1322.621
15.775	19.053	1699.853	1353.981
16.790	19.123	1699.507	1354.135
17.804	19.143	1698.703	1353.528
18.819	19.192	1697.801	1353.078
19.834	19.241	1697.718	1353.276
20.848	19.458	1696.446	1353.845
21.863	19.536	1695.321	1353.444
22.877	19.558	1694.107	1352.520
23.892	19.432	1694.009	1351.338
24.907	19.483	1692.683	1350.558
25.921	19.482	1691.659	1349.620
26.936	19.439	1690.875	1348.531
27.950	19.634	1689.307	1348.687
28.965	19.508	1689.412	1347.665
29.980	19.513	1688.592	1346.932
30.994	19.543	1687.029	1345.800
32.009	19.564	1685.490	1344.622
33.023	19.536	1684.623	1343.593
34.038	19.554	1683.476	1342.693
35.053	19.511	1682.866	1341.759
36.067	19.478	1681.717	1340.469
37.082	19.569	1680.443	1340.035
38.096	19.490	1679.470	1338.531
39.111	19.499	1678.678	1337.850
40.126	19.450	1678.102	1336.896
41.140	19.502	1677.274	1336.515
42.155	19.500	1675.882	1335.274
43.169	19.403	1675.149	1333.821
44.184	19.412	1673.989	1332.849
45.199	19.525	1672.546	1332.459
46.213	19.405	1671.794	1330.814
47.228	19.501	1670.233	1330.192
48.242	19.455	1668.648	1328.456
49.257	19.480	1667.890	1327.934
50.271	19.457	1666.540	1326.559
51.286	19.441	1665.719	1325.666
52.301	19.451	1664.011	1324.271
53.315	19.468	1662.637	1323.187
54.330	19.462	1661.191	1321.875
55.344	19.458	1659.875	1320.675
56.359	19.551	1658.289	1320.011
57.374	19.397	1657.945	1318.440
58.388	19.561	1655.912	1317.964
59.403	19.536	1654.839	1316.799
60.417	19.418	1654.576	1315.578
61.432	19.473	1653.191	1314.780
62.447	19.522	1651.945	1314.045
63.461	19.449	1650.921	1312.557
64.476	19.389	1650.379	1311.554
65.490	19.463	1648.712	1310.670
66.505	19.535	1647.090	1309.816
67.520	19.565	1646.012	1309.070
68.534	19.529	1645.302	1308.117
69.549	19.576	1643.973	1307.296
70.563	19.585	1642.520	1306.100
71.578	19.530	1641.442	1304.707
72.593	19.466	1640.607	1303.448
73.607	19.502	1639.703	1302.881
74.622	19.627	1638.500	1302.758
75.636	19.524	1637.472	1301.049
76.651	19.464	1636.925	1300.043
77.666	19.548	1635.931	1299.771
78.680	19.514	1634.990	1298.656
79.695	19.428	1634.631	1297.605
80.709	19.452	1633.627	1296.877
81.724	19.551	1632.191	1296.366
82.739	19.609	1631.189	1295.890
83.753	19.507	1630.170	1294.197
84.768	19.538	1629.287	1293.616
85.782	19.565	1628.537	1293.105
86.797	19.547	1626.808	1291.487
87.812	19.592	1625.818	1290.923
88.826	19.578	1624.947	1290.010
89.841	19.485	1624.590	1288.923
90.855	19.498	1623.067	1287.698
91.870	19.601	1621.784	1287.331
92.884	19.583	1620.174	1285.808
93.899	19.521	1620.048	1285.131
94.914	19.590	1618.160	1284.033
95.928	19.608	1616.951	1283.089
96.943	19.504	1616.081	1281.517
97.957	19.516	1614.689	1280.389
98.972	19.578	1613.087	1279.464
99.987	19.498	1611.870	1277.792
101.001	19.573	1610.127	1276.851
102.016	19.538	1608.560	1275.239
103.030	19.470	1607.379	1273.687
104.045	19.467	1606.078	1272.524
105.060	19.593	1604.489	1272.078
106.074	19.527	1603.153	1270.422
107.089	19.553	1601.859	1269.478
108.103	19.567	1600.334	1268.255
109.118	19.531	1599.275	1267.039
110.133	19.641	1597.883	1266.629
111.147	19.583	1596.415	1264.934
112.162	19.600	1595.543	1264.252
113.176	19.584	1594.193	1262.952
114.191	19.714	1592.550	1262.490
115.206	19.691	1591.046	1261.021
116.220	19.582	1589.927	1259.228
117.235	19.558	1589.015	1258.219
118.249	19.651	1587.522	1257.599
119.264	19.653	1586.315	1256.546
120.279	19.521	1585.135	1254.541
121.293	19.574	1583.696	1253.678
122.308	19.716	1582.104	1253.337
123.322	19.699	1580.782	1252.056
124.337	19.780	1579.085	1251.185
125.352	19.672	1577.863	1249.330
126.366	19.728	1576.941	1248.891
127.381	19.731	1575.475	1247.639
128.395	19.718	1575.050	1247.104
129.410	19.682	1573.507	1245.509
130.424	19.752	1572.872	1245.398
131.439	19.704	1571.040	1243.493
132.454	19.659	1569.938	1242.187
133.468	19.672	1568.314	1240.889
134.483	19.687	1567.301	1240.085
135.497	19.683	1566.343	1239.190
136.512	19.672	1564.866	1237.833
137.527	19.749	1563.463	1237.163
138.541	19.766	1561.977	1235.995
139.556	19.681	1561.005	1234.511
140.570	19.645	1559.849	1233.231
141.585	19.694	1558.021	1232.027
142.600	19.679	1557.079	1231.064
143.614	19.635	1556.086	1229.856
144.629	19.678	1554.719	1228.974
145.643	19.681	1553.540	1227.953
146.658	19.674	1551.548	1226.222
147.673	19.613	1550.325	1224.714
148.687	19.632	1549.602	1224.172
149.702	19.671	1548.143	1223.186
150.716	19.709	1546.372	1221.945
151.731	19.606	1546.012	1220.824
152.746	19.643	1544.782	1220.009
153.760	19.652	1543.101	1218.639
154.775	19.657	1542.330	1217.959
155.789	19.739	1541.374	1217.672
156.804	19.695	1540.221	1216.340
157.819	19.672	1538.738	1214.902
158.833	19.697	1537.988	1214.376
159.848	19.666	1537.201	1213.430
160.862	19.763	1535.846	1212.934
161.877	19.760	1534.545	1211.777
162.892	19.843	1533.487	1211.419
163.906	19.801	1532.522	1210.254
164.921	19.783	1531.612	1209.304
165.935	19.797	1530.884	1208.717
166.950	19.784	1529.788	1207.655
167.964	19.884	1528.282	1207.058
168.979	19.783	1527.922	1205.964
169.994	19.735	1527.139	1204.899
171.008	19.801	1525.982	1204.342
172.023	19.883	1524.944	1203.985
173.037	19.836	1524.102	1202.892
174.052	19.914	1522.396	1201.979
175.067	19.880	1521.692	1201.082
176.081	19.867	1520.676	1200.080
177.096	19.861	1519.979	1199.384
178.110	19.842	1518.989	1198.368
179.125	19.805	1517.681	1196.968
180.140	19.779	1516.949	1196.110
181.154	19.955	1515.690	1196.228
182.169	19.847	1515.258	1195.035
183.183	19.844	1513.864	1193.804
184.198	19.828	1513.172	1193.045
185.213	19.867	1512.039	1192.318
186.227	19.833	1511.732	1191.730
187.242	19.911	1510.439	1191.142
188.256	19.860	1509.303	1189.794
189.271	19.921	1508.443	1189.426
190.286	19.940	1507.404	1188.637
191.300	19.919	1506.996	1188.063
192.315	19.970	1505.563	1187.176
193.329	19.878	1504.767	1185.812
194.344	19.985	1503.651	1185.561
195.359	19.968	1503.112	1184.916
196.373	19.954	1502.180	1183.980
197.388	19.975	1501.188	1183.241
198.402	19.945	1500.300	1182.232
199.417	19.801	1499.045	1180.154
200.432	19.852	1498.643	1180.084
201.446	19.947	1497.613	1179.811
202.461	19.848	1496.655	1178.281
203.475	19.878	1495.825	1177.726
204.490	19.909	1494.830	1177.051
205.504	19.933	1493.831	1176.324
206.519	19.973	1493.104	1175.919
207.534	19.921	1492.014	1174.602
208.548	20.033	1491.124	1174.558
209.563	19.922	1490.622	1173.302
210.577	19.994	1489.285	1172.636
211.592	20.000	1488.728	1172.132
212.607	19.981	1487.728	1171.111
213.621	20.040	1487.072	1170.893
214.636	20.080	1486.341	1170.486
215.650	20.044	1485.425	1169.419
216.665	20.015	1484.602	1168.468
217.680	20.053	1483.659	1167.883
218.694	19.964	1483.244	1166.852
219.709	20.039	1482.077	1166.336
220.723	20.113	1481.105	1165.960
221.738	20.010	1480.703	1164.848
222.753	20.016	1479.743	1164.032
223.767	19.871	1478.618	1162.074
224.782	19.921	1477.772	1161.636
225.796	20.050	1476.902	1161.720
226.811	20.095	1476.291	1161.438
227.826	20.020	1475.735	1160.394
228.840	20.082	1474.644	1159.850
229.855	20.021	1473.996	1158.826
230.869	20.114	1472.901	1158.486
231.884	20.041	1472.018	1157.201
232.899	20.099	1470.881	1156.594
233.913	20.085	1470.048	1155.744
234.928	20.097	1468.809	1154.744
235.942	20.167	1467.199	1153.844
236.957	20.069	1466.897	1152.848
237.972	20.094	1466.158	1152.336
238.986	20.111	1464.819	1151.290
240.001	20.058	1464.069	1150.251
241.015	20.137	1462.756	1149.637
242.030	20.274	1461.670	1149.593
243.045	20.291	1460.956	1149.040
244.059	20.299	1459.845	1148.119
245.074	20.277	1459.187	1147.358
246.088	20.272	1458.337	1146.552
247.103	20.174	1458.002	1145.537
248.117	20.219	1457.334	1145.209
249.132	20.276	1456.552	1144.869
250.147	20.257	1455.718	1143.989
251.161	20.294	1455.257	1143.771
252.176	20.358	1453.928	1143.047
253.190	20.302	1453.479	1142.222
254.205	20.363	1452.415	1141.688
255.220	20.347	1451.887	1141.062
256.234	20.378	1450.831	1140.335
257.249	20.445	1449.783	1139.856
258.263	20.416	1449.509	1139.347
259.278	20.398	1448.682	1138.479
260.293	20.359	1447.705	1137.353
261.307	20.468	1446.726	1137.197
262.322	20.365	1446.765	1136.451
263.336	20.368	1445.606	1135.462
264.351	20.393	1444.767	1134.864
265.366	20.404	1443.983	1134.219
266.380	20.417	1442.953	1133.395
267.395	20.347	1442.044	1132.126
268.409	20.436	1441.021	1131.801
269.424	20.433	1440.019	1130.894
270.439	20.470	1438.836	1130.106
271.453	20.429	1438.322	1129.336
272.468	20.484	1437.609	1129.034
273.482	20.383	1436.988	1127.790
274.497	20.484	1436.360	1127.855
275.512	20.313	1435.796	1126.203
276.526	20.481	1434.638	1126.284
277.541	20.549	1433.844	1126.001
278.555	20.476	1433.064	1124.815
279.570	20.445	1432.638	1124.178
280.585	20.555	1431.124	1123.603
281.599	20.553	1430.344	1122.882
282.614	20.440	1430.227	1121.960
283.628	20.576	1428.242	1121.180
284.643	20.512	1427.642	1120.197
285.657	20.583	1426.869	1119.950
286.672	20.480	1426.190	1118.650
287.687	20.630	1424.615	1118.285
288.701	20.575	1424.139	1117.457
289.716	20.570	1423.447	1116.781
290.730	20.537	1423.009	1116.127
291.745	20.639	1421.542	1115.531
292.760	20.580	1420.949	1114.593
293.774	20.680	1420.237	1114.576
294.789	20.720	1418.662	1113.497
295.803	20.600	1418.400	1112.423
296.818	20.692	1417.585	1112.278
297.833	20.750	1416.314	1111.549
298.847	20.704	1415.517	1110.533
299.862	20.666	1415.024	1109.804
300.876	20.684	1413.796	1108.861
301.891	20.728	1413.492	1108.801
302.906	20.712	1412.457	1107.792
303.920	20.737	1412.292	1107.723
304.935	20.727	1411.639	1107.047
305.949	20.705	1410.402	1105.839
306.964	20.753	1409.596	1105.418
307.979	20.823	1408.465	1104.874
308.993	20.766	1407.547	1103.694
310.008	20.785	1406.934	1103.238
311.022	20.738	1405.982	1102.093
312.037	20.676	1405.216	1101.008
313.052	20.902	1403.865	1101.278
314.066	20.783	1403.343	1100.021
315.081	20.795	1402.311	1099.186
316.095	20.864	1401.756	1099.090
317.110	20.856	1400.581	1098.025
318.125	20.947	1399.504	1097.657
319.139	20.807	1398.961	1096.252
320.154	20.888	1397.774	1095.731
321.168	20.912	1397.099	1095.260
322.183	20.865	1396.513	1094.405
323.197	20.897	1395.226	1093.499
324.212	20.864	1394.630	1092.727
325.227	20.859	1393.701	1091.871
326.241	20.881	1392.819	1091.224
327.256	20.988	1391.978	1091.137
328.270	20.937	1391.128	1090.054
329.285	21.006	1390.296	1089.741
330.300	21.063	1389.203	1089.143
331.314	20.930	1388.913	1087.986
332.329	21.007	1387.588	1087.336
333.343	21.075	1386.751	1087.008
334.358	21.026	1386.149	1086.134
335.373	21.063	1385.901	1086.071
336.387	21.039	1385.245	1085.315
337.402	21.069	1384.254	1084.625
338.416	21.029	1383.750	1083.887
339.431	21.088	1382.947	1083.528
340.446	21.040	1382.725	1082.960
341.460	21.063	1381.967	1082.417
342.475	21.085	1380.735	1081.489
343.489	21.155	1379.676	1080.996
344.504	21.144	1378.780	1080.130
345.519	21.061	1377.695	1078.673
346.533	21.069	1376.956	1078.051
347.548	21.117	1376.055	1077.542
348.562	21.173	1375.257	1077.172
349.577	21.184	1374.335	1076.419
350.592	21.246	1373.661	1076.180
351.606	21.280	1372.766	1075.592
352.621	21.214	1371.907	1074.421
353.635	21.285	1370.532	1073.685
354.650	21.255	1369.945	1072.943
355.665	21.195	1369.788	1072.360
356.679	21.175	1368.727	1071.307
357.694	21.204	1367.400	1070.355
358.708	21.353	1366.053	1070.118
359.723	21.275	1364.822	1068.579
360.738	21.286	1363.824	1067.774
361.752	21.242	1362.806	1066.609
362.767	21.280	1361.735	1065.911
363.781	21.346	1360.953	1065.606
364.796	21.365	1360.557	1065.320
365.810	21.300	1359.910	1064.323
366.825	21.284	1359.086	1063.482
367.840	21.355	1358.211	1063.139
368.854	21.412	1357.558	1062.876
369.869	21.435	1357.093	1062.564
370.883	21.327	1356.772	1061.557
371.898	21.340	1356.405	1061.254
372.913	21.496	1355.139	1061.122
373.927	21.427	1354.298	1059.949
374.942	21.533	1353.325	1059.733
375.956	21.457	1352.699	1058.693
376.971	21.377	1351.814	1057.419
377.986	21.382	1351.379	1057.018
379.000	21.481	1350.336	1056.703
380.015	21.565	1349.363	1056.358
381.029	21.507	1349.150	1055.747
382.044	21.456	1348.292	1054.673
383.059	21.469	1347.697	1054.194
384.073	21.561	1346.826	1053.975
385.088	21.691	1346.301	1054.255
386.102	21.563	1345.869	1053.054
387.117	21.597	1345.305	1052.720
388.132	21.573	1344.644	1051.965
389.146	21.550	1343.681	1050.985
390.161	21.660	1343.013	1051.027
391.175	21.592	1342.308	1049.972
392.190	21.684	1341.398	1049.718
393.205	21.588	1340.814	1048.597
394.219	21.567	1339.650	1047.466
395.234	21.596	1338.515	1046.662
396.248	21.694	1337.040	1045.999
397.263	21.726	1336.438	1045.625
398.278	21.767	1335.048	1044.689
399.292	21.667	1334.227	1043.358
400.307	21.720	1333.286	1042.846
401.321	21.855	1332.518	1042.958
402.336	21.639	1331.766	1040.992
403.350	21.761	1330.482	1040.620
404.365	21.666	1329.583	1039.264
405.380	21.792	1328.615	1039.161
406.394	21.793	1327.746	1038.392
407.409	21.765	1327.093	1037.626
408.423	21.774	1326.918	1037.449
409.438	21.827	1326.267	1037.161
410.453	21.824	1324.993	1036.060
411.467	21.794	1324.356	1035.293
412.482	21.949	1323.432	1035.392
413.496	21.929	1323.057	1034.887
414.511	21.900	1322.151	1033.920
415.526	21.920	1321.242	1033.233
416.540	21.909	1320.603	1032.577
417.555	21.930	1319.720	1031.919
418.569	21.970	1319.210	1031.667
419.584	22.019	1318.778	1031.525
420.599	21.973	1318.641	1031.055
421.613	137.644	1428.412	1793.021
422.628	133.960	1444.335	1793.137
