DTS Sentinel unit serial number:	SN413079Multiplexer serial number:	ORYXHardware model number:	OX4-SRSoftware version number:	ORYX F/W v4.00 Oryx Data Collector v3.7.2.0data status	okinstallation	princeton_trtdifferential loss correction	single-endedforward channel	channel 4reverse channel	N/Adate	2019/09/17time	05:01:34forward acquisition time	60.00reverse acquisition time	0.00gamma	496.2192k internal	0.2313k external	0.2313temperature offset calibration	0.9977default loss term (dB/km)	0.3790temperature slope calibration	1.0000multiplexer offset coefficient	1.0000multiplexer slope coefficient	1.0000fibre end	0.00T internal ref (°C)	29.50T ext. ref 1 (°C)	0.14T ext. ref 2 (°C)	23.92length (m)	temperature (°C)	Stokes	anti-Stokes-747.200	800.000	0.111	0.383
-746.185	90.237	-0.385	0.437
-745.171	-200.000	0.059	0.403
-744.156	-62.702	-0.243	-0.102
-743.142	151.039	-0.117	0.162
-742.127	-95.620	0.102	-0.028
-741.112	-107.298	-0.421	0.094
-740.098	374.702	0.164	0.338
-739.083	-125.479	-0.172	0.027
-738.069	427.676	-0.204	0.448
-737.054	59.862	-0.218	-0.218
-736.039	-97.713	-0.262	0.069
-735.025	-2.106	0.134	-0.095
-734.010	149.639	-0.017	0.023
-732.996	139.878	-0.119	0.159
-731.981	-120.620	-0.157	0.027
-730.966	-200.000	-0.047	0.236
-729.952	-45.268	-0.249	0.125
-728.937	14.311	0.026	0.020
-727.923	770.403	0.015	-0.042
-726.908	800.000	0.039	-0.130
-725.894	-200.000	0.001	-0.114
-724.879	-60.759	-0.167	-0.072
-723.864	-28.533	-0.062	-0.036
-722.850	-200.000	-0.007	-0.322
-721.835	147.549	-0.209	-0.286
-720.821	-200.000	-0.050	-0.478
-719.806	-61.302	0.027	0.012
-718.791	-135.823	-0.203	-0.024
-717.777	281.050	0.077	-0.140
-716.762	-69.006	-0.190	-0.074
-715.748	800.000	-0.041	0.120
-714.733	77.755	-0.051	0.055
-713.718	414.559	0.101	-0.217
-712.704	92.175	-0.064	0.073
-711.689	800.000	0.025	-0.090
-710.675	73.151	-0.070	-0.074
-709.660	-200.000	-0.000	0.197
-708.645	69.392	-0.101	-0.105
-707.631	609.436	0.203	-0.515
-706.616	55.265	0.162	-0.159
-705.602	464.505	0.060	0.136
-704.587	-119.556	0.213	0.037
-703.572	135.203	-0.154	-0.203
-702.558	345.168	0.088	-0.175
-701.543	-72.336	-0.320	0.120
-700.529	85.522	0.184	0.205
-699.514	-153.649	-0.120	0.008
-698.499	-200.000	0.032	0.162
-697.485	-149.859	-0.029	0.002
-696.470	156.535	0.026	0.037
-695.456	28.183	-0.196	-0.167
-694.441	136.952	0.148	-0.196
-693.426	49.076	0.116	0.110
-692.412	163.770	0.073	-0.104
-691.397	47.643	-0.149	0.141
-690.383	-144.375	-0.229	0.022
-689.368	800.000	-0.092	0.300
-688.354	-187.527	0.262	-0.004
-687.339	-58.397	0.312	0.137
-686.324	-155.566	-0.211	-0.014
-685.310	58.544	0.230	-0.229
-684.295	-200.000	0.016	-0.267
-683.281	351.973	-0.061	-0.122
-682.266	-138.068	0.321	-0.036
-681.251	-200.000	0.027	0.351
-680.237	138.831	-0.281	0.373
-679.222	-200.000	-0.019	-0.177
-678.208	83.237	0.054	0.059
-677.193	-200.000	0.018	0.189
-676.178	27.127	-0.272	-0.231
-675.164	487.334	0.189	-0.436
-674.149	-11.556	-0.525	-0.349
-673.135	88.119	0.107	0.121
-672.120	63.711	-0.040	0.041
-671.105	-102.651	0.379	-0.091
-670.091	123.906	0.049	-0.062
-669.076	117.353	0.148	0.184
-668.062	800.000	-0.037	0.141
-667.047	206.201	-0.077	-0.120
-666.032	-14.627	-0.241	0.157
-665.018	-42.537	-0.163	0.084
-664.003	215.845	0.061	-0.098
-662.989	-200.000	-0.022	0.117
-661.974	-22.454	0.284	0.174
-660.959	-200.000	-0.062	-0.432
-659.945	-133.288	0.447	0.057
-658.930	37.892	-0.102	0.092
-657.916	800.000	-0.083	-0.275
-656.901	137.746	0.075	-0.099
-655.886	-200.000	0.012	-0.075
-654.872	800.000	0.027	-0.078
-653.857	-116.183	-0.078	-0.015
-652.843	-13.926	-0.123	-0.080
-651.828	-200.000	-0.026	0.298
-650.814	-21.695	-0.266	-0.163
-649.799	-14.878	-0.485	0.315
-648.784	110.323	-0.089	0.108
-647.770	288.675	-0.148	0.272
-646.755	-200.000	0.027	-0.170
-645.741	-97.144	-0.317	-0.084
-644.726	-200.000	0.011	-0.082
-643.711	800.000	-0.068	-0.217
-642.697	149.303	-0.075	-0.103
-641.682	119.725	0.159	-0.199
-640.668	-131.090	-0.679	-0.091
-639.653	-200.000	0.013	0.233
-638.638	-46.798	-0.019	0.010
-637.624	158.379	0.194	0.272
-636.609	-57.704	0.177	-0.078
-635.595	175.234	-0.127	-0.186
-634.580	-85.902	0.306	-0.096
-633.565	483.952	0.081	-0.186
-632.551	367.114	0.099	0.202
-631.536	-159.394	-0.168	-0.009
-630.522	800.000	0.126	-0.523
-629.507	-11.591	-0.135	-0.090
-628.492	-81.333	-0.068	-0.023
-627.478	800.000	0.102	0.298
-626.463	-128.498	-0.162	-0.023
-625.449	-143.165	-0.116	0.011
-624.434	-200.000	-0.006	0.213
-623.419	-88.466	0.297	-0.089
-622.405	-28.644	-0.203	0.118
-621.390	-14.396	-0.134	0.087
-620.376	-45.675	0.320	0.160
-619.361	800.000	-0.013	-0.054
-618.346	-25.004	0.052	0.031
-617.332	-81.194	0.163	-0.054
-616.317	-168.116	0.486	-0.019
-615.303	800.000	-0.103	-0.291
-614.288	-32.210	0.234	-0.132
-613.273	198.513	0.120	0.185
-612.259	-16.196	-0.251	-0.161
-611.244	-141.070	-0.153	-0.016
-610.230	-21.807	-0.150	0.092
-609.215	-149.268	-0.164	0.013
-608.201	-82.497	0.207	0.068
-607.186	-200.000	0.071	-0.435
-606.171	-28.061	-0.239	-0.139
-605.157	63.450	0.048	0.048
-604.142	-200.000	-0.054	-0.324
-603.128	-161.351	0.167	-0.009
-602.113	-41.182	0.020	-0.010
-601.098	-200.000	-0.022	-0.156
-600.084	272.876	0.102	-0.182
-599.069	-200.000	0.052	0.438
-598.055	5.766	-0.197	0.147
-597.040	-33.350	-0.146	0.082
-596.025	-200.000	-0.029	-0.160
-595.011	94.112	-0.153	0.176
-593.996	800.000	0.038	-0.157
-592.982	479.201	-0.066	-0.151
-591.967	-200.000	0.028	0.220
-590.952	35.473	0.179	0.159
-589.938	-98.432	0.086	0.022
-588.923	-200.000	-0.015	0.142
-587.909	-157.946	-0.275	0.016
-586.894	220.131	-0.191	-0.308
-585.879	-200.000	0.040	-0.206
-584.865	-66.928	0.130	0.052
-583.850	599.664	0.141	0.352
-582.836	232.697	-0.119	-0.198
-581.821	303.216	0.115	-0.214
-580.806	-18.398	-0.325	-0.205
-579.792	-200.000	-0.039	-0.295
-578.777	137.097	-0.071	-0.093
-577.763	800.000	-0.108	-0.410
-576.748	800.000	-0.052	-0.204
-575.733	-152.070	0.219	0.016
-574.719	-200.000	-0.002	0.023
-573.704	64.284	0.191	-0.194
-572.690	-29.887	-0.198	-0.114
-571.675	71.022	0.261	0.272
-570.661	120.587	0.027	-0.034
-569.646	800.000	-0.033	-0.142
-568.631	-110.272	-0.229	-0.048
-567.617	-131.797	-0.281	0.037
-566.602	42.049	0.146	0.133
-565.588	32.039	-0.107	-0.093
-564.573	-191.511	-0.174	-0.002
-563.558	-175.125	0.214	0.006
-562.544	163.047	0.231	0.327
-561.529	-44.725	0.204	-0.103
-560.515	21.996	-0.088	0.072
-559.500	296.100	0.102	-0.188
-558.485	800.000	-0.073	-0.219
-557.471	-200.000	-0.043	0.278
-556.456	317.269	0.175	-0.334
-555.442	157.022	-0.083	0.116
-554.427	-104.954	-0.322	-0.074
-553.412	-120.530	0.283	-0.048
-552.398	195.554	0.150	0.230
-551.383	87.166	0.153	0.170
-550.369	400.349	0.153	-0.324
-549.354	24.755	-0.113	0.094
-548.339	-200.000	-0.010	0.128
-547.325	-115.199	0.245	0.047
-546.310	331.997	0.161	0.312
-545.296	-16.980	-0.420	0.267
-544.281	-200.000	-0.045	-0.211
-543.266	-200.000	-0.012	0.193
-542.252	372.843	0.181	0.370
-541.237	641.140	-0.114	0.291
-540.223	307.752	0.214	-0.401
-539.208	76.791	0.227	-0.242
-538.193	-200.000	-0.020	-0.123
-537.179	800.000	-0.034	-0.111
-536.164	800.000	0.041	0.178
-535.150	-200.000	-0.003	-0.212
-534.135	40.806	-0.111	-0.100
-533.121	-80.211	-0.157	0.053
-532.106	225.219	0.062	0.101
-531.091	-200.000	0.058	0.352
-530.077	-200.000	0.050	0.252
-529.062	-145.094	0.281	-0.026
-528.048	-94.959	0.277	-0.075
-527.033	146.227	0.016	0.022
-526.018	800.000	0.055	0.177
-525.004	43.635	-0.180	0.165
-523.989	-18.995	-0.158	-0.099
-522.975	800.000	0.052	-0.212
-521.960	800.000	-0.034	-0.138
-520.945	154.752	0.124	0.171
-519.931	415.638	-0.045	0.096
-518.916	-19.579	0.096	-0.060
-517.902	51.679	-0.168	0.161
-516.887	289.612	-0.094	0.171
-515.872	203.441	-0.082	-0.128
-514.858	-170.535	-0.137	0.005
-513.843	43.135	0.356	-0.327
-512.829	-131.912	-0.141	-0.018
-511.814	-200.000	-0.032	0.251
-510.799	-200.000	0.022	0.102
-509.785	89.598	-0.143	0.161
-508.770	730.086	-0.062	0.167
-507.756	-200.000	0.004	0.246
-506.741	58.374	-0.197	0.194
-505.726	362.735	-0.120	0.242
-504.712	-80.393	-0.254	-0.085
-503.697	-87.709	-0.246	-0.075
-502.683	148.904	-0.231	0.314
-501.668	-78.235	-0.189	0.065
-500.653	510.886	-0.091	-0.212
-499.639	33.295	0.159	-0.139
-498.624	-42.593	0.077	0.039
-497.610	-165.540	0.183	0.008
-496.595	800.000	-0.072	-0.277
-495.581	293.203	-0.104	0.191
-494.566	209.982	-0.119	-0.188
-493.551	-200.000	0.004	-0.044
-492.537	1.684	-0.299	-0.216
-491.522	-200.000	0.015	-0.132
-490.508	52.791	0.173	0.166
-489.493	-200.000	-0.041	0.194
-488.478	-107.321	-0.196	-0.043
-487.464	-116.448	0.267	-0.049
-486.449	-23.406	-0.080	-0.048
-485.435	-88.250	-0.050	0.015
-484.420	800.000	0.032	-0.117
-483.405	25.829	0.313	-0.262
-482.391	800.000	0.025	-0.079
-481.376	-200.000	-0.002	-0.174
-480.362	-138.685	-0.191	-0.021
-479.347	180.973	-0.235	0.347
-478.332	-200.000	0.004	-0.081
-477.318	-71.030	0.134	-0.051
-476.303	800.000	-0.058	0.212
-475.289	-200.000	0.035	-0.287
-474.274	-87.643	0.163	0.049
-473.259	231.189	0.111	-0.183
-472.245	256.352	0.085	-0.147
-471.230	70.422	0.303	-0.315
-470.216	16.611	0.187	-0.149
-469.201	-200.000	-0.029	-0.206
-468.186	56.818	-0.288	0.281
-467.172	-102.732	-0.266	-0.064
-466.157	-136.313	0.127	-0.015
-465.143	123.954	-0.133	0.168
-464.128	29.037	-0.197	-0.167
-463.113	-42.720	-0.362	0.185
-462.099	99.105	0.094	-0.109
-461.084	-200.000	0.002	-0.354
-460.070	16.524	0.080	-0.064
-459.055	2.176	0.139	0.101
-458.040	218.168	0.072	0.115
-457.026	800.000	-0.114	-0.467
-456.011	800.000	-0.133	-0.537
-454.997	-187.562	-0.213	0.003
-453.982	-19.681	0.206	0.128
-452.968	-200.000	-0.028	0.298
-451.953	-200.000	-0.049	-0.361
-450.938	800.000	0.112	0.336
-449.924	-200.000	-0.022	0.184
-448.909	414.184	-0.146	-0.311
-447.895	1.691	0.047	-0.034
-446.880	103.852	-0.094	-0.111
-445.865	-97.001	0.248	-0.065
-444.851	243.496	0.139	0.234
-443.836	-200.000	0.005	-0.407
-442.822	108.487	0.258	-0.309
-441.807	8.363	0.284	0.214
-440.792	49.865	-0.132	0.125
-439.778	214.402	-0.102	0.161
-438.763	-200.000	0.026	0.136
-437.749	647.388	-0.104	-0.266
-436.734	800.000	-0.056	-0.245
-435.719	450.006	0.083	0.183
-434.705	311.796	0.115	0.217
-433.690	45.115	0.109	0.101
-432.676	53.741	-0.165	-0.159
-431.661	800.000	-0.041	-0.157
-430.646	279.375	-0.167	0.299
-429.632	-30.628	0.158	-0.089
-428.617	-200.000	0.019	0.295
-427.603	-76.991	0.133	0.047
-426.588	51.547	0.146	0.139
-425.573	148.352	-0.204	-0.276
-424.559	800.000	-0.068	0.252
-423.544	-200.000	0.012	-0.162
-422.530	-200.000	0.032	-0.198
-421.515	454.316	0.083	0.185
-420.500	-189.330	0.212	-0.003
-419.486	-34.365	0.371	0.204
-418.471	-122.787	0.130	0.021
-417.457	800.000	0.014	-0.058
-416.442	783.350	0.045	-0.123
-415.428	-20.581	0.171	0.105
-414.413	-122.139	0.179	0.029
-413.398	-91.480	-0.107	0.031
-412.384	112.415	0.146	-0.176
-411.369	542.413	-0.112	-0.267
-410.355	53.979	0.151	0.145
-409.340	-7.185	0.213	-0.145
-408.325	-200.000	0.082	-0.400
-407.311	24.650	-0.067	0.055
-406.296	-200.000	0.048	-0.343
-405.282	-200.000	-0.104	0.533
-404.267	-6.651	-0.150	0.102
-403.252	-68.440	-0.204	0.079
-402.238	-56.564	0.159	0.071
-401.223	-200.000	0.319	-0.001
-400.209	-154.230	0.149	-0.010
-399.194	20.320	-0.255	0.206
-398.179	500.955	-0.171	-0.395
-397.165	800.000	-0.108	0.305
-396.150	10.259	0.150	-0.115
-395.136	188.604	-0.166	-0.248
-394.121	-200.000	-0.005	0.382
-393.106	78.703	-0.204	-0.218
-392.092	800.000	0.026	-0.071
-391.077	-200.000	0.013	0.178
-390.063	-62.436	0.107	-0.045
-389.048	778.236	-0.075	-0.206
-388.033	6.521	0.165	-0.123
-387.019	293.206	-0.101	-0.184
-386.004	627.883	0.009	0.023
-384.990	48.049	-0.262	-0.245
-383.975	99.838	-0.264	-0.306
-382.960	-146.299	-0.386	0.034
-381.946	-200.000	-0.050	-0.261
-380.931	301.543	0.124	0.229
-379.917	-141.588	0.215	0.022
-378.902	170.760	0.158	0.227
-377.888	370.413	-0.042	0.085
-376.873	217.253	-0.072	-0.115
-375.858	800.000	-0.047	-0.205
-374.844	-200.000	-0.010	-0.332
-373.829	25.647	0.207	-0.173
-372.815	-101.824	-0.151	-0.037
-371.800	454.124	-0.142	0.313
-370.785	276.931	0.154	0.274
-369.771	-105.205	-0.305	0.070
-368.756	-113.855	0.183	0.035
-367.742	800.000	-0.063	-0.180
-366.727	-68.861	0.276	0.106
-365.712	132.619	-0.083	0.107
-364.698	-101.414	-0.200	-0.049
-363.683	-200.000	-0.012	-0.125
-362.669	135.557	0.181	-0.235
-361.654	312.998	0.066	-0.124
-360.639	-54.188	-0.231	-0.105
-359.625	-36.046	0.283	0.153
-358.610	-200.000	-0.006	-0.130
-357.596	-200.000	-0.034	-0.201
-356.581	682.994	-0.082	-0.214
-355.566	314.365	0.027	0.050
-354.552	-14.330	0.292	-0.188
-353.537	245.760	0.219	-0.368
-352.523	-61.346	-0.319	0.134
-351.508	-200.000	0.029	-0.139
-350.493	140.832	0.075	-0.099
-349.479	351.103	0.003	-0.007
-348.464	800.000	0.084	0.336
-347.450	-200.000	0.002	-0.027
-346.435	-200.000	0.029	0.160
-345.420	-200.000	0.011	0.094
-344.406	-20.079	-0.086	0.053
-343.391	188.888	-0.120	0.179
-342.377	-200.000	-0.054	0.281
-341.362	-36.779	0.207	0.111
-340.348	-200.000	0.049	-0.271
-339.333	-68.030	-0.190	-0.074
-338.318	33.904	-0.351	0.305
-337.304	800.000	0.100	0.321
-336.289	-137.013	0.499	-0.057
-335.275	368.255	0.135	-0.273
-334.260	-21.467	-0.200	-0.122
-333.245	-200.000	0.011	0.302
-332.231	800.000	0.067	-0.222
-331.216	-64.638	0.335	-0.135
-330.202	29.532	0.060	0.051
-329.187	-75.247	-0.134	0.048
-328.172	520.095	-0.058	0.135
-327.158	-200.000	-0.012	-0.064
-326.143	-200.000	-0.007	-0.479
-325.129	-19.930	-0.325	-0.200
-324.114	55.982	0.118	0.114
-323.099	-198.911	0.051	-0.000
-322.085	132.348	-0.094	0.121
-321.070	-200.000	0.013	0.225
-320.056	181.506	0.108	-0.159
-319.041	800.000	-0.088	0.319
-318.026	10.358	0.319	-0.242
-317.012	32.130	-0.179	-0.154
-315.997	-14.981	0.293	0.188
-314.983	44.021	-0.076	0.069
-313.968	140.359	0.105	-0.139
-312.953	20.446	-0.094	-0.076
-311.939	210.882	0.158	0.248
-310.924	395.691	0.032	-0.066
-309.910	537.208	0.150	0.356
-308.895	-113.957	0.270	-0.052
-307.880	70.195	-0.060	0.062
-306.866	-41.758	-0.047	0.024
-305.851	-175.397	0.258	0.007
-304.837	-56.661	0.161	0.071
-303.822	-79.684	0.180	-0.061
-302.807	159.135	-0.076	-0.105
-301.793	-200.000	0.004	0.096
-300.778	800.000	0.078	0.249
-299.764	800.000	-0.007	0.030
-298.749	-191.824	-0.199	0.002
-297.735	-200.000	0.026	0.153
-296.720	-200.000	-0.010	-0.188
-295.705	181.463	-0.101	0.148
-294.691	19.773	-0.147	-0.118
-293.676	291.312	0.105	-0.191
-292.662	-200.000	0.001	0.054
-291.647	18.339	-0.275	0.219
-290.632	300.279	-0.128	0.235
-289.618	-200.000	-0.020	-0.416
-288.603	220.701	-0.102	0.163
-287.589	-118.873	0.096	0.017
-286.574	800.000	0.072	-0.252
-285.559	800.000	0.029	-0.110
-284.545	28.175	0.263	-0.222
-283.530	800.000	-0.062	-0.218
-282.516	-36.469	0.361	-0.194
-281.501	-117.209	0.141	0.026
-280.486	0.924	-0.141	0.101
-279.472	291.977	-0.177	-0.321
-278.457	800.000	-0.138	-0.479
-277.443	98.489	0.340	-0.390
-276.428	267.382	-0.092	0.160
-275.413	-5.293	-0.213	0.146
-274.399	-200.000	-0.046	0.213
-273.384	54.004	-0.164	0.157
-272.370	800.000	-0.086	0.294
-271.355	800.000	-0.083	0.266
-270.340	140.448	0.200	-0.263
-269.326	153.359	-0.237	-0.323
-268.311	-61.163	-0.119	-0.050
-267.297	117.882	-0.361	0.443
-266.282	-7.805	0.185	-0.124
-265.267	-200.000	-0.024	0.121
-264.253	-5.655	-0.128	0.087
-263.238	-200.000	0.013	-0.233
-262.224	-170.049	-0.210	0.007
-261.209	-46.224	-0.167	-0.082
-260.195	-155.968	-0.209	0.013
-259.180	152.867	-0.068	-0.092
-258.165	52.799	-0.054	0.051
-257.151	-2.392	0.103	-0.072
-256.136	-200.000	-0.028	-0.351
-255.122	800.000	-0.080	-0.242
-254.107	-99.279	0.218	-0.055
-253.092	-48.215	0.146	0.070
-252.078	344.502	0.232	0.453
-251.063	800.000	0.095	0.264
-250.049	-54.815	-0.087	0.039
-249.034	-200.000	-0.001	0.114
-248.019	-123.998	0.074	0.012
-247.005	247.270	-0.125	0.210
-245.990	103.451	0.058	0.068
-244.976	-200.000	0.031	0.300
-243.961	18.717	0.120	-0.095
-242.946	-200.000	-0.010	-0.092
-241.932	72.447	0.136	0.141
-240.917	-200.000	0.022	0.194
-239.903	-35.060	0.048	-0.026
-238.888	-77.843	0.261	0.090
-237.873	800.000	0.055	0.179
-236.859	-40.070	-0.117	-0.060
-235.844	342.885	0.080	-0.156
-234.830	87.632	-0.129	0.142
-233.815	-200.000	-0.020	0.203
-232.800	131.090	-0.132	0.169
-231.786	800.000	-0.059	0.224
-230.771	800.000	0.026	0.092
-229.757	-107.668	-0.221	0.048
-228.742	-83.101	0.202	0.065
-227.727	71.243	-0.144	0.149
-226.713	56.323	0.141	0.136
-225.698	-87.274	0.277	0.083
-224.684	-53.884	-0.224	0.101
-223.669	-76.080	-0.135	-0.048
-222.655	665.885	-0.016	-0.042
-221.640	-49.466	-0.267	0.126
-220.625	-6.242	0.068	-0.046
-219.611	-86.372	-0.141	-0.043
-218.596	88.175	0.158	-0.175
-217.582	104.871	0.082	-0.096
-216.567	-63.391	-0.362	0.148
-215.552	800.000	0.014	0.056
-214.538	179.644	0.149	-0.217
-213.523	-200.000	-0.011	-0.170
-212.509	578.174	-0.121	0.294
-211.494	800.000	0.060	0.199
-210.479	145.740	0.096	0.128
-209.465	667.533	-0.120	0.309
-208.450	-200.000	-0.028	0.218
-207.436	-30.653	0.181	0.102
-206.421	-200.000	-0.005	-0.173
-205.406	681.492	-0.031	0.081
-204.392	125.423	0.071	0.089
-203.377	241.113	-0.043	-0.071
-202.363	129.378	0.090	0.115
-201.348	800.000	-0.103	0.331
-200.333	67.525	-0.065	0.066
-199.319	-28.842	-0.149	0.085
-198.304	-200.000	-0.011	0.136
-197.290	-9.519	0.299	-0.198
-196.275	682.310	-0.108	0.279
-195.260	-99.282	-0.099	0.025
-194.246	-84.666	0.162	0.051
-193.231	-73.863	-0.272	0.098
-192.217	-200.000	-0.027	-0.252
-191.202	269.975	0.095	-0.166
-190.187	-200.000	-0.162	0.000
-189.173	92.929	0.112	-0.126
-188.158	386.179	-0.082	-0.167
-187.144	-84.082	-0.551	-0.174
-186.129	-17.391	0.218	-0.136
-185.114	10.460	0.298	0.225
-184.100	169.298	0.039	-0.055
-183.085	800.000	-0.011	0.035
-182.071	-76.794	-0.397	0.138
-181.056	-60.980	-0.274	0.115
-180.042	-87.781	-0.271	-0.081
-179.027	-176.565	0.233	0.006
-178.012	-200.000	0.015	-0.089
-176.998	-200.000	0.003	-0.085
-175.983	342.977	-0.174	0.338
-174.969	-200.000	-0.021	0.250
-173.954	-46.633	0.201	-0.098
-172.939	-94.519	-0.091	-0.025
-171.925	564.364	0.065	0.156
-170.910	-35.649	0.380	-0.204
-169.896	44.872	-0.037	-0.034
-168.881	-47.313	0.333	0.161
-167.866	734.383	0.133	0.353
-166.852	-200.000	-0.053	0.342
-165.837	-200.000	-0.020	-0.250
-164.823	181.125	0.023	0.034
-163.808	65.923	-0.056	0.056
-162.793	800.000	0.178	0.517
-161.779	197.806	-0.069	0.105
-160.764	88.904	0.169	-0.186
-159.750	36.590	-0.177	0.155
-158.735	-24.743	-0.100	-0.059
-157.720	8.675	0.287	0.214
-156.706	-55.363	0.189	0.084
-155.691	-1.861	0.080	0.056
-154.677	-200.000	-0.009	-0.071
-153.662	-151.659	0.167	-0.012
-152.647	63.163	-0.064	-0.063
-151.633	-200.000	0.029	-0.229
-150.618	-200.000	-0.011	-0.063
-149.604	-8.413	0.112	-0.075
-148.589	17.217	0.071	0.056
-147.574	-200.000	-0.008	-0.102
-146.560	800.000	-0.052	-0.202
-145.545	162.532	-0.063	-0.088
-144.531	800.000	0.088	-0.258
-143.516	-57.586	0.205	0.089
-142.502	-154.908	-0.013	-0.001
-141.487	158.546	0.148	-0.204
-140.472	283.705	-0.085	0.152
-139.458	246.928	0.115	-0.192
-138.443	141.318	-0.152	-0.199
-137.429	-48.003	-0.241	-0.115
-136.414	398.386	-0.017	0.036
-135.399	-200.000	0.039	0.178
-134.385	-103.109	0.147	0.035
-133.370	-115.250	0.299	0.056
-132.356	42.000	0.293	-0.264
-131.341	-103.128	-0.145	-0.034
-130.326	-200.000	-0.004	0.092
-129.312	-88.151	0.225	0.067
-128.297	-42.001	0.204	-0.104
-127.283	-39.118	-0.129	-0.067
-126.268	-153.439	0.535	0.037
-125.253	-105.665	0.058	-0.013
-124.239	99.805	0.029	-0.033
-123.224	-37.155	-0.136	-0.072
-122.210	800.000	0.021	0.062
-121.195	-151.358	0.431	0.032
-120.180	-200.000	-0.011	-0.127
-119.166	-47.171	-0.322	0.155
-118.151	-59.613	0.122	0.052
-117.137	348.187	0.070	-0.136
-116.122	54.381	-0.154	0.147
-115.107	-200.000	0.007	-0.059
-114.093	800.000	-0.075	-0.250
-113.078	800.000	0.020	0.080
-112.064	-20.309	0.286	0.174
-111.049	622.337	0.119	0.297
-110.034	-146.177	0.101	0.009
-109.020	800.000	0.076	0.308
-108.005	-119.709	-0.207	0.035
-106.991	-90.815	0.222	0.063
-105.976	178.836	-0.089	-0.129
-104.962	48.159	-0.176	0.163
-103.947	-64.345	-0.144	-0.058
-102.932	73.482	-0.108	0.112
-101.918	-200.000	0.006	0.116
-100.903	-200.000	-0.023	0.297
-99.889	5.126	0.172	-0.125
-98.874	-200.000	-0.045	-0.304
-97.859	-95.068	0.150	0.040
-96.845	-191.942	-0.379	-0.004
-95.830	-155.486	0.220	-0.014
-94.816	-15.779	-0.030	-0.019
-93.801	-166.536	-0.269	-0.011
-92.786	-4.595	0.144	-0.099
-91.772	-80.288	-0.229	0.076
-90.757	-80.511	0.120	-0.040
-89.743	-109.057	0.334	-0.070
-88.728	-200.000	-0.057	0.325
-87.713	-200.000	-0.020	0.105
-86.699	450.787	-0.079	-0.174
-85.684	-126.182	-0.341	0.050
-84.670	-1.132	-0.068	-0.047
-83.655	499.901	-0.205	-0.468
-82.640	68.658	0.072	-0.073
-81.626	-150.223	0.250	-0.019
-80.611	99.896	-0.120	0.137
-79.597	49.158	-0.148	-0.137
-78.582	800.000	0.075	-0.210
-77.567	48.559	0.046	0.043
-76.553	53.483	0.140	0.133
-75.538	-126.286	0.217	0.032
-74.524	112.585	0.158	-0.189
-73.509	517.448	-0.156	-0.360
-72.494	14.975	0.178	-0.138
-71.480	426.519	-0.091	0.193
-70.465	-200.000	0.177	0.001
-69.451	-132.920	0.303	-0.038
-68.436	-25.813	-0.245	0.143
-67.422	195.805	0.137	0.205
-66.407	-200.000	0.008	0.210
-65.392	800.000	0.075	-0.255
-64.378	572.499	-0.074	-0.179
-63.363	19.695	0.211	0.167
-62.349	800.000	-0.048	0.188
-61.334	62.171	-0.969	-0.955
-60.319	48.949	0.583	0.541
-59.305	-200.000	-0.155	-1.372
-58.290	207.489	0.663	1.021
-57.276	800.000	0.542	1.587
-56.261	-200.000	109.618	598.134
-55.246	437.445	1490.247	3207.329
-54.232	142.787	2681.850	3519.303
-53.217	95.958	2328.016	2625.769
-52.203	35.701	2078.379	1803.300
-51.188	31.255	1994.637	1690.440
-50.173	29.728	1978.409	1662.896
-49.159	45.834	2034.933	1857.832
-48.144	46.037	2052.001	1875.202
-47.130	31.829	2010.155	1708.548
-46.115	29.566	1999.137	1678.574
-45.100	29.422	1996.522	1675.005
-44.086	29.331	1994.203	1672.171
-43.071	29.393	1991.149	1670.107
-42.057	29.274	1989.783	1667.811
-41.042	29.397	1987.233	1666.721
-40.027	29.345	1985.620	1664.839
-39.013	29.470	1983.112	1663.795
-37.998	29.392	1981.647	1661.794
-36.984	29.372	1979.933	1660.112
-35.969	29.478	1977.402	1658.877
-34.954	29.448	1976.105	1657.452
-33.940	29.437	1974.565	1655.994
-32.925	29.429	1972.722	1654.312
-31.911	29.497	1971.356	1653.714
-30.896	29.547	1969.295	1652.366
-29.881	29.566	1967.995	1651.374
-28.867	29.659	1966.245	1650.673
-27.852	29.523	1964.545	1647.966
-26.838	29.550	1962.986	1646.833
-25.823	29.506	1961.402	1645.050
-24.809	29.536	1959.774	1643.884
-23.794	29.585	1957.339	1642.216
-22.779	29.582	1956.012	1641.005
-21.765	29.545	1954.150	1639.056
-20.750	29.544	1952.696	1637.764
-19.736	29.522	1951.264	1636.298
-18.721	29.539	1949.218	1634.664
-17.706	29.468	1947.888	1632.860
-16.692	29.499	1945.798	1631.319
-15.677	29.469	1944.605	1629.990
-14.663	29.544	1942.902	1629.157
-13.648	29.517	1941.741	1627.877
-12.633	29.487	1940.663	1626.652
-11.619	29.522	1939.007	1625.503
-10.604	29.481	1937.387	1623.718
-9.590	29.476	1936.494	1622.867
-8.575	29.494	1934.909	1621.625
-7.560	29.486	1933.698	1620.476
-6.546	29.531	1932.425	1619.741
-5.531	29.547	1931.116	1618.719
-4.517	29.433	1930.117	1616.826
-3.502	29.441	1929.378	1616.204
-2.487	29.521	1927.362	1615.159
-1.473	29.576	1926.511	1614.855
-0.458	29.574	1921.611	1610.667
0.556	27.472	1901.759	1581.914
1.571	23.187	1882.989	1529.224
2.586	19.362	1904.747	1513.257
3.600	18.329	1940.555	1532.332
4.615	18.261	1935.840	1527.859
5.629	14.432	1834.594	1415.375
6.644	5.729	1714.730	1253.435
7.659	0.711	1677.148	1186.532
8.673	0.239	1673.978	1180.487
9.688	0.131	1673.089	1178.909
10.702	0.128	1671.346	1177.556
11.717	0.052	1667.353	1174.041
12.731	0.629	1667.350	1178.442
13.746	7.024	1681.396	1238.451
14.761	15.105	1697.131	1313.557
15.775	17.585	1700.575	1335.577
16.790	16.940	1697.986	1328.374
17.804	15.910	1694.148	1317.200
18.819	14.942	1691.042	1307.107
19.834	14.294	1688.324	1299.836
20.848	14.098	1687.015	1297.184
21.863	13.899	1685.187	1294.114
22.877	13.572	1684.316	1290.782
23.892	13.365	1682.480	1287.648
24.907	13.230	1681.582	1285.794
25.921	13.287	1680.168	1285.044
26.936	13.239	1679.487	1284.038
27.950	13.210	1679.006	1283.332
28.965	13.301	1678.404	1283.460
29.980	13.414	1677.269	1283.362
30.994	13.360	1676.808	1282.476
32.009	13.345	1675.165	1280.990
33.023	13.451	1674.468	1281.164
34.038	13.595	1673.670	1281.548
35.053	13.472	1672.848	1279.860
36.067	13.462	1671.116	1278.340
37.082	13.355	1671.073	1277.371
38.096	13.364	1669.744	1276.314
39.111	13.447	1668.509	1275.897
40.126	13.575	1667.260	1275.807
41.140	13.394	1667.037	1274.131
42.155	13.367	1665.032	1272.282
43.169	13.282	1664.305	1270.959
44.184	13.155	1663.755	1269.454
45.199	13.209	1662.141	1268.520
46.213	13.178	1661.001	1267.303
47.228	13.219	1659.419	1266.295
48.242	13.284	1657.917	1265.534
49.257	13.362	1656.795	1265.161
50.271	13.317	1655.899	1264.027
51.286	13.291	1655.055	1263.072
52.301	13.343	1653.309	1262.023
53.315	13.341	1651.771	1260.723
54.330	13.266	1650.451	1259.032
55.344	13.327	1648.771	1258.104
56.359	13.201	1647.245	1255.870
57.374	13.280	1646.103	1255.483
58.388	13.352	1644.807	1254.931
59.403	13.245	1643.583	1253.080
60.417	13.202	1642.215	1251.595
61.432	13.209	1641.141	1250.724
62.447	13.197	1639.744	1249.455
63.461	13.154	1638.584	1248.138
64.476	13.120	1637.832	1247.200
65.490	13.121	1636.761	1246.281
66.505	13.174	1635.237	1245.405
67.520	13.159	1634.216	1244.405
68.534	13.184	1633.412	1243.873
69.549	13.183	1632.358	1242.951
70.563	13.186	1630.803	1241.682
71.578	13.108	1630.028	1240.394
72.593	13.122	1628.499	1239.224
73.607	13.141	1627.828	1238.749
74.622	13.112	1626.523	1237.429
75.636	13.028	1625.680	1236.046
76.651	13.131	1624.864	1236.091
77.666	13.114	1623.570	1234.871
78.680	13.109	1623.165	1234.411
79.695	13.129	1621.939	1233.521
80.709	13.047	1621.069	1232.138
81.724	13.062	1620.221	1231.501
82.739	13.215	1619.060	1231.645
83.753	13.309	1617.759	1231.246
84.768	13.272	1617.130	1230.383
85.782	13.317	1616.180	1229.887
86.797	13.387	1615.601	1229.856
87.812	13.334	1615.229	1229.073
88.826	13.341	1613.161	1227.440
89.841	13.306	1612.124	1226.289
90.855	13.298	1611.488	1225.633
91.870	13.308	1610.235	1224.645
92.884	13.424	1609.174	1224.588
93.899	13.437	1608.045	1223.715
94.914	13.417	1606.336	1222.164
95.928	13.394	1605.761	1221.445
96.943	13.390	1604.768	1220.553
97.957	13.423	1602.943	1219.299
98.972	13.399	1601.258	1217.732
99.987	13.348	1599.728	1216.088
101.001	13.353	1598.250	1214.890
102.016	13.349	1596.996	1213.804
103.030	13.435	1594.975	1212.791
104.045	13.348	1594.680	1211.819
105.060	13.310	1592.954	1210.124
106.074	13.322	1591.981	1209.363
107.089	13.269	1590.533	1207.772
108.103	13.283	1588.755	1206.417
109.118	13.200	1587.089	1204.443
110.133	13.180	1585.663	1203.105
111.147	13.199	1584.685	1202.395
112.162	13.220	1583.226	1201.334
113.176	13.131	1582.186	1199.794
114.191	13.232	1580.918	1199.461
115.206	13.300	1579.665	1198.895
116.220	13.279	1578.218	1197.540
117.235	13.286	1577.052	1196.601
118.249	13.171	1575.809	1194.720
119.264	13.279	1573.832	1193.894
120.279	13.205	1572.692	1192.386
121.293	13.233	1571.467	1191.552
122.308	13.247	1570.097	1190.514
123.322	13.331	1568.420	1189.741
124.337	13.243	1566.750	1187.733
125.352	13.245	1565.966	1187.054
126.366	13.228	1564.871	1185.996
127.381	13.205	1563.782	1184.899
128.395	13.261	1562.327	1184.089
129.410	13.257	1561.124	1183.048
130.424	13.141	1560.161	1181.384
131.439	13.299	1558.499	1181.151
132.454	13.283	1557.479	1180.159
133.468	13.318	1555.667	1178.932
134.483	13.319	1554.091	1177.641
135.497	13.341	1553.180	1177.002
136.512	13.362	1551.982	1176.137
137.527	13.291	1550.822	1174.650
138.541	13.345	1549.213	1173.711
139.556	13.335	1547.440	1172.192
140.570	13.407	1546.162	1171.628
141.585	13.436	1544.700	1170.626
142.600	13.450	1543.421	1169.650
143.614	13.486	1542.661	1169.223
144.629	13.547	1540.899	1168.219
145.643	13.602	1539.836	1167.694
146.658	13.586	1538.627	1166.564
147.673	13.609	1536.747	1165.194
148.687	13.465	1535.817	1163.376
149.702	13.598	1533.388	1162.364
150.716	13.476	1532.062	1160.403
151.731	13.428	1531.080	1159.216
152.746	13.416	1530.101	1158.288
153.760	13.424	1528.311	1156.890
154.775	13.401	1527.357	1155.905
155.789	13.553	1525.731	1155.636
156.804	13.614	1524.590	1155.091
157.819	13.616	1523.258	1153.994
158.833	13.534	1522.368	1152.649
159.848	13.620	1520.862	1152.002
160.862	13.759	1519.563	1151.881
161.877	13.685	1518.555	1150.504
162.892	13.693	1517.501	1149.654
163.906	13.573	1516.367	1147.866
164.921	13.582	1514.952	1146.758
165.935	13.551	1513.910	1145.651
166.950	13.562	1512.761	1144.754
167.964	13.562	1511.724	1143.872
168.979	13.709	1510.184	1143.615
169.994	13.537	1509.835	1142.065
171.008	13.635	1508.264	1141.450
172.023	13.589	1507.356	1140.345
173.037	13.667	1506.230	1139.930
174.052	13.727	1504.683	1139.072
175.067	13.764	1504.295	1138.931
176.081	13.717	1502.859	1137.417
177.096	13.730	1500.876	1135.907
178.110	13.634	1500.151	1134.599
179.125	13.721	1499.018	1134.239
180.140	13.732	1497.920	1133.380
181.154	13.668	1497.080	1132.206
182.169	13.678	1496.081	1131.425
183.183	13.701	1494.770	1130.489
184.198	13.721	1493.926	1129.883
185.213	13.784	1492.688	1129.276
186.227	13.782	1491.794	1128.490
187.242	13.921	1490.224	1128.146
188.256	13.902	1489.769	1127.574
189.271	14.015	1488.174	1127.030
190.286	13.927	1487.069	1125.500
191.300	13.930	1486.353	1124.878
192.315	13.832	1484.272	1122.543
193.329	13.705	1483.513	1121.009
194.344	13.693	1482.604	1120.141
195.359	13.785	1481.291	1119.668
196.373	13.802	1480.122	1118.803
197.388	13.909	1479.042	1118.606
198.402	13.917	1478.354	1118.044
199.417	14.033	1477.028	1117.724
200.432	14.084	1475.924	1117.130
201.446	14.078	1475.246	1116.474
202.461	14.116	1473.899	1115.610
203.475	14.139	1473.038	1115.014
204.490	14.190	1471.619	1114.189
205.504	14.128	1470.878	1113.112
206.519	14.154	1469.572	1112.197
207.534	14.097	1468.124	1110.621
208.548	14.169	1466.856	1110.048
209.563	14.005	1466.980	1108.946
210.577	14.079	1465.078	1107.906
211.592	14.126	1464.400	1107.607
212.607	14.159	1463.889	1107.344
213.621	14.230	1462.920	1106.986
214.636	14.237	1461.937	1106.187
215.650	14.190	1460.829	1104.942
216.665	14.259	1459.609	1104.379
217.680	14.273	1459.099	1103.987
218.694	14.289	1458.503	1103.542
219.709	14.299	1457.532	1102.777
220.723	14.331	1456.726	1102.284
221.738	14.378	1455.632	1101.669
222.753	14.283	1454.767	1100.284
223.767	14.363	1453.659	1099.878
224.782	14.373	1452.899	1099.271
225.796	14.412	1452.118	1098.844
226.811	14.480	1450.708	1098.127
227.826	14.463	1450.725	1097.930
228.840	14.488	1449.654	1097.185
229.855	14.432	1448.838	1096.101
230.869	14.428	1447.747	1095.156
231.884	14.363	1446.721	1093.859
232.899	14.384	1445.830	1093.222
233.913	14.478	1443.950	1092.320
234.928	14.383	1443.096	1090.955
235.942	14.372	1441.970	1089.936
236.957	14.423	1440.574	1089.116
237.972	14.371	1439.607	1087.954
238.986	14.344	1438.357	1086.735
240.001	14.457	1437.600	1086.806
241.015	14.457	1436.388	1085.788
242.030	14.459	1435.473	1085.017
243.045	14.470	1434.128	1083.972
244.059	14.496	1433.656	1083.689
245.074	14.574	1432.593	1083.295
246.088	14.538	1432.108	1082.602
247.103	14.698	1431.155	1082.825
248.117	14.668	1429.952	1081.624
249.132	14.723	1429.288	1081.382
250.147	14.653	1429.034	1080.640
251.161	14.775	1428.604	1081.007
252.176	14.871	1427.728	1080.871
253.190	14.798	1426.912	1079.687
254.205	14.978	1425.925	1080.004
255.220	14.942	1425.236	1079.156
256.234	14.995	1424.030	1078.488
257.249	14.974	1423.221	1077.644
258.263	14.895	1422.348	1076.377
259.278	14.982	1421.405	1076.129
260.293	15.015	1420.471	1075.539
261.307	15.034	1419.919	1075.147
262.322	14.990	1419.396	1074.376
263.336	15.113	1418.279	1074.224
264.351	15.117	1417.053	1073.228
265.366	15.148	1416.478	1072.893
266.380	15.174	1415.315	1072.088
267.395	15.184	1414.781	1071.652
268.409	15.130	1413.754	1070.432
269.424	15.159	1412.294	1069.420
270.439	15.094	1411.407	1068.234
271.453	15.150	1410.555	1067.852
272.468	15.124	1409.247	1066.602
273.482	15.091	1408.938	1066.063
274.497	15.164	1407.964	1065.699
275.512	15.178	1407.151	1065.077
276.526	15.155	1406.222	1064.137
277.541	15.186	1405.169	1063.440
278.555	15.246	1404.209	1063.003
279.570	15.245	1403.520	1062.376
280.585	15.325	1402.571	1062.072
281.599	15.252	1401.552	1060.747
282.614	15.268	1401.081	1060.395
283.628	15.279	1399.955	1059.517
284.643	15.297	1398.433	1058.385
285.657	15.331	1397.427	1057.744
286.672	15.314	1396.581	1056.904
287.687	15.389	1395.851	1056.729
288.701	15.357	1394.925	1055.738
289.716	15.321	1394.164	1054.841
290.730	15.408	1393.453	1054.753
291.745	15.366	1392.611	1053.760
292.760	15.388	1391.707	1053.119
293.774	15.477	1390.374	1052.575
294.789	15.454	1389.227	1051.475
295.803	15.547	1388.146	1051.141
296.818	15.613	1387.063	1050.641
297.833	15.471	1386.399	1049.161
298.847	15.369	1386.079	1048.190
299.862	15.571	1384.658	1048.283
300.876	15.565	1383.640	1047.381
301.891	15.511	1382.515	1046.102
302.906	15.523	1381.963	1045.664
303.920	15.627	1381.307	1045.722
304.935	15.620	1380.385	1044.886
305.949	15.623	1380.174	1044.657
306.964	15.660	1379.393	1044.197
307.979	15.765	1377.951	1043.668
308.993	15.758	1376.903	1042.738
310.008	15.637	1376.187	1041.353
311.022	15.713	1374.899	1040.761
312.037	15.797	1373.975	1040.485
313.052	15.814	1373.142	1039.867
314.066	15.718	1372.136	1038.420
315.081	15.743	1370.779	1037.456
316.095	15.632	1370.370	1036.368
317.110	15.760	1368.841	1035.914
318.125	15.709	1368.053	1034.909
319.139	15.702	1367.281	1034.191
320.154	15.725	1366.567	1033.702
321.168	15.741	1365.662	1033.020
322.183	15.779	1364.368	1032.183
323.197	15.734	1363.383	1031.074
324.212	15.784	1362.640	1030.724
325.227	15.838	1361.822	1030.347
326.241	15.817	1361.202	1029.659
327.256	15.779	1360.301	1028.653
328.270	15.791	1359.315	1027.890
329.285	15.846	1358.296	1027.363
330.300	15.845	1357.402	1026.592
331.314	15.865	1356.563	1025.987
332.329	15.900	1355.545	1025.342
333.343	15.887	1354.742	1024.561
334.358	15.852	1353.974	1023.679
335.373	15.901	1353.315	1023.386
336.387	16.035	1352.261	1023.315
337.402	16.011	1351.459	1022.469
338.416	16.028	1350.777	1021.965
339.431	16.012	1350.315	1021.431
340.446	16.094	1349.602	1021.297
341.460	16.116	1348.457	1020.471
342.475	16.120	1347.283	1019.521
343.489	16.261	1346.277	1019.521
344.504	16.171	1345.580	1018.356
345.519	16.247	1344.800	1018.136
346.533	16.288	1343.790	1017.526
347.548	16.262	1342.777	1016.516
348.562	16.305	1341.938	1016.049
349.577	16.321	1341.514	1015.736
350.592	16.319	1340.490	1014.859
351.606	16.286	1339.728	1013.990
352.621	16.305	1338.630	1013.185
353.635	16.227	1337.648	1011.885
354.650	16.272	1336.459	1011.166
355.665	16.225	1335.655	1010.185
356.679	16.293	1334.356	1009.518
357.694	16.285	1333.531	1008.759
358.708	16.295	1332.729	1008.122
359.723	16.410	1331.236	1007.589
360.738	16.365	1330.663	1006.799
361.752	16.353	1329.276	1005.588
362.767	16.402	1328.081	1004.887
363.781	16.404	1327.124	1004.088
364.796	16.398	1326.459	1003.457
365.810	16.397	1326.159	1003.136
366.825	16.490	1324.934	1002.675
367.840	16.567	1324.460	1002.681
368.854	16.624	1323.653	1002.319
369.869	16.664	1323.108	1002.054
370.883	16.614	1322.361	1001.103
371.898	16.595	1321.917	1000.569
372.913	16.533	1320.935	999.371
373.927	16.595	1320.368	999.221
374.942	16.574	1319.298	998.195
375.956	16.704	1318.553	998.313
376.971	16.695	1317.748	997.560
377.986	16.670	1316.753	996.571
379.000	16.732	1315.927	996.223
380.015	16.777	1315.233	995.875
381.029	16.758	1314.288	994.962
382.044	16.882	1313.684	995.145
383.059	16.759	1313.250	994.005
384.073	16.879	1312.099	993.746
385.088	16.913	1311.562	993.450
386.102	16.932	1310.896	992.972
387.117	16.897	1310.583	992.442
388.132	16.922	1309.392	991.598
389.146	16.851	1308.575	990.478
390.161	16.828	1307.672	989.571
391.175	16.759	1307.358	988.845
392.190	16.850	1306.274	988.466
393.205	16.893	1305.489	988.035
394.219	16.986	1304.310	987.597
395.234	17.013	1302.902	986.603
396.248	16.858	1302.094	984.999
397.263	16.904	1300.757	984.170
398.278	16.958	1299.261	983.261
399.292	16.978	1298.041	982.369
400.307	16.927	1297.149	981.310
401.321	16.948	1295.975	980.460
402.336	17.001	1295.144	980.047
403.350	16.859	1294.426	978.598
404.365	16.862	1293.557	977.874
405.380	16.903	1292.545	977.257
406.394	16.978	1291.528	976.836
407.409	16.987	1291.357	976.671
408.423	16.971	1290.137	975.569
409.438	17.031	1289.897	975.647
410.453	17.162	1289.063	975.682
411.467	17.222	1288.042	975.167
412.482	17.203	1287.788	974.777
413.496	17.321	1286.553	974.434
414.511	17.296	1286.313	974.022
415.526	17.235	1285.688	973.113
416.540	17.350	1284.748	972.978
417.555	17.381	1283.845	972.381
418.569	17.327	1283.809	971.960
419.584	17.264	1283.408	971.212
420.599	17.364	1282.056	970.673
421.613	95.340	1354.073	1471.439
422.628	93.285	1364.541	1471.527
