DTS Sentinel unit serial number:	SN413079Multiplexer serial number:	ORYXHardware model number:	OX4-SRSoftware version number:	ORYX F/W v4.00 Oryx Data Collector v3.7.2.0data status	okinstallation	princeton_trtdifferential loss correction	single-endedforward channel	channel 4reverse channel	N/Adate	2019/09/15time	22:01:34forward acquisition time	60.00reverse acquisition time	0.00gamma	496.2192k internal	0.2319k external	0.2319temperature offset calibration	0.9948default loss term (dB/km)	0.3790temperature slope calibration	1.0000multiplexer offset coefficient	1.0000multiplexer slope coefficient	1.0000fibre end	0.00T internal ref (°C)	29.83T ext. ref 1 (°C)	8.54T ext. ref 2 (°C)	22.92length (m)	temperature (°C)	Stokes	anti-Stokes-747.200	110.778	0.120	0.146
-746.185	-200.000	-0.023	0.186
-745.171	-200.000	0.004	0.020
-744.156	694.283	-0.089	0.237
-743.142	-16.654	0.191	0.122
-742.127	-200.000	-0.109	0.000
-741.112	2.414	-0.115	-0.084
-740.098	-119.143	-0.128	0.023
-739.083	94.027	-0.052	0.060
-738.069	569.419	-0.143	0.353
-737.054	800.000	0.017	-0.071
-736.039	127.801	-0.157	-0.202
-735.025	13.541	0.066	0.051
-734.010	-109.835	0.134	0.028
-732.996	-63.306	-0.191	0.080
-731.981	-172.617	-0.160	0.005
-730.966	103.245	0.166	-0.197
-729.952	20.170	0.208	-0.170
-728.937	130.443	-0.197	-0.255
-727.923	-18.481	0.090	-0.057
-726.908	-104.571	0.261	-0.061
-725.894	800.000	-0.053	-0.196
-724.879	67.219	0.148	-0.153
-723.864	144.247	0.079	-0.107
-722.850	-129.121	-0.413	0.058
-721.835	-191.238	0.521	0.005
-720.821	-176.153	0.237	0.006
-719.806	-175.893	-0.079	0.002
-718.791	-12.069	-0.188	0.124
-717.777	-200.000	0.026	-0.276
-716.762	-39.250	-0.191	0.101
-715.748	-200.000	-0.043	-0.312
-714.733	-170.464	-0.305	-0.011
-713.718	-200.000	0.006	0.068
-712.704	-97.711	0.132	-0.035
-711.689	361.641	0.109	0.220
-710.675	-8.782	0.084	-0.057
-709.660	157.569	0.152	-0.212
-708.645	-123.907	0.167	-0.027
-707.631	165.498	0.225	0.322
-706.616	65.659	-0.089	0.091
-705.602	376.753	0.149	-0.308
-704.587	-200.000	-0.080	0.503
-703.572	-138.817	-0.345	-0.038
-702.558	-48.427	0.155	-0.076
-701.543	84.968	0.113	-0.125
-700.529	800.000	-0.094	-0.311
-699.514	-162.091	0.331	0.017
-698.499	-151.590	-0.176	-0.013
-697.485	475.548	-0.156	0.356
-696.470	496.012	0.013	-0.029
-695.456	-200.000	-0.050	-0.355
-694.441	-100.986	-0.240	-0.060
-693.426	-165.908	-0.242	-0.010
-692.412	339.713	-0.163	-0.322
-691.397	158.789	0.188	0.263
-690.383	800.000	-0.030	-0.104
-689.368	-74.006	0.506	-0.185
-688.354	385.188	-0.034	-0.070
-687.339	-121.904	0.352	-0.058
-686.324	53.095	-0.120	0.116
-685.310	-5.212	-0.214	-0.149
-684.295	-41.127	0.374	0.195
-683.281	40.262	-0.172	-0.156
-682.266	66.034	0.129	0.132
-681.251	-81.453	0.313	-0.104
-680.237	86.761	0.283	0.316
-679.222	151.630	-0.149	0.205
-678.208	-21.457	-0.256	0.157
-677.193	800.000	0.028	0.101
-676.178	10.060	-0.191	-0.146
-675.164	150.046	0.219	-0.300
-674.149	66.930	0.279	-0.286
-673.135	78.296	-0.334	-0.360
-672.120	-31.389	0.108	-0.061
-671.105	425.226	-0.093	0.203
-670.091	-45.688	-0.227	-0.113
-669.076	-200.000	-0.050	-0.253
-668.062	114.273	-0.239	-0.293
-667.047	799.099	0.023	-0.063
-666.032	-95.100	0.067	0.018
-665.018	23.346	0.201	0.167
-664.003	800.000	-0.021	0.072
-662.989	-20.232	-0.117	-0.072
-661.974	152.166	-0.185	-0.254
-660.959	-116.912	0.273	-0.050
-659.945	-163.363	0.137	-0.007
-658.930	-105.237	-0.384	0.088
-657.916	-100.860	0.188	-0.047
-656.901	-200.000	0.017	0.146
-655.886	-78.627	0.233	-0.080
-654.872	62.422	-0.216	-0.218
-653.857	-76.411	-0.250	0.089
-652.843	142.284	-0.071	0.095
-651.828	342.751	0.104	-0.205
-650.814	-96.643	0.190	-0.050
-649.799	452.481	0.004	0.009
-648.784	-104.143	0.259	0.061
-647.770	-121.113	0.187	-0.032
-646.755	-81.573	-0.112	-0.037
-645.741	170.643	0.122	-0.176
-644.726	800.000	-0.117	-0.411
-643.711	115.916	0.202	0.249
-642.697	166.733	0.105	-0.151
-641.682	700.948	-0.061	-0.163
-640.668	24.243	-0.017	-0.014
-639.653	74.790	0.401	-0.425
-638.638	4.988	-0.260	0.193
-637.624	-107.117	0.114	0.025
-636.609	22.219	-0.048	-0.040
-635.595	800.000	0.041	0.132
-634.580	-200.000	0.012	-0.189
-633.565	136.928	0.221	-0.291
-632.551	96.424	0.112	0.130
-631.536	586.438	-0.071	-0.176
-630.522	-183.240	-0.038	-0.001
-629.507	180.662	0.155	-0.230
-628.492	-200.000	-0.035	-0.248
-627.478	25.398	-0.051	-0.043
-626.463	800.000	0.124	0.372
-625.449	176.830	-0.186	-0.272
-624.434	-83.770	0.135	0.043
-623.419	-11.887	-0.278	-0.184
-622.405	-165.557	-0.408	-0.018
-621.390	-200.000	0.030	0.161
-620.376	-70.582	-0.326	0.124
-619.361	40.220	0.137	0.124
-618.346	507.179	-0.008	0.018
-617.332	10.346	-0.179	-0.137
-616.317	-65.957	0.148	0.059
-615.303	800.000	0.093	-0.260
-614.288	-200.000	0.032	0.219
-613.273	-150.164	0.174	0.014
-612.259	-124.805	-0.299	-0.046
-611.244	-100.592	0.170	-0.042
-610.230	-42.126	-0.515	-0.265
-609.215	10.410	-0.199	-0.153
-608.201	96.003	0.098	-0.113
-607.186	245.818	0.149	0.253
-606.171	-200.000	0.048	0.477
-605.157	800.000	0.161	-0.487
-604.142	-32.299	-0.034	-0.019
-603.128	-200.000	0.012	-0.293
-602.113	127.603	0.143	-0.183
-601.098	-66.767	-0.181	-0.072
-600.084	-169.300	0.122	0.005
-599.069	800.000	0.021	-0.080
-598.055	119.699	-0.208	-0.259
-597.040	102.522	0.183	-0.215
-596.025	-84.785	0.136	-0.043
-595.011	-200.000	0.011	0.190
-593.996	205.251	0.115	0.179
-592.982	553.880	-0.101	0.244
-591.967	-148.355	0.378	-0.031
-590.952	-92.079	0.200	0.057
-589.938	-52.711	-0.332	0.154
-588.923	189.971	-0.100	0.151
-587.909	88.999	-0.014	-0.016
-586.894	55.385	0.066	-0.064
-585.879	-3.470	-0.172	-0.120
-584.865	-200.000	0.074	-0.344
-583.850	-74.206	-0.172	0.063
-582.836	83.741	-0.161	-0.176
-581.821	-0.218	0.229	0.163
-580.806	373.449	0.137	-0.280
-579.792	-37.686	0.014	-0.007
-578.777	238.716	0.140	0.234
-577.763	-199.451	0.384	-0.002
-576.748	-80.797	0.367	0.122
-575.733	-200.000	-0.025	-0.396
-574.719	206.695	0.041	-0.064
-573.704	489.735	0.042	-0.098
-572.690	-84.382	-0.243	0.077
-571.675	8.675	0.281	-0.213
-570.661	-200.000	-0.026	0.138
-569.646	1.392	0.187	0.135
-568.631	175.654	-0.063	-0.092
-567.617	-129.380	0.254	-0.036
-566.602	-45.372	-0.200	-0.100
-565.588	359.479	-0.044	-0.088
-564.573	6.078	-0.218	-0.162
-563.558	-43.257	0.286	-0.145
-562.544	-106.446	-0.535	0.120
-561.529	169.158	0.155	0.222
-560.515	-200.000	0.026	0.137
-559.500	-15.705	0.104	0.066
-558.485	800.000	-0.039	-0.159
-557.471	10.151	-0.226	-0.173
-556.456	511.073	0.113	0.263
-555.442	217.269	-0.061	0.097
-554.427	-129.572	-0.051	0.007
-553.412	458.179	0.059	0.131
-552.398	-17.921	-0.052	0.033
-551.383	-200.000	-0.015	-0.171
-550.369	800.000	-0.087	-0.338
-549.354	-44.132	0.048	-0.024
-548.339	21.128	0.205	0.167
-547.325	-200.000	0.011	-0.140
-546.310	-24.333	0.086	0.051
-545.296	-12.705	-0.071	0.047
-544.281	369.493	-0.144	0.294
-543.266	6.243	-0.175	-0.130
-542.252	-91.442	-0.163	0.047
-541.237	-91.568	-0.251	0.072
-540.223	233.280	0.215	0.355
-539.208	-120.993	-0.240	-0.041
-538.193	103.557	-0.033	0.039
-537.179	-149.609	-0.095	-0.007
-536.164	116.640	-0.094	-0.116
-535.150	-200.000	0.046	0.404
-534.135	54.582	-0.091	0.088
-533.121	-200.000	-0.006	0.110
-532.106	-20.477	-0.117	0.072
-531.091	-187.379	-0.235	0.003
-530.077	-200.000	-0.006	0.086
-529.062	800.000	0.024	-0.073
-528.048	99.690	0.162	0.188
-527.033	800.000	0.045	-0.161
-526.018	95.218	-0.285	0.326
-525.004	-5.719	0.135	-0.093
-523.989	-126.626	-0.173	0.026
-522.975	298.701	-0.116	0.213
-521.960	-200.000	-0.009	0.414
-520.945	57.451	0.073	-0.072
-519.931	-70.764	0.198	0.075
-518.916	-69.756	-0.105	-0.040
-517.902	-33.521	0.027	-0.015
-516.887	-154.618	0.230	-0.015
-515.872	102.465	0.024	-0.028
-514.858	-68.575	0.215	-0.084
-513.843	62.934	0.203	-0.204
-512.829	-110.104	-0.341	0.072
-511.814	-65.869	0.302	-0.121
-510.799	126.398	-0.035	0.044
-509.785	-200.000	-0.042	0.335
-508.770	211.441	-0.137	0.216
-507.756	159.855	-0.176	-0.246
-506.741	-48.477	-0.070	0.034
-505.726	-65.471	-0.055	-0.022
-504.712	94.371	-0.134	-0.153
-503.697	-93.512	-0.300	-0.083
-502.683	-106.738	0.385	-0.086
-501.668	-43.153	-0.378	0.192
-500.653	184.892	0.151	0.224
-499.639	-178.731	0.151	0.003
-498.624	-47.947	0.125	-0.060
-497.610	11.263	0.048	0.037
-496.595	-172.794	0.178	-0.006
-495.581	239.568	-0.037	0.061
-494.566	379.259	-0.047	0.097
-493.551	-127.178	-0.353	0.052
-492.537	198.568	-0.102	0.156
-491.522	295.597	0.092	-0.168
-490.508	77.277	-0.070	0.075
-489.493	-156.343	-0.164	-0.010
-488.478	596.127	-0.087	0.215
-487.464	68.526	-0.114	0.117
-486.449	4.546	0.036	-0.026
-485.435	-200.000	-0.008	0.078
-484.420	-200.000	0.002	-0.297
-483.405	-200.000	0.045	0.206
-482.391	26.924	-0.037	0.031
-481.376	-87.009	-0.235	0.072
-480.362	-200.000	-0.020	0.210
-479.347	99.869	-0.112	0.130
-478.332	350.695	-0.102	0.202
-477.318	-200.000	-0.017	-0.318
-476.303	56.071	0.053	0.052
-475.289	-51.577	-0.339	0.158
-474.274	-141.351	0.237	-0.024
-473.259	-78.957	-0.112	0.038
-472.245	-129.429	-0.258	-0.036
-471.230	-43.645	0.299	0.151
-470.216	-46.376	-0.131	0.065
-469.201	136.616	-0.216	-0.282
-468.186	-5.635	0.110	-0.076
-467.172	-200.000	-0.049	-0.219
-466.157	-120.874	0.115	-0.019
-465.143	-200.000	-0.022	0.194
-464.128	-200.000	-0.004	-0.202
-463.113	251.597	-0.079	-0.135
-462.099	78.403	-0.076	-0.081
-461.084	229.815	-0.081	0.132
-460.070	388.442	0.109	0.226
-459.055	94.486	-0.111	-0.126
-458.040	800.000	0.012	-0.044
-457.026	-49.570	-0.106	0.050
-456.011	-77.710	-0.280	-0.097
-454.997	800.000	0.043	0.122
-453.982	-200.000	0.003	-0.413
-452.968	-200.000	-0.046	0.384
-451.953	568.377	0.058	-0.142
-450.938	-200.000	-0.001	0.197
-449.924	-125.507	-0.132	-0.020
-448.909	-170.420	0.175	0.006
-447.895	499.057	-0.030	0.070
-446.880	-117.333	0.176	0.032
-445.865	298.584	-0.055	0.101
-444.851	-200.000	0.042	-0.201
-443.836	-97.955	-0.351	0.090
-442.822	-200.000	-0.021	-0.300
-441.807	-149.333	-0.211	0.017
-440.792	100.948	-0.100	-0.117
-439.778	-31.519	0.280	-0.157
-438.763	44.239	-0.158	-0.145
-437.749	800.000	-0.114	0.329
-436.734	-16.441	0.078	0.050
-435.719	-101.395	0.562	-0.137
-434.705	-200.000	-0.044	-0.560
-433.690	37.795	0.204	-0.181
-432.676	-200.000	0.226	0.001
-431.661	48.823	-0.160	0.150
-430.646	-140.883	0.086	-0.009
-429.632	-171.456	0.380	0.013
-428.617	149.947	-0.161	0.218
-427.603	40.052	0.131	-0.117
-426.588	-167.195	-0.261	0.011
-425.573	-200.000	0.024	0.192
-424.559	683.101	-0.083	0.216
-423.544	197.008	-0.184	-0.280
-422.530	46.592	0.276	0.256
-421.515	-23.251	-0.262	0.157
-420.500	440.282	-0.036	-0.079
-419.486	-200.000	-0.015	-0.159
-418.471	796.599	0.033	-0.091
-417.457	-63.328	0.239	-0.098
-416.442	233.123	-0.123	0.201
-415.428	-128.914	0.261	-0.037
-414.413	-92.992	0.205	0.057
-413.398	-42.709	-0.096	0.049
-412.384	800.000	-0.064	-0.248
-411.369	-64.090	0.400	-0.163
-410.355	279.892	-0.137	0.244
-409.340	-117.855	-0.253	0.045
-408.325	800.000	0.064	-0.233
-407.311	245.219	-0.085	-0.143
-406.296	10.806	0.148	-0.113
-405.282	308.635	-0.152	-0.284
-404.267	686.299	0.126	-0.328
-403.252	420.342	0.148	-0.316
-402.238	-73.754	-0.189	-0.069
-401.223	145.283	-0.234	0.312
-400.209	-162.149	-0.049	-0.002
-399.194	383.951	0.183	-0.376
-398.179	-115.538	-0.407	0.076
-397.165	96.679	-0.168	0.192
-396.150	584.627	0.082	-0.200
-395.136	-140.383	-0.062	-0.006
-394.121	-200.000	0.006	0.233
-393.106	-148.268	0.133	-0.011
-392.092	-11.100	0.292	0.192
-391.077	-171.192	-0.235	0.008
-390.063	355.492	-0.055	-0.109
-389.048	-168.989	0.184	0.007
-388.033	-27.086	0.165	-0.096
-387.019	225.408	-0.185	0.298
-386.004	-90.175	0.226	-0.066
-384.990	-185.591	-0.094	-0.001
-383.975	551.702	-0.108	0.258
-382.960	3.594	-0.107	0.078
-381.946	43.441	0.198	0.181
-380.931	-110.860	-0.330	-0.068
-379.917	128.451	-0.330	-0.419
-378.902	-173.159	-0.279	-0.009
-377.888	-82.432	-0.337	-0.109
-376.873	66.836	0.067	-0.068
-375.858	-163.205	-0.073	-0.003
-374.844	-200.000	-0.012	-0.252
-373.829	-200.000	0.025	0.229
-372.815	-200.000	-0.067	0.317
-371.800	27.847	-0.164	-0.138
-370.785	-97.059	0.131	-0.034
-369.771	-68.659	-0.316	-0.122
-368.756	-149.897	0.229	-0.018
-367.742	800.000	-0.050	0.168
-366.727	800.000	0.082	0.335
-365.712	176.944	0.122	0.177
-364.698	9.885	-0.137	0.104
-363.683	300.156	0.054	-0.100
-362.669	113.939	0.188	-0.228
-361.654	800.000	0.053	-0.151
-360.639	-52.191	-0.172	0.080
-359.625	90.824	0.180	-0.201
-358.610	37.456	0.308	0.272
-357.596	-200.000	-0.018	-0.179
-356.581	800.000	0.083	-0.234
-355.566	293.290	0.134	-0.244
-354.552	-200.000	0.033	-0.290
-353.537	70.500	-0.347	-0.358
-352.523	-176.947	-0.180	0.005
-351.508	146.355	0.160	0.214
-350.493	176.093	0.072	0.104
-349.479	-28.784	-0.235	0.135
-348.464	296.286	-0.066	0.121
-347.450	670.881	0.026	-0.068
-346.435	-67.399	0.268	-0.105
-345.420	800.000	0.037	-0.110
-344.406	-22.976	-0.213	-0.128
-343.391	650.742	0.110	-0.281
-342.377	137.052	0.200	-0.260
-341.362	-189.759	0.242	-0.003
-340.348	-200.000	-0.025	0.279
-339.333	-133.201	-0.153	-0.019
-338.318	-20.529	0.149	0.091
-337.304	800.000	-0.049	0.148
-336.289	287.640	0.056	0.100
-335.275	800.000	-0.038	0.164
-334.260	215.357	0.012	-0.018
-333.245	-200.000	0.029	-0.247
-332.231	-63.723	-0.336	-0.137
-331.216	202.415	0.150	0.231
-330.202	13.334	-0.011	0.009
-329.187	-70.935	0.102	0.038
-328.172	24.777	-0.108	-0.089
-327.158	205.050	0.153	0.236
-326.143	270.074	-0.088	0.155
-325.129	-200.000	0.005	0.134
-324.114	-200.000	0.013	0.084
-323.099	-89.522	0.095	-0.028
-322.085	-22.067	0.209	0.126
-321.070	437.154	-0.038	-0.081
-320.056	-200.000	0.015	-0.112
-319.041	18.554	-0.087	0.069
-318.026	-12.024	-0.193	0.126
-317.012	310.318	0.128	-0.238
-315.997	-200.000	0.006	0.118
-314.983	-200.000	-0.021	0.218
-313.968	800.000	-0.062	0.233
-312.953	-200.000	0.003	0.043
-311.939	-117.546	0.123	-0.022
-310.924	135.487	-0.153	-0.198
-309.910	-200.000	-0.057	0.250
-308.895	297.349	-0.058	0.107
-307.880	72.623	0.208	0.216
-306.866	800.000	0.019	-0.067
-305.851	21.215	-0.358	0.289
-304.837	482.851	-0.073	0.164
-303.822	40.466	0.241	-0.216
-302.807	-200.000	0.008	0.232
-301.793	-134.161	0.340	-0.042
-300.778	105.627	0.116	0.136
-299.764	-62.936	0.242	0.099
-298.749	-200.000	-0.018	-0.218
-297.735	-200.000	-0.044	-0.353
-296.720	-102.579	-0.158	-0.037
-295.705	-91.426	0.109	-0.031
-294.691	-135.091	0.295	0.035
-293.676	619.734	-0.170	-0.425
-292.662	-79.875	-0.099	0.033
-291.647	-110.922	-0.427	-0.087
-290.632	800.000	-0.145	0.419
-289.618	101.956	0.168	-0.194
-288.603	-91.119	0.308	-0.088
-287.589	-11.167	-0.104	-0.068
-286.574	303.577	0.067	-0.124
-285.559	-200.000	-0.003	0.472
-284.545	-200.000	-0.009	-0.274
-283.530	-22.269	-0.349	-0.210
-282.516	60.882	0.136	0.134
-281.501	-151.830	-0.593	0.043
-280.486	-159.896	0.203	0.011
-279.472	-70.139	0.227	0.086
-278.457	760.858	-0.092	-0.249
-277.443	800.000	0.023	0.087
-276.428	156.354	0.278	-0.381
-275.413	-56.619	0.137	0.060
-274.399	76.962	0.165	-0.174
-273.384	-138.260	-0.142	-0.016
-272.370	346.730	0.044	-0.086
-271.355	-17.608	-0.340	-0.213
-270.340	-130.500	-0.152	0.020
-269.326	800.000	-0.048	0.157
-268.311	800.000	-0.102	0.281
-267.297	-83.054	-0.127	-0.041
-266.282	-106.225	0.024	0.005
-265.267	-154.791	0.172	0.011
-264.253	32.090	-0.213	0.183
-263.238	800.000	0.043	0.119
-262.224	-37.398	0.171	-0.091
-261.209	54.499	0.148	0.141
-260.195	93.914	-0.350	0.394
-259.180	-55.868	0.203	0.090
-258.165	-82.769	-0.265	0.085
-257.151	41.930	0.206	0.185
-256.136	136.713	0.210	-0.273
-255.122	-200.000	-0.013	-0.435
-254.107	-200.000	-0.035	0.176
-253.092	262.029	-0.132	0.227
-252.078	-35.007	0.423	-0.229
-251.063	68.232	0.287	0.292
-250.049	416.698	0.067	0.142
-249.034	-200.000	-0.002	0.169
-248.019	48.034	0.294	-0.273
-247.005	-100.240	-0.293	-0.072
-245.990	-87.712	-0.350	0.105
-244.976	-83.128	-0.392	-0.125
-243.961	800.000	0.064	-0.200
-242.946	-200.000	-0.024	-0.223
-241.932	-154.457	-0.314	-0.021
-240.917	-60.302	0.102	-0.043
-239.903	-200.000	-0.008	0.211
-238.888	196.100	0.261	0.393
-237.873	-51.406	0.158	-0.073
-236.859	456.514	-0.229	-0.504
-235.844	800.000	0.095	0.273
-234.830	-105.626	-0.118	0.027
-233.815	-42.997	-0.103	0.052
-232.800	-200.000	0.079	0.543
-231.786	-200.000	0.001	0.147
-230.771	-200.000	-0.021	0.211
-229.757	-200.000	0.006	-0.083
-228.742	800.000	-0.095	-0.350
-227.727	401.320	-0.115	0.240
-226.713	-39.437	-0.096	-0.050
-225.698	-185.087	-0.120	-0.002
-224.684	-122.220	0.266	-0.043
-223.669	-200.000	0.042	0.405
-222.655	-200.000	0.036	0.180
-221.640	-21.123	-0.109	-0.066
-220.625	41.526	0.211	0.190
-219.611	10.155	0.173	-0.130
-218.596	33.803	0.271	0.233
-217.582	-200.000	-0.014	-0.199
-216.567	162.242	0.053	-0.074
-215.552	-200.000	-0.046	0.441
-214.538	529.706	0.119	0.277
-213.523	-80.933	0.131	-0.043
-212.509	-162.222	-0.160	-0.008
-211.494	-72.792	0.186	-0.068
-210.479	161.671	0.010	-0.013
-209.465	44.257	0.159	0.144
-208.450	-200.000	0.015	0.064
-207.436	800.000	-0.077	-0.321
-206.421	-200.000	-0.003	-0.161
-205.406	-126.805	-0.187	-0.027
-204.392	800.000	0.014	-0.040
-203.377	82.532	0.112	-0.120
-202.363	-200.000	0.005	-0.185
-201.348	-200.000	0.033	0.516
-200.333	800.000	0.016	-0.049
-199.319	-59.211	0.135	0.058
-198.304	-40.066	0.206	0.106
-197.290	-1.179	-0.222	0.155
-196.275	-19.990	0.133	-0.081
-195.260	-110.431	-0.077	0.016
-194.246	800.000	0.085	-0.280
-193.231	-144.557	0.265	-0.024
-192.217	-117.007	-0.255	-0.046
-191.202	99.762	-0.040	0.046
-190.187	137.274	0.253	-0.327
-189.173	507.301	-0.173	-0.399
-188.158	-97.577	0.222	-0.057
-187.144	800.000	-0.030	-0.092
-186.129	239.892	0.040	-0.065
-185.114	-78.770	0.368	0.124
-184.100	-96.342	-0.069	0.018
-183.085	-91.357	-0.418	0.118
-182.071	241.098	0.091	-0.150
-181.056	-14.721	0.048	0.030
-180.042	-30.106	0.531	0.299
-179.027	-200.000	-0.010	0.160
-178.012	695.203	-0.027	0.071
-176.998	32.623	0.146	-0.125
-175.983	-154.157	-0.404	-0.027
-174.969	-83.021	0.052	0.017
-173.954	525.114	0.090	0.209
-172.939	134.115	0.055	-0.071
-171.925	-29.195	-0.090	-0.051
-170.910	114.954	-0.090	0.109
-169.896	800.000	0.048	-0.145
-168.881	24.635	-0.094	-0.077
-167.866	-200.000	-0.043	0.286
-166.852	-200.000	-0.012	0.064
-165.837	-200.000	-0.050	-0.257
-164.823	213.620	0.157	0.246
-163.808	353.469	-0.077	-0.152
-162.793	-105.526	0.062	0.014
-161.779	-0.089	0.052	0.036
-160.764	-151.468	0.257	0.019
-159.750	255.542	-0.147	-0.250
-158.735	-26.951	0.288	0.166
-157.720	99.577	0.032	-0.036
-156.706	4.924	-0.260	0.189
-155.691	-24.102	0.243	0.143
-154.677	-75.897	0.313	-0.110
-153.662	-136.580	-0.341	-0.039
-152.647	-200.000	-0.002	-0.056
-151.633	-200.000	0.048	0.240
-150.618	800.000	-0.056	0.216
-149.604	800.000	0.019	-0.070
-148.589	-171.326	0.409	0.014
-147.574	-104.767	-0.167	-0.038
-146.560	-3.937	0.071	0.049
-145.545	800.000	-0.048	-0.199
-144.531	308.024	-0.196	-0.361
-143.516	-200.000	0.024	-0.240
-142.502	122.863	-0.053	-0.066
-141.487	74.363	-0.267	0.277
-140.472	141.715	-0.201	-0.263
-139.458	-101.660	0.055	-0.013
-138.443	-95.948	-0.113	0.030
-137.429	-200.000	0.004	-0.188
-136.414	-154.076	0.273	-0.018
-135.399	-178.317	-0.125	0.003
-134.385	-69.026	0.271	0.103
-133.370	-87.344	0.177	-0.053
-132.356	89.301	0.335	-0.369
-131.341	-200.000	0.003	0.118
-130.326	645.232	-0.033	0.084
-129.312	800.000	0.012	0.035
-128.297	288.214	0.072	-0.128
-127.283	800.000	0.005	-0.021
-126.268	406.097	0.094	-0.196
-125.253	219.513	-0.081	0.128
-124.239	-35.936	0.186	-0.099
-123.224	661.534	-0.127	-0.322
-122.210	-177.183	0.159	0.004
-121.195	55.634	0.181	-0.173
-120.180	800.000	0.045	0.175
-119.166	44.196	-0.222	0.201
-118.151	244.027	-0.153	0.253
-117.137	70.111	-0.155	0.157
-116.122	-25.369	0.025	0.015
-115.107	-77.424	0.171	0.059
-114.093	-200.000	-0.021	-0.186
-113.078	-84.599	0.393	-0.122
-112.064	190.057	0.108	0.160
-111.049	-197.724	0.159	0.001
-110.034	147.951	0.149	0.199
-109.020	800.000	-0.093	0.340
-108.005	-200.000	0.029	-0.156
-106.991	119.991	-0.204	-0.250
-105.976	-200.000	0.025	0.121
-104.962	18.779	-0.025	0.020
-103.947	-200.000	-0.011	-0.149
-102.932	452.007	0.091	-0.199
-101.918	-125.444	0.185	-0.028
-100.903	250.564	0.185	0.310
-99.889	3.434	0.325	-0.233
-98.874	371.767	-0.089	0.179
-97.859	-12.366	0.172	-0.111
-96.845	52.045	-0.047	0.044
-95.830	-135.791	0.198	0.023
-94.816	35.862	-0.170	-0.147
-93.801	-93.494	0.306	-0.084
-92.786	-46.901	0.329	-0.159
-91.772	800.000	0.132	0.414
-90.757	-104.560	-0.347	-0.079
-89.743	18.310	-0.082	-0.065
-88.728	313.253	0.043	-0.080
-87.713	-200.000	0.001	0.312
-86.699	-101.576	-0.354	-0.085
-85.684	-32.817	0.150	0.082
-84.670	-125.793	0.179	0.027
-83.655	21.278	-0.347	-0.278
-82.640	800.000	-0.014	-0.042
-81.626	298.198	-0.170	0.309
-80.611	-163.793	0.219	0.010
-79.597	-135.503	0.169	-0.020
-78.582	371.638	0.050	0.101
-77.567	-153.666	-0.434	-0.029
-76.553	-163.710	-0.228	0.011
-75.538	-200.000	-0.069	0.301
-74.524	800.000	-0.059	0.171
-73.509	-87.915	-0.391	0.116
-72.494	-200.000	0.023	0.129
-71.480	696.944	-0.052	-0.133
-70.465	183.240	0.048	0.070
-69.451	100.559	0.192	0.219
-68.436	402.685	-0.063	-0.131
-67.422	-200.000	0.002	-0.094
-66.407	-73.638	-0.069	0.025
-65.392	55.402	0.137	0.131
-64.378	499.102	-0.094	0.214
-63.363	68.580	-0.056	0.057
-62.349	-200.000	-0.042	0.233
-61.334	33.480	-1.177	-1.007
-60.319	800.000	0.165	0.507
-59.305	499.571	-0.378	-0.858
-58.290	716.464	0.545	1.424
-57.276	800.000	0.494	1.547
-56.261	-200.000	107.897	596.270
-55.246	450.321	1479.466	3215.525
-54.232	146.064	2663.960	3519.364
-53.217	97.273	2305.738	2606.262
-52.203	36.081	2057.202	1783.783
-51.188	31.656	1975.220	1673.193
-50.173	30.124	1959.587	1646.284
-49.159	46.369	2016.200	1840.707
-48.144	46.799	2033.062	1859.911
-47.130	32.203	1991.753	1691.856
-46.115	29.858	1981.210	1661.800
-45.100	29.815	1977.942	1658.611
-44.086	29.814	1975.428	1656.428
-43.071	29.695	1973.029	1653.281
-42.057	29.600	1971.637	1651.206
-41.042	29.742	1969.449	1650.570
-40.027	29.690	1967.627	1648.520
-39.013	29.718	1965.617	1647.017
-37.998	29.772	1963.915	1646.004
-36.984	29.783	1961.371	1643.903
-35.969	29.827	1959.388	1642.572
-34.954	29.716	1958.538	1640.808
-33.940	29.811	1956.780	1640.107
-32.925	29.837	1955.200	1638.953
-31.911	29.871	1953.414	1637.689
-30.896	29.831	1951.696	1635.834
-29.881	29.827	1950.250	1634.520
-28.867	29.907	1948.671	1633.836
-27.852	29.927	1946.797	1632.378
-26.838	29.968	1944.605	1630.840
-25.823	29.934	1943.452	1629.505
-24.809	29.882	1941.818	1627.611
-23.794	29.929	1939.973	1626.417
-22.779	29.910	1937.897	1624.444
-21.765	29.759	1936.988	1622.293
-20.750	29.913	1934.878	1621.810
-19.736	29.820	1933.847	1620.067
-18.721	29.747	1931.831	1617.676
-17.706	29.799	1930.372	1616.842
-16.692	29.816	1928.455	1615.325
-15.677	29.824	1926.992	1614.101
-14.663	29.820	1925.381	1612.652
-13.648	29.811	1924.546	1611.816
-12.633	29.870	1923.066	1611.023
-11.619	29.846	1921.939	1609.809
-10.604	29.763	1920.668	1607.955
-9.590	29.812	1919.287	1607.159
-8.575	29.784	1917.731	1605.556
-7.560	29.800	1915.920	1604.107
-6.546	29.891	1915.209	1604.240
-5.531	29.862	1914.488	1603.321
-4.517	29.803	1912.983	1601.488
-3.502	29.792	1911.436	1600.031
-2.487	29.860	1910.270	1599.581
-1.473	29.884	1909.194	1598.822
-0.458	29.871	1904.052	1594.347
0.556	27.038	1884.011	1563.818
1.571	22.456	1863.963	1507.907
2.586	18.265	1885.159	1488.544
3.600	17.168	1919.634	1505.911
4.615	16.783	1914.283	1498.174
5.629	14.762	1822.181	1408.944
6.644	11.015	1715.869	1296.811
7.659	8.817	1683.997	1255.401
8.673	8.617	1680.817	1251.362
9.688	8.623	1679.752	1250.501
10.702	8.534	1678.071	1248.448
11.717	8.386	1674.605	1244.602
12.731	8.670	1672.974	1245.488
13.746	11.499	1678.994	1271.928
14.761	15.471	1687.697	1309.450
15.775	17.175	1689.562	1324.072
16.790	16.732	1687.812	1319.130
17.804	15.774	1684.004	1308.594
18.819	14.694	1680.704	1297.528
19.834	14.176	1677.860	1291.193
20.848	13.755	1676.691	1286.918
21.863	13.500	1675.152	1283.647
22.877	13.280	1673.197	1280.332
23.892	13.048	1671.817	1277.367
24.907	12.911	1671.123	1275.659
25.921	12.890	1670.074	1274.585
26.936	12.973	1668.764	1274.112
27.950	13.026	1668.040	1273.858
28.965	12.978	1667.826	1273.211
29.980	13.126	1667.058	1273.656
30.994	13.102	1665.702	1272.323
32.009	13.192	1664.423	1271.920
33.023	13.234	1663.829	1271.679
34.038	13.183	1662.512	1270.171
35.053	13.225	1661.699	1269.754
36.067	13.213	1659.790	1268.095
37.082	13.090	1659.139	1266.545
38.096	13.121	1657.956	1265.763
39.111	13.174	1657.118	1265.419
40.126	13.152	1656.917	1264.984
41.140	13.144	1655.726	1263.904
42.155	13.076	1654.151	1262.067
43.169	13.023	1652.579	1260.349
44.184	12.902	1651.917	1258.814
45.199	12.860	1650.760	1257.498
46.213	12.930	1649.044	1256.616
47.228	12.914	1648.161	1255.710
48.242	13.015	1646.972	1255.456
49.257	13.069	1645.981	1255.006
50.271	13.021	1644.843	1253.660
51.286	13.043	1643.481	1252.680
52.301	13.080	1641.551	1251.376
53.315	13.084	1640.436	1250.444
54.330	13.074	1638.609	1248.869
55.344	13.009	1637.556	1247.463
56.359	12.935	1636.082	1245.667
57.374	12.951	1635.059	1244.903
58.388	13.003	1633.666	1244.126
59.403	12.989	1632.720	1243.186
60.417	12.911	1631.404	1241.487
61.432	12.926	1630.179	1240.561
62.447	12.912	1629.192	1239.591
63.461	12.877	1627.946	1238.270
64.476	12.806	1626.914	1236.844
65.490	12.767	1626.032	1235.775
66.505	12.760	1624.716	1234.609
67.520	12.888	1623.664	1234.661
68.534	12.912	1622.834	1234.098
69.549	12.938	1621.533	1233.196
70.563	12.864	1620.348	1231.631
71.578	12.795	1619.378	1230.273
72.593	12.810	1618.384	1229.521
73.607	12.806	1616.853	1228.215
74.622	12.855	1615.639	1227.548
75.636	12.702	1615.183	1225.955
76.651	12.775	1614.639	1225.982
77.666	12.788	1613.609	1225.185
78.680	12.831	1612.678	1224.687
79.695	12.750	1611.766	1223.288
80.709	12.781	1611.186	1222.966
81.724	12.795	1610.421	1222.381
82.739	12.964	1609.326	1222.696
83.753	12.945	1608.181	1221.574
84.768	13.049	1607.184	1221.484
85.782	13.021	1606.985	1221.013
86.797	13.179	1605.407	1220.875
87.812	13.037	1605.323	1219.658
88.826	13.050	1603.737	1218.439
89.841	12.991	1602.954	1217.301
90.855	13.040	1601.517	1216.462
91.870	13.060	1600.406	1215.656
92.884	13.076	1599.730	1215.156
93.899	13.156	1598.901	1215.003
94.914	13.184	1597.041	1213.694
95.928	13.189	1596.077	1212.886
96.943	13.149	1594.742	1211.473
97.957	13.261	1593.034	1210.887
98.972	13.177	1591.329	1208.874
99.987	13.152	1590.268	1207.777
101.001	13.153	1588.649	1206.446
102.016	13.123	1587.058	1204.911
103.030	13.048	1585.848	1203.340
104.045	13.147	1584.889	1203.224
105.060	13.195	1583.240	1202.219
106.074	13.194	1581.577	1200.841
107.089	13.071	1579.966	1198.620
108.103	12.936	1578.754	1196.613
109.118	12.928	1577.310	1195.353
110.133	12.861	1576.077	1193.829
111.147	12.904	1574.675	1192.972
112.162	12.914	1573.164	1191.794
113.176	12.946	1571.615	1190.748
114.191	12.911	1570.337	1189.424
115.206	13.004	1569.421	1189.290
116.220	12.973	1568.171	1188.019
117.235	12.964	1566.998	1186.958
118.249	13.017	1565.405	1186.029
119.264	12.976	1564.402	1184.872
120.279	12.993	1562.996	1183.818
121.293	12.942	1561.054	1181.880
122.308	12.918	1560.113	1180.893
123.322	12.830	1558.507	1178.943
124.337	12.883	1557.250	1178.263
125.352	12.888	1555.985	1177.238
126.366	12.872	1554.769	1176.101
127.381	12.842	1553.937	1175.157
128.395	12.920	1552.451	1174.480
129.410	12.883	1551.031	1173.044
130.424	12.873	1549.674	1171.841
131.439	12.918	1548.737	1171.347
132.454	12.949	1547.132	1170.249
133.468	12.948	1546.225	1169.455
134.483	13.027	1544.307	1168.458
135.497	13.081	1542.780	1167.582
136.512	13.080	1541.390	1166.416
137.527	13.030	1540.532	1165.316
138.541	13.057	1539.281	1164.452
139.556	13.067	1537.633	1163.173
140.570	13.091	1536.239	1162.189
141.585	13.113	1534.858	1161.195
142.600	13.127	1533.998	1160.539
143.614	13.198	1532.633	1159.899
144.629	13.302	1531.621	1159.760
145.643	13.295	1530.207	1158.542
146.658	13.293	1529.091	1157.582
147.673	13.209	1527.896	1155.982
148.687	13.199	1525.967	1154.354
149.702	13.169	1524.713	1153.093
150.716	13.135	1523.078	1151.517
151.731	13.104	1521.820	1150.249
152.746	13.228	1520.150	1149.744
153.760	13.130	1518.927	1148.039
154.775	13.164	1517.636	1147.197
155.789	13.258	1516.586	1146.957
156.804	13.261	1515.931	1146.377
157.819	13.269	1514.379	1145.160
158.833	13.305	1513.290	1144.486
159.848	13.347	1512.260	1143.893
160.862	13.400	1511.009	1143.211
161.877	13.406	1509.695	1142.158
162.892	13.356	1508.325	1140.674
163.906	13.346	1506.902	1139.428
164.921	13.181	1506.091	1137.580
165.935	13.210	1504.903	1136.784
166.950	13.192	1504.121	1135.963
167.964	13.302	1502.930	1135.719
168.979	13.343	1501.994	1135.196
169.994	13.322	1500.956	1134.165
171.008	13.365	1499.723	1133.432
172.023	13.415	1498.728	1132.920
173.037	13.362	1497.595	1131.601
174.052	13.352	1496.741	1130.790
175.067	13.404	1495.670	1130.233
176.081	13.404	1493.673	1128.625
177.096	13.355	1492.632	1127.401
178.110	13.370	1491.193	1126.320
179.125	13.281	1490.307	1124.946
180.140	13.413	1489.368	1125.036
181.154	13.347	1488.211	1123.614
182.169	13.391	1487.407	1123.204
183.183	13.416	1485.756	1122.027
184.198	13.465	1484.855	1121.578
185.213	13.492	1483.904	1120.946
186.227	13.510	1482.986	1120.276
187.242	13.623	1481.575	1119.875
188.256	13.642	1480.625	1119.182
189.271	13.656	1479.641	1118.432
190.286	13.762	1478.472	1118.165
191.300	13.681	1477.488	1116.779
192.315	13.417	1476.202	1113.934
193.329	13.345	1474.808	1112.295
194.344	13.283	1473.920	1111.109
195.359	13.325	1472.702	1110.376
196.373	13.513	1471.737	1110.812
197.388	13.505	1470.894	1110.026
198.402	13.591	1469.996	1109.826
199.417	13.633	1468.618	1108.966
200.432	13.636	1468.354	1108.687
201.446	13.833	1466.954	1108.850
202.461	13.854	1465.646	1107.906
203.475	13.833	1464.781	1107.015
204.490	13.873	1463.664	1106.338
205.504	13.857	1462.178	1105.010
206.519	13.685	1461.216	1103.043
207.534	13.731	1460.410	1102.637
208.548	13.731	1458.560	1101.148
209.563	13.747	1457.706	1100.509
210.577	13.839	1456.673	1100.244
211.592	13.878	1455.349	1099.400
212.607	13.874	1455.048	1099.050
213.621	13.979	1454.224	1099.030
214.636	13.955	1453.371	1098.123
215.650	13.928	1452.544	1097.225
216.665	13.998	1451.713	1096.964
217.680	13.921	1450.930	1095.769
218.694	13.984	1450.203	1095.534
219.709	14.086	1449.176	1095.337
220.723	14.104	1447.972	1094.449
221.738	14.044	1446.953	1093.183
222.753	14.024	1446.581	1092.676
223.767	13.968	1445.466	1091.368
224.782	14.034	1444.413	1090.908
225.796	14.069	1443.134	1090.077
226.811	14.178	1442.300	1090.065
227.826	14.133	1441.807	1089.299
228.840	14.128	1441.036	1088.591
229.855	14.041	1439.945	1087.097
230.869	14.105	1439.245	1086.897
231.884	14.115	1438.281	1086.132
232.899	14.151	1436.463	1084.899
233.913	14.079	1435.381	1083.521
234.928	13.995	1434.387	1082.125
235.942	13.924	1433.527	1080.917
236.957	13.954	1431.850	1079.756
237.972	14.047	1430.683	1079.380
238.986	14.093	1429.748	1078.877
240.001	14.096	1428.606	1077.944
241.015	14.161	1427.302	1077.283
242.030	13.952	1426.841	1075.488
243.045	14.122	1425.747	1075.667
244.059	14.079	1424.916	1074.669
245.074	14.147	1423.972	1074.298
246.088	14.197	1423.336	1074.048
247.103	14.276	1422.369	1073.729
248.117	14.316	1421.423	1073.178
249.132	14.337	1420.684	1072.661
250.147	14.391	1420.412	1072.708
251.161	14.480	1419.916	1072.811
252.176	14.547	1418.993	1072.451
253.190	14.677	1417.912	1072.376
254.205	14.655	1417.317	1071.689
255.220	14.694	1416.226	1071.016
256.234	14.727	1415.491	1070.583
257.249	14.767	1414.430	1069.938
258.263	14.757	1413.826	1069.321
259.278	14.720	1412.888	1068.282
260.293	14.671	1411.907	1067.136
261.307	14.802	1410.971	1067.170
262.322	14.750	1410.802	1066.611
263.336	14.867	1409.838	1066.539
264.351	14.756	1408.799	1064.951
265.366	14.848	1407.804	1064.688
266.380	14.862	1407.258	1064.269
267.395	14.851	1405.981	1063.144
268.409	14.832	1405.196	1062.333
269.424	14.877	1403.597	1061.316
270.439	14.730	1403.239	1060.021
271.453	14.899	1401.694	1059.826
272.468	14.799	1401.116	1058.664
273.482	14.806	1400.303	1058.000
274.497	14.786	1399.602	1057.251
275.512	14.766	1398.841	1056.455
276.526	14.813	1397.738	1055.825
277.541	14.815	1396.568	1054.862
278.555	14.907	1395.885	1054.835
279.570	14.851	1394.933	1053.666
280.585	14.851	1394.592	1053.319
281.599	14.979	1393.698	1053.355
282.614	15.039	1392.594	1052.804
283.628	15.017	1391.593	1051.818
284.643	14.983	1390.262	1050.505
285.657	15.017	1389.123	1049.765
286.672	14.854	1388.881	1048.464
287.687	15.018	1387.296	1048.200
288.701	15.046	1386.120	1047.396
289.716	15.027	1385.834	1046.966
290.730	15.047	1384.606	1046.071
291.745	15.007	1383.978	1045.258
292.760	15.130	1382.795	1045.039
293.774	15.062	1381.871	1043.823
294.789	15.040	1381.005	1042.941
295.803	15.166	1380.305	1043.102
296.818	15.119	1379.735	1042.289
297.833	15.145	1378.547	1041.463
298.847	15.168	1377.111	1040.425
299.862	15.088	1376.366	1039.275
300.876	15.153	1375.549	1038.970
301.891	15.139	1374.532	1038.020
302.906	15.150	1373.869	1037.498
303.920	15.348	1372.844	1037.857
304.935	15.302	1372.317	1037.082
305.949	15.285	1371.646	1036.379
306.964	15.379	1371.137	1036.483
307.979	15.421	1369.781	1035.625
308.993	15.342	1368.954	1034.418
310.008	15.349	1367.841	1033.534
311.022	15.430	1366.744	1033.109
312.037	15.473	1365.647	1032.454
313.052	15.489	1365.303	1032.203
314.066	15.493	1364.054	1031.190
315.081	15.369	1362.866	1029.437
316.095	15.406	1361.889	1028.836
317.110	15.388	1360.632	1027.685
318.125	15.344	1360.260	1027.044
319.139	15.376	1358.734	1025.997
320.154	15.411	1358.147	1025.679
321.168	15.381	1357.229	1024.708
322.183	15.354	1355.952	1023.491
323.197	15.389	1355.500	1023.274
324.212	15.478	1354.054	1022.629
325.227	15.445	1353.613	1022.006
326.241	15.458	1352.633	1021.256
327.256	15.412	1351.832	1020.285
328.270	15.461	1351.484	1020.224
329.285	15.488	1350.143	1019.286
330.300	15.413	1349.474	1018.240
331.314	15.437	1348.209	1017.339
332.329	15.503	1347.298	1016.962
333.343	15.495	1346.667	1016.347
334.358	15.549	1345.601	1015.777
335.373	15.516	1344.814	1014.897
336.387	15.583	1344.504	1014.978
337.402	15.639	1343.270	1014.291
338.416	15.651	1342.563	1013.741
339.431	15.664	1342.195	1013.455
340.446	15.732	1341.297	1013.092
341.460	15.746	1340.464	1012.458
342.475	15.833	1339.435	1012.116
343.489	15.844	1338.512	1011.393
344.504	15.897	1337.345	1010.741
345.519	15.906	1336.552	1010.107
346.533	15.983	1335.841	1009.942
347.548	15.919	1335.259	1009.030
348.562	15.997	1334.137	1008.557
349.577	15.973	1333.651	1007.961
350.592	15.949	1332.529	1006.875
351.606	15.973	1331.782	1006.365
352.621	15.856	1330.650	1004.723
353.635	15.867	1329.521	1003.850
354.650	15.816	1328.789	1002.905
355.665	15.898	1327.865	1002.609
356.679	15.883	1326.576	1001.454
357.694	15.819	1326.138	1000.655
358.708	15.980	1324.423	1000.227
359.723	15.994	1323.452	999.488
360.738	16.077	1322.344	999.058
361.752	16.062	1321.423	998.181
362.767	15.950	1320.344	996.616
363.781	15.967	1319.452	995.954
364.796	16.119	1318.763	996.245
365.810	16.147	1318.370	996.027
366.825	16.105	1317.880	995.321
367.840	16.197	1316.472	994.714
368.854	16.229	1316.141	994.560
369.869	16.286	1315.589	994.392
370.883	16.313	1314.975	994.000
371.898	16.355	1314.075	993.475
372.913	16.270	1313.730	992.632
373.927	16.250	1312.661	991.617
374.942	16.286	1311.814	991.102
375.956	16.354	1310.814	990.658
376.971	16.358	1309.807	989.828
377.986	16.292	1309.281	988.956
379.000	16.295	1308.731	988.474
380.015	16.359	1307.926	988.155
381.029	16.408	1306.958	987.620
382.044	16.546	1306.162	987.736
383.059	16.526	1305.531	987.053
384.073	16.447	1305.344	986.368
385.088	16.554	1303.984	985.875
386.102	16.557	1303.709	985.598
387.117	16.472	1303.122	984.573
388.132	16.597	1301.834	984.239
389.146	16.508	1300.993	982.996
390.161	16.525	1300.320	982.504
391.175	16.503	1299.594	981.740
392.190	16.447	1298.755	980.691
393.205	16.392	1297.884	979.627
394.219	16.534	1296.882	979.611
395.234	16.707	1295.779	979.690
396.248	16.521	1294.714	977.721
397.263	16.557	1293.108	976.633
398.278	16.478	1292.198	975.402
399.292	16.595	1290.271	974.533
400.307	16.519	1289.726	973.599
401.321	16.538	1288.776	972.905
402.336	16.521	1287.758	971.954
403.350	16.584	1286.491	971.275
404.365	16.514	1285.932	970.362
405.380	16.517	1285.157	969.712
406.394	16.535	1284.529	969.255
407.409	16.635	1283.739	969.143
408.423	16.668	1282.916	968.624
409.438	16.722	1282.039	968.187
410.453	16.861	1280.960	968.079
411.467	16.901	1280.670	968.004
412.482	16.873	1280.230	967.423
413.496	16.897	1279.643	967.031
414.511	16.880	1279.116	966.453
415.526	16.929	1277.830	965.673
416.540	17.042	1277.213	965.767
417.555	16.967	1277.018	965.104
418.569	16.992	1276.512	964.779
419.584	17.078	1275.679	964.556
420.599	17.044	1274.764	963.584
421.613	95.353	1353.681	1471.463
422.628	93.101	1365.142	1471.558
