DTS Sentinel unit serial number:	SN413079Multiplexer serial number:	ORYXHardware model number:	OX4-SRSoftware version number:	ORYX F/W v4.00 Oryx Data Collector v3.7.2.0data status	okinstallation	princeton_trtdifferential loss correction	single-endedforward channel	channel 4reverse channel	N/Adate	2019/09/15time	04:45:34forward acquisition time	60.00reverse acquisition time	0.00gamma	496.2192k internal	0.2311k external	0.2311temperature offset calibration	1.0036default loss term (dB/km)	0.3790temperature slope calibration	1.0000multiplexer offset coefficient	1.0000multiplexer slope coefficient	1.0000fibre end	0.00T internal ref (°C)	30.80T ext. ref 1 (°C)	4.74T ext. ref 2 (°C)	25.33length (m)	temperature (°C)	Stokes	anti-Stokes-747.200	-21.077	-0.132	-0.082
-746.185	406.578	0.079	0.168
-745.171	125.532	-0.029	0.037
-744.156	-200.000	0.097	0.551
-743.142	-0.337	-0.380	-0.274
-742.127	-112.793	0.208	0.042
-741.112	-84.054	0.244	-0.079
-740.098	-80.658	-0.215	0.073
-739.083	290.565	0.139	0.256
-738.069	800.000	-0.026	-0.112
-737.054	-34.658	0.074	-0.041
-736.039	336.243	-0.133	0.262
-735.025	-32.456	0.347	0.197
-734.010	-131.150	-0.256	-0.035
-732.996	-77.433	0.122	0.043
-731.981	-65.250	-0.192	0.078
-730.966	-139.318	-0.212	0.023
-729.952	-128.829	-0.183	0.026
-728.937	-200.000	0.038	-0.197
-727.923	-27.088	0.151	-0.089
-726.908	154.771	-0.178	-0.248
-725.894	800.000	0.098	-0.412
-724.879	11.556	0.072	-0.056
-723.864	-61.112	0.217	0.093
-722.850	-98.559	0.079	-0.020
-721.835	800.000	0.037	-0.135
-720.821	-13.848	-0.276	-0.181
-719.806	681.529	0.114	0.301
-718.791	67.472	0.099	0.102
-717.777	97.012	-0.200	0.233
-716.762	-200.000	0.002	0.248
-715.748	-200.000	0.003	0.340
-714.733	800.000	-0.060	-0.196
-713.718	-185.537	-0.028	-0.000
-712.704	204.493	-0.030	0.047
-711.689	197.762	0.087	0.135
-710.675	-32.932	0.322	-0.181
-709.660	800.000	0.013	-0.050
-708.645	-200.000	0.016	0.322
-707.631	233.456	-0.070	0.117
-706.616	-1.612	-0.108	0.077
-705.602	348.471	-0.046	-0.092
-704.587	-200.000	0.001	-0.066
-703.572	-97.607	-0.073	-0.019
-702.558	800.000	0.030	-0.133
-701.543	-200.000	0.007	0.061
-700.529	-147.515	-0.140	-0.012
-699.514	-34.275	0.236	0.131
-698.499	702.370	0.050	-0.135
-697.485	800.000	0.106	-0.349
-696.470	-200.000	0.009	-0.162
-695.456	484.664	0.069	0.160
-694.441	124.489	0.073	-0.093
-693.426	157.533	-0.243	-0.340
-692.412	313.778	-0.111	-0.211
-691.397	-200.000	0.003	-0.108
-690.383	458.865	-0.017	-0.039
-689.368	-140.924	0.162	0.017
-688.354	219.251	-0.154	0.250
-687.339	369.720	-0.115	-0.236
-686.324	-155.682	-0.278	-0.018
-685.310	81.437	-0.123	0.135
-684.295	-200.000	-0.039	-0.200
-683.281	-12.567	-0.154	0.102
-682.266	-200.000	-0.036	-0.351
-681.251	198.850	0.152	-0.235
-680.237	-13.715	-0.157	0.103
-679.222	132.830	-0.085	0.110
-678.208	57.669	-0.276	0.273
-677.193	-200.000	0.008	0.052
-676.178	-72.184	0.045	-0.017
-675.164	-200.000	-0.028	-0.175
-674.149	-200.000	-0.019	-0.263
-673.135	-54.381	-0.232	0.106
-672.120	1.790	0.321	-0.234
-671.105	334.675	0.079	-0.155
-670.091	-160.311	-0.079	-0.004
-669.076	-46.553	-0.172	-0.086
-668.062	-48.210	-0.043	-0.021
-667.047	581.646	-0.152	0.378
-666.032	77.865	0.046	-0.050
-665.018	-200.000	0.013	-0.253
-664.003	-31.836	0.158	-0.090
-662.989	-21.828	0.153	0.094
-661.974	26.904	-0.150	0.127
-660.959	-200.000	0.069	-0.310
-659.945	12.619	0.054	-0.043
-658.930	59.775	-0.135	-0.135
-657.916	-120.815	-0.091	0.016
-656.901	-200.000	-0.014	-0.192
-655.886	5.301	0.207	0.155
-654.872	-68.560	-0.420	0.165
-653.857	-170.923	0.034	-0.001
-652.843	-161.376	-0.207	0.011
-651.828	27.091	0.280	-0.238
-650.814	-71.351	0.272	-0.103
-649.799	99.999	-0.271	-0.318
-648.784	284.457	-0.059	0.107
-647.770	-76.441	0.103	0.037
-646.755	-200.000	-0.033	-0.258
-645.741	-112.097	0.245	-0.050
-644.726	-200.000	-0.000	0.041
-643.711	-29.399	0.114	0.066
-642.697	17.723	-0.193	0.156
-641.682	-200.000	-0.014	-0.156
-640.668	81.795	0.067	-0.074
-639.653	800.000	0.022	0.090
-638.638	-86.462	0.111	-0.034
-637.624	-117.239	0.274	-0.050
-636.609	800.000	-0.057	-0.237
-635.595	74.276	-0.119	0.126
-634.580	800.000	-0.058	0.208
-633.565	-2.940	-0.088	0.062
-632.551	71.968	0.215	-0.226
-631.536	-60.418	-0.313	-0.135
-630.522	436.356	0.123	-0.272
-629.507	163.516	-0.095	-0.135
-628.492	-177.288	-0.154	-0.004
-627.478	57.922	-0.091	-0.090
-626.463	-163.913	0.252	0.012
-625.449	105.288	-0.082	-0.097
-624.434	308.818	0.067	0.126
-623.419	50.705	-0.227	-0.217
-622.405	103.151	-0.145	-0.171
-621.390	115.663	0.167	0.206
-620.376	406.658	-0.112	0.239
-619.361	-44.028	0.358	0.182
-618.346	-200.000	0.011	-0.363
-617.332	-50.368	-0.194	0.092
-616.317	24.669	0.159	0.133
-615.303	4.843	0.183	0.136
-614.288	12.343	-0.135	0.105
-613.273	-200.000	0.006	-0.095
-612.259	-200.000	-0.066	-0.302
-611.244	800.000	-0.071	-0.200
-610.230	-200.000	0.023	-0.211
-609.215	-200.000	0.020	0.216
-608.201	-200.000	0.032	-0.315
-607.186	46.941	-0.132	-0.124
-606.171	-119.389	-0.051	-0.009
-605.157	800.000	-0.048	0.172
-604.142	-180.944	-0.174	-0.004
-603.128	-127.371	0.060	0.009
-602.113	245.484	-0.085	-0.145
-601.098	162.269	-0.037	0.053
-600.084	15.225	-0.051	-0.041
-599.069	-129.460	0.110	0.015
-598.055	30.341	-0.100	0.086
-597.040	-200.000	-0.033	-0.241
-596.025	-200.000	0.006	0.318
-595.011	-200.000	0.033	-0.204
-593.996	137.920	0.045	-0.060
-592.982	-125.931	-0.224	0.034
-591.967	800.000	-0.068	0.264
-590.952	187.466	0.127	0.191
-589.938	-200.000	0.011	0.282
-588.923	-37.033	-0.191	0.103
-587.909	31.316	0.100	-0.087
-586.894	78.174	0.117	-0.126
-585.879	-160.931	0.206	-0.011
-584.865	-19.652	0.300	0.188
-583.850	361.833	0.052	0.105
-582.836	20.079	-0.113	-0.092
-581.821	800.000	-0.030	0.105
-580.806	-101.082	0.082	0.020
-579.792	-154.476	-0.226	-0.015
-578.777	800.000	0.081	-0.260
-577.763	-160.221	0.139	0.008
-576.748	-21.404	-0.093	-0.057
-575.733	179.878	-0.008	-0.012
-574.719	-200.000	-0.025	0.155
-573.704	-200.000	0.016	-0.170
-572.690	-97.874	0.374	0.097
-571.675	-136.397	0.200	-0.023
-570.661	84.530	-0.148	-0.163
-569.646	-146.196	0.311	-0.028
-568.631	231.581	0.090	0.149
-567.617	-200.000	0.033	-0.231
-566.602	-145.531	-0.247	-0.022
-565.588	-66.741	-0.019	-0.008
-564.573	800.000	-0.032	0.141
-563.558	6.963	0.293	-0.220
-562.544	268.006	0.126	0.223
-561.529	-200.000	0.000	-0.149
-560.515	-42.157	-0.465	0.240
-559.500	-100.921	-0.292	0.072
-558.485	79.527	-0.141	-0.152
-557.471	59.960	0.068	-0.067
-556.456	-19.278	0.225	-0.141
-555.442	-172.058	0.191	0.006
-554.427	800.000	-0.032	0.094
-553.412	763.730	0.126	-0.346
-552.398	-56.745	0.170	0.076
-551.383	-21.913	0.183	0.112
-550.369	46.637	-0.286	0.267
-549.354	-200.000	-0.008	0.234
-548.339	18.885	-0.108	0.087
-547.325	-100.504	0.207	-0.052
-546.310	-132.928	-0.148	0.019
-545.296	-124.993	0.183	-0.028
-544.281	-71.259	-0.189	0.071
-543.266	-200.000	0.004	0.113
-542.252	-8.166	0.178	0.121
-541.237	-75.344	0.122	-0.044
-540.223	-3.804	-0.152	0.106
-539.208	-44.172	0.013	-0.006
-538.193	173.837	-0.206	0.299
-537.179	800.000	-0.029	0.118
-536.164	-41.104	0.251	-0.130
-535.150	92.041	-0.157	-0.178
-534.135	-73.533	0.358	-0.132
-533.121	800.000	0.083	0.304
-532.106	-94.631	-0.085	0.023
-531.091	-200.000	-0.035	0.269
-530.077	-144.472	-0.148	-0.014
-529.062	101.389	0.116	0.136
-528.048	45.198	-0.147	0.137
-527.033	-200.000	0.015	0.108
-526.018	-61.765	-0.392	-0.165
-525.004	95.319	-0.182	-0.209
-523.989	252.192	0.151	-0.259
-522.975	-143.972	0.507	-0.048
-521.960	145.143	-0.014	0.019
-520.945	44.463	0.112	-0.103
-519.931	-5.910	-0.141	-0.097
-518.916	-200.000	-0.033	0.311
-517.902	24.553	0.217	0.181
-516.887	-27.812	-0.194	0.113
-515.872	-11.537	0.106	-0.070
-514.858	-27.115	-0.057	0.034
-513.843	-36.525	-0.121	0.065
-512.829	20.643	0.223	-0.181
-511.814	9.321	-0.259	-0.197
-510.799	-200.000	0.043	-0.301
-509.785	-47.353	-0.168	-0.082
-508.770	-128.406	0.252	0.036
-507.756	80.944	-0.232	-0.251
-506.741	-161.376	-0.385	0.020
-505.726	-80.104	0.252	-0.085
-504.712	188.237	-0.110	0.166
-503.697	97.089	0.127	-0.146
-502.683	-13.716	-0.147	-0.096
-501.668	122.663	0.060	-0.076
-500.653	153.565	-0.127	0.175
-499.639	-104.500	-0.251	0.058
-498.624	-33.112	-0.378	0.211
-497.610	-200.000	-0.006	-0.153
-496.595	-200.000	0.009	0.079
-495.581	-73.155	-0.262	-0.096
-494.566	-200.000	0.007	-0.141
-493.551	152.509	-0.078	-0.107
-492.537	800.000	0.082	0.331
-491.522	11.034	-0.112	0.086
-490.508	-61.175	-0.138	0.059
-489.493	17.436	-0.195	0.155
-488.478	21.367	-0.238	0.194
-487.464	-132.083	0.220	-0.029
-486.449	800.000	0.069	-0.217
-485.435	800.000	-0.030	0.086
-484.420	58.648	0.259	0.256
-483.405	-47.034	-0.178	-0.087
-482.391	-134.113	0.272	0.034
-481.376	143.208	-0.115	-0.154
-480.362	-123.877	0.140	0.022
-479.347	18.074	-0.128	0.102
-478.332	135.218	0.061	0.079
-477.318	-200.000	-0.045	-0.238
-476.303	43.592	0.219	-0.202
-475.289	-95.227	0.285	0.077
-474.274	148.634	0.072	-0.098
-473.259	-39.593	-0.405	-0.213
-472.245	-51.066	0.128	0.060
-471.230	-83.500	-0.041	-0.013
-470.216	800.000	-0.065	0.196
-469.201	124.108	-0.214	-0.269
-468.186	73.049	-0.286	-0.301
-467.172	651.685	0.100	0.258
-466.157	800.000	-0.131	-0.449
-465.143	315.364	0.138	0.261
-464.128	212.629	-0.077	-0.122
-463.113	-161.991	-0.258	0.013
-462.099	-200.000	0.035	0.280
-461.084	-200.000	-0.037	-0.235
-460.070	800.000	-0.053	0.177
-459.055	2.774	0.040	-0.029
-458.040	144.007	-0.285	0.382
-457.026	153.580	-0.027	0.037
-456.011	56.473	-0.125	-0.122
-454.997	344.540	-0.084	0.165
-453.982	-36.899	0.321	0.173
-452.968	303.973	-0.061	-0.114
-451.953	-200.000	0.014	0.261
-450.938	131.673	-0.073	-0.094
-449.924	800.000	-0.077	-0.230
-448.909	800.000	0.020	0.060
-447.895	58.885	-0.121	0.120
-446.880	-200.000	-0.017	-0.234
-445.865	-36.394	0.225	0.122
-444.851	-67.989	0.037	0.015
-443.836	534.451	-0.188	-0.448
-442.822	-42.842	-0.147	-0.075
-441.807	-146.353	0.186	0.016
-440.792	38.266	-0.202	-0.181
-439.778	160.157	-0.102	-0.142
-438.763	-28.295	0.257	-0.149
-437.749	-137.363	0.200	0.023
-436.734	-83.591	-0.147	0.047
-435.719	-133.830	0.214	-0.027
-434.705	800.000	-0.024	-0.074
-433.690	-200.000	-0.042	0.284
-432.676	-94.977	-0.278	0.075
-431.661	288.319	-0.236	0.428
-430.646	34.313	-0.263	-0.230
-429.632	162.604	-0.050	0.071
-428.617	-161.569	-0.095	-0.005
-427.603	800.000	-0.036	0.155
-426.588	-9.192	0.326	-0.219
-425.573	-89.563	0.307	0.090
-424.559	73.455	0.250	0.262
-423.544	-148.787	-0.131	0.011
-422.530	-200.000	0.008	0.113
-421.515	800.000	-0.084	0.334
-420.500	33.100	0.132	0.114
-419.486	-79.526	0.435	0.147
-418.471	242.067	-0.037	0.062
-417.457	-150.695	-0.334	0.026
-416.442	53.662	-0.264	-0.254
-415.428	51.481	-0.214	0.204
-414.413	-34.273	0.292	0.161
-413.398	570.534	-0.076	0.186
-412.384	651.220	0.041	0.105
-411.369	-200.000	0.008	0.114
-410.355	111.834	0.080	0.096
-409.340	800.000	-0.073	-0.311
-408.325	-200.000	-0.041	-0.445
-407.311	-131.721	0.091	0.012
-406.296	-97.161	-0.232	0.061
-405.282	-200.000	0.020	0.143
-404.267	-144.643	-0.281	-0.026
-403.252	70.198	0.048	0.050
-402.238	-62.289	0.228	0.095
-401.223	-58.512	0.273	0.119
-400.209	9.931	0.074	0.056
-399.194	800.000	-0.142	0.412
-398.179	-78.170	-0.373	0.129
-397.165	202.022	-0.124	-0.192
-396.150	77.575	0.133	-0.142
-395.136	11.253	-0.213	0.164
-394.121	491.240	0.037	-0.084
-393.106	800.000	0.039	0.127
-392.092	-162.018	-0.279	-0.014
-391.077	-191.243	0.158	-0.002
-390.063	693.368	0.058	-0.153
-389.048	-200.000	-0.013	-0.293
-388.033	155.451	0.076	0.105
-387.019	800.000	-0.059	0.253
-386.004	-20.262	0.283	0.175
-384.990	-152.726	-0.402	-0.029
-383.975	390.515	-0.122	0.253
-382.960	-54.790	-0.065	-0.029
-381.946	97.365	-0.067	-0.077
-380.931	-131.730	-0.191	0.025
-379.917	35.469	0.121	-0.107
-378.902	152.265	-0.225	-0.308
-377.888	-200.000	0.066	-0.299
-376.873	353.657	-0.046	0.090
-375.858	225.015	0.098	-0.159
-374.844	-200.000	-0.215	-0.001
-373.829	-68.557	-0.071	-0.028
-372.815	-26.886	0.194	0.113
-371.800	-84.382	0.258	0.082
-370.785	-59.004	-0.070	0.030
-369.771	551.345	0.184	-0.441
-368.756	-176.612	0.047	0.001
-367.742	-27.016	-0.155	-0.091
-366.727	46.302	0.124	0.115
-365.712	696.024	-0.101	0.265
-364.698	800.000	0.066	-0.242
-363.683	-200.000	0.017	-0.141
-362.669	-200.000	-0.054	-0.346
-361.654	-98.826	-0.030	0.008
-360.639	-200.000	0.022	0.099
-359.625	14.465	0.172	-0.134
-358.610	-22.729	-0.148	0.089
-357.596	-176.092	-0.051	0.001
-356.581	-50.899	0.239	-0.112
-355.566	-72.086	0.218	0.081
-354.552	-179.380	-0.262	-0.006
-353.537	-40.901	0.050	0.026
-352.523	-200.000	-0.048	0.331
-351.508	6.766	-0.174	0.129
-350.493	437.498	0.117	-0.255
-349.479	-44.705	-0.272	0.136
-348.464	800.000	0.048	0.192
-347.450	-87.029	0.415	0.126
-346.435	-10.818	-0.130	0.086
-345.420	-84.797	0.219	-0.069
-344.406	256.449	0.043	-0.074
-343.391	472.214	-0.148	-0.333
-342.377	-140.977	0.328	-0.034
-341.362	-103.213	0.168	-0.040
-340.348	-75.829	0.166	-0.059
-339.333	-134.195	0.167	-0.021
-338.318	294.041	0.074	0.134
-337.304	115.618	-0.018	-0.022
-336.289	-64.909	0.072	-0.029
-335.275	-16.995	-0.129	-0.081
-334.260	-51.886	0.292	0.136
-333.245	-82.940	-0.253	-0.082
-332.231	-65.577	-0.084	-0.034
-331.216	109.803	0.113	-0.135
-330.202	-200.000	0.028	0.128
-329.187	-200.000	0.016	0.318
-328.172	-200.000	-0.011	0.094
-327.158	161.946	-0.228	0.319
-326.143	-97.337	-0.162	-0.042
-325.129	800.000	-0.076	0.234
-324.114	-32.443	0.249	0.139
-323.099	6.419	0.183	0.135
-322.085	192.490	0.125	0.188
-321.070	-29.518	-0.017	-0.010
-320.056	800.000	-0.071	0.249
-319.041	195.558	0.157	-0.239
-318.026	-74.253	-0.168	-0.060
-317.012	-186.279	0.062	0.001
-315.997	53.800	-0.209	0.201
-314.983	10.523	-0.205	-0.156
-313.968	-16.360	0.301	0.190
-312.953	261.204	-0.154	-0.267
-311.939	228.279	0.139	-0.226
-310.924	-20.606	0.118	0.072
-309.910	-94.586	-0.124	0.034
-308.895	-73.817	-0.076	-0.028
-307.880	66.382	-0.156	-0.158
-306.866	-200.000	-0.014	0.203
-305.851	-51.464	-0.367	-0.171
-304.837	-68.963	-0.214	-0.082
-303.822	-30.501	0.093	0.052
-302.807	-54.833	-0.108	0.049
-301.793	53.973	-0.069	0.066
-300.778	437.442	0.158	-0.343
-299.764	164.171	-0.227	-0.319
-298.749	4.349	0.089	0.065
-297.735	-200.000	0.015	0.129
-296.720	-80.944	-0.105	-0.035
-295.705	380.463	0.075	0.154
-294.691	-200.000	-0.003	-0.149
-293.676	547.303	-0.065	-0.156
-292.662	-200.000	0.038	-0.275
-291.647	-49.050	0.177	-0.085
-290.632	140.778	0.053	0.070
-289.618	-6.452	-0.208	-0.141
-288.603	-49.788	0.069	-0.033
-287.589	46.929	0.195	0.181
-286.574	-200.000	0.010	-0.071
-285.559	670.745	-0.032	-0.082
-284.545	85.508	0.047	-0.052
-283.530	-108.066	0.200	-0.043
-282.516	-200.000	0.022	-0.159
-281.501	165.400	-0.160	-0.226
-280.486	-31.308	-0.054	-0.030
-279.472	-137.390	-0.323	-0.036
-278.457	75.218	0.077	-0.081
-277.443	-118.980	-0.350	0.061
-276.428	-116.870	0.128	0.023
-275.413	-94.099	-0.064	0.018
-274.399	-88.242	0.190	0.057
-273.384	-99.821	-0.267	-0.067
-272.370	71.275	0.203	-0.210
-271.355	-200.000	0.036	0.166
-270.340	-200.000	0.036	0.157
-269.326	-132.314	-0.191	-0.025
-268.311	74.595	0.187	0.196
-267.297	-200.000	-0.071	-0.414
-266.282	287.047	-0.066	0.119
-265.267	57.880	0.369	-0.360
-264.253	-200.000	-0.005	-0.157
-263.238	232.988	0.100	0.163
-262.224	-115.577	-0.412	-0.077
-261.209	-40.370	0.113	0.059
-260.195	800.000	-0.065	-0.227
-259.180	575.653	0.061	-0.149
-258.165	-200.000	-0.019	-0.178
-257.151	130.566	0.159	-0.203
-256.136	800.000	-0.037	0.125
-255.122	52.653	-0.245	0.233
-254.107	-200.000	-0.028	0.132
-253.092	-149.495	0.359	0.028
-252.078	-130.455	-0.057	-0.008
-251.063	-200.000	0.005	-0.034
-250.049	209.410	0.092	-0.143
-249.034	-75.253	-0.213	-0.076
-248.019	-122.996	-0.024	0.004
-247.005	17.133	0.142	0.112
-245.990	-135.200	-0.259	0.031
-244.976	-21.505	-0.100	0.060
-243.961	95.314	0.082	0.093
-242.946	247.806	-0.100	-0.168
-241.932	800.000	0.079	0.223
-240.917	167.576	-0.046	0.065
-239.903	-73.628	0.230	0.083
-238.888	118.931	-0.243	-0.299
-237.873	764.990	-0.007	0.020
-236.859	88.647	-0.058	-0.064
-235.844	-7.919	0.248	0.166
-234.830	253.598	-0.059	0.101
-233.815	-200.000	0.093	-0.417
-232.800	-135.661	-0.309	-0.036
-231.786	-182.601	0.253	-0.005
-230.771	115.061	0.115	-0.140
-229.757	-140.691	0.284	0.029
-228.742	82.138	-0.224	-0.242
-227.727	-192.355	0.157	-0.001
-226.713	-36.870	-0.354	0.189
-225.698	-107.006	-0.063	0.014
-224.684	-172.419	0.304	-0.010
-223.669	-37.702	-0.140	-0.074
-222.655	556.254	-0.079	-0.189
-221.640	125.194	0.173	0.217
-220.625	68.096	0.141	0.143
-219.611	800.000	0.068	0.209
-218.596	3.789	0.127	-0.092
-217.582	-112.626	-0.127	0.025
-216.567	-54.465	-0.076	0.034
-215.552	66.095	0.300	0.303
-214.538	-200.000	0.001	-0.092
-213.523	-43.739	-0.105	-0.053
-212.509	-121.519	-0.240	0.040
-211.494	16.692	0.289	-0.227
-210.479	151.755	-0.229	-0.310
-209.465	800.000	0.056	0.239
-208.450	-139.332	-0.076	-0.008
-207.436	-55.014	0.167	0.075
-206.421	-91.913	-0.128	0.036
-205.406	-128.064	0.116	0.016
-204.392	-198.337	0.131	0.001
-203.377	-49.588	0.184	0.087
-202.363	340.438	0.128	-0.248
-201.348	-52.308	-0.272	0.125
-200.333	40.700	0.071	-0.064
-199.319	-40.043	-0.059	0.031
-198.304	567.342	-0.087	0.210
-197.290	135.153	-0.121	0.156
-196.275	-16.610	-0.246	-0.155
-195.260	86.160	0.149	-0.163
-194.246	-114.697	-0.148	0.028
-193.231	800.000	-0.062	0.205
-192.217	-116.078	-0.075	-0.014
-191.202	-99.907	-0.162	-0.040
-190.187	-82.625	0.279	0.090
-189.173	23.966	-0.302	0.248
-188.158	-57.675	-0.324	-0.141
-187.144	57.664	0.156	0.152
-186.129	4.347	0.164	0.119
-185.114	525.252	0.149	0.349
-184.100	16.685	0.191	0.150
-183.085	-43.857	0.136	0.068
-182.071	118.489	0.074	0.090
-181.056	-200.000	0.037	0.286
-180.042	303.579	0.131	-0.241
-179.027	-200.000	-0.001	-0.109
-178.012	-103.561	0.125	0.029
-176.998	-200.000	0.258	-0.001
-175.983	-69.237	-0.103	-0.039
-174.969	205.700	0.099	0.152
-173.954	-89.788	0.179	0.052
-172.939	125.971	-0.183	0.230
-171.925	16.174	0.153	0.120
-170.910	-122.525	0.198	-0.032
-169.896	-200.000	-0.025	-0.211
-168.881	-80.043	0.225	-0.075
-167.866	-77.579	-0.036	-0.012
-166.852	318.313	-0.117	-0.220
-165.837	78.762	0.260	-0.276
-164.823	-200.000	0.006	0.465
-163.808	-136.842	-0.031	0.004
-162.793	-56.902	-0.229	-0.100
-161.779	28.576	0.205	0.172
-160.764	-169.374	0.394	-0.014
-159.750	800.000	0.172	-0.542
-158.735	115.345	-0.088	0.106
-157.720	-103.282	0.080	-0.019
-156.706	-96.728	0.133	0.035
-155.691	800.000	0.032	0.133
-154.677	72.118	-0.052	0.054
-153.662	-153.024	-0.181	0.013
-152.647	2.283	0.381	0.274
-151.633	-67.986	0.291	-0.112
-150.618	800.000	0.074	0.225
-149.604	-103.959	0.151	0.035
-148.589	204.672	-0.145	0.224
-147.574	-153.146	-0.074	-0.005
-146.560	-47.672	0.336	-0.162
-145.545	-180.760	0.279	0.006
-144.531	-171.505	-0.355	-0.012
-143.516	219.886	-0.058	-0.092
-142.502	800.000	0.057	0.224
-141.487	66.044	-0.119	-0.119
-140.472	336.608	0.236	0.454
-139.458	800.000	0.047	-0.138
-138.443	153.654	-0.226	0.307
-137.429	-56.478	0.035	0.016
-136.414	-184.211	-0.090	-0.001
-135.399	137.221	-0.202	0.261
-134.385	-142.634	0.322	-0.031
-133.370	45.195	0.354	0.324
-132.356	486.399	-0.059	-0.134
-131.341	-17.339	-0.147	-0.092
-130.326	-106.555	0.279	0.062
-129.312	-150.851	0.249	0.019
-128.297	-176.950	-0.178	-0.004
-127.283	-200.000	-0.008	0.103
-126.268	-78.997	-0.163	-0.055
-125.253	-200.000	-0.035	0.154
-124.239	28.559	0.103	-0.086
-123.224	20.251	0.212	0.170
-122.210	119.146	0.157	0.192
-121.195	5.522	0.225	0.164
-120.180	-108.945	0.137	0.029
-119.166	-200.000	0.024	0.110
-118.151	-3.518	-0.114	-0.078
-117.137	-25.051	0.203	0.119
-116.122	-27.617	-0.221	-0.127
-115.107	-71.680	0.127	-0.047
-114.093	-195.971	0.212	0.001
-113.078	800.000	-0.050	0.179
-112.064	800.000	0.127	-0.494
-111.049	332.358	0.106	-0.203
-110.034	-24.884	0.181	0.106
-109.020	594.387	0.076	0.187
-108.005	-181.587	-0.178	0.003
-106.991	-122.755	-0.078	-0.012
-105.976	37.498	0.177	0.156
-104.962	3.670	-0.222	-0.160
-103.947	-52.026	0.197	-0.091
-102.932	456.052	0.140	-0.308
-101.918	35.802	-0.232	0.202
-100.903	-200.000	-0.006	-0.105
-99.889	-95.351	0.434	0.116
-98.874	6.372	-0.204	0.150
-97.859	72.666	-0.236	-0.244
-96.845	443.000	0.076	0.164
-95.830	-200.000	-0.040	-0.258
-94.816	278.405	0.182	0.322
-93.801	-66.009	-0.345	-0.136
-92.786	544.921	0.020	-0.046
-91.772	-200.000	-0.015	-0.166
-90.757	800.000	0.039	0.130
-89.743	70.488	0.208	0.213
-88.728	531.321	-0.097	0.228
-87.713	61.984	0.135	-0.133
-86.699	-148.793	-0.122	-0.010
-85.684	120.961	0.111	-0.136
-84.670	233.346	0.207	0.337
-83.655	-85.780	0.226	-0.069
-82.640	-195.806	0.395	-0.003
-81.626	-114.351	0.138	0.026
-80.611	-119.178	0.338	0.058
-79.597	354.502	-0.079	0.155
-78.582	-50.343	-0.185	-0.086
-77.567	-142.095	-0.071	0.007
-76.553	-177.244	-0.085	0.002
-75.538	-134.205	0.207	0.025
-74.524	-34.597	-0.167	0.090
-73.509	90.686	-0.017	0.019
-72.494	-195.355	0.304	0.002
-71.480	201.002	0.054	0.083
-70.465	-200.000	-0.015	-0.159
-69.451	800.000	-0.023	-0.088
-68.436	-36.231	-0.053	0.028
-67.422	-173.211	-0.324	-0.010
-66.407	800.000	0.122	0.368
-65.392	-81.110	-0.151	0.049
-64.378	-148.365	0.268	-0.022
-63.363	182.221	0.132	0.193
-62.349	288.679	-0.090	-0.161
-61.334	62.582	-1.071	-1.058
-60.319	-44.211	0.623	0.309
-59.305	341.345	-0.484	-0.935
-58.290	242.105	0.831	1.374
-57.276	345.412	0.734	1.425
-56.261	-200.000	102.213	592.358
-55.246	550.309	1429.505	3388.237
-54.232	184.496	2625.306	3843.783
-53.217	106.197	2313.119	2707.467
-52.203	37.292	2065.960	1808.746
-51.188	32.490	1979.883	1690.328
-50.173	30.962	1961.966	1661.356
-49.159	46.091	2015.951	1844.237
-48.144	47.245	2033.662	1870.812
-47.130	33.132	1992.624	1706.736
-46.115	30.797	1982.618	1677.089
-45.100	30.717	1979.414	1673.596
-44.086	30.632	1977.090	1670.800
-43.071	30.542	1975.127	1668.267
-42.057	30.593	1972.443	1666.392
-41.042	30.689	1970.191	1665.283
-40.027	30.645	1968.407	1663.312
-39.013	30.662	1966.791	1662.036
-37.998	30.735	1964.654	1660.818
-36.984	30.721	1963.089	1659.301
-35.969	30.737	1960.514	1657.203
-34.954	30.800	1958.570	1656.056
-33.940	30.800	1958.301	1655.755
-32.925	30.786	1955.773	1653.427
-31.911	30.761	1954.607	1652.158
-30.896	30.777	1953.066	1650.931
-29.881	30.728	1951.547	1649.148
-28.867	30.881	1949.749	1648.917
-27.852	30.887	1947.711	1647.184
-26.838	30.866	1945.623	1645.163
-25.823	30.782	1944.533	1643.434
-24.809	30.885	1942.505	1642.564
-23.794	30.838	1941.178	1640.963
-22.779	30.822	1939.259	1639.136
-21.765	30.839	1937.492	1637.726
-20.750	30.790	1936.205	1636.146
-19.736	30.873	1934.783	1635.605
-18.721	30.855	1932.730	1633.649
-17.706	30.859	1930.896	1632.064
-16.692	30.730	1930.061	1630.165
-15.677	30.666	1928.261	1628.018
-14.663	30.890	1926.353	1628.305
-13.648	30.846	1925.201	1626.886
-12.633	30.849	1923.776	1625.636
-11.619	30.762	1922.778	1623.970
-10.604	30.807	1921.177	1622.945
-9.590	30.799	1919.977	1621.797
-8.575	30.766	1918.727	1620.389
-7.560	30.808	1917.158	1619.366
-6.546	30.833	1915.556	1618.165
-5.531	30.893	1914.347	1617.608
-4.517	30.874	1913.624	1616.768
-3.502	30.798	1912.931	1615.456
-2.487	30.741	1911.787	1613.932
-1.473	30.795	1910.668	1613.391
-0.458	30.899	1905.451	1609.818
0.556	29.937	1885.958	1581.795
1.571	25.696	1867.144	1529.910
2.586	21.961	1889.786	1516.131
3.600	20.876	1926.267	1535.704
4.615	20.445	1920.594	1527.251
5.629	15.947	1820.302	1409.812
6.644	8.373	1705.358	1261.068
7.659	5.063	1670.904	1209.846
8.673	4.772	1668.386	1205.657
9.688	4.682	1666.795	1203.704
10.702	4.756	1665.542	1203.263
11.717	4.731	1662.110	1200.487
12.731	5.148	1661.458	1203.122
13.746	10.057	1673.542	1249.808
14.761	16.808	1688.127	1313.072
15.775	19.118	1690.570	1332.761
16.790	18.356	1687.808	1324.574
17.804	17.421	1684.265	1314.462
18.819	16.437	1680.847	1304.085
19.834	15.855	1678.498	1297.660
20.848	15.469	1676.963	1293.386
21.863	15.138	1675.653	1289.714
22.877	14.997	1673.916	1287.182
23.892	14.842	1672.323	1284.648
24.907	14.647	1671.491	1282.399
25.921	14.737	1670.374	1282.118
26.936	14.642	1670.041	1281.018
27.950	14.680	1668.783	1280.236
28.965	14.747	1668.135	1280.137
29.980	14.769	1667.110	1279.406
30.994	14.941	1665.812	1279.611
32.009	15.013	1664.990	1279.415
33.023	14.998	1664.212	1278.593
34.038	15.093	1663.105	1278.357
35.053	14.932	1662.267	1276.364
36.067	14.907	1660.974	1275.074
37.082	14.876	1659.859	1273.866
38.096	14.885	1658.783	1272.997
39.111	14.979	1657.587	1272.684
40.126	14.951	1656.646	1271.634
41.140	14.945	1655.895	1270.898
42.155	14.789	1654.895	1268.834
43.169	14.756	1652.479	1266.619
44.184	14.669	1651.917	1265.416
45.199	14.630	1650.910	1264.237
46.213	14.637	1649.589	1263.170
47.228	14.658	1648.724	1262.550
48.242	14.775	1647.484	1262.374
49.257	14.761	1646.699	1261.558
50.271	14.787	1645.257	1260.534
51.286	14.872	1643.650	1259.835
52.301	14.829	1642.736	1258.701
53.315	14.802	1641.135	1257.157
54.330	14.865	1639.322	1256.133
55.344	14.752	1638.240	1254.340
56.359	14.807	1636.338	1253.184
57.374	14.698	1635.498	1251.618
58.388	14.767	1634.443	1251.211
59.403	14.686	1632.995	1249.390
60.417	14.580	1631.686	1247.483
61.432	14.659	1630.141	1246.780
62.447	14.610	1629.029	1245.460
63.461	14.548	1628.733	1244.655
64.476	14.497	1627.310	1243.078
65.490	14.445	1626.358	1241.853
66.505	14.543	1624.785	1241.271
67.520	14.549	1624.293	1240.832
68.534	14.563	1623.230	1240.016
69.549	14.601	1621.780	1239.082
70.563	14.650	1620.680	1238.492
71.578	14.594	1619.866	1237.345
72.593	14.573	1618.113	1235.744
73.607	14.504	1617.354	1234.541
74.622	14.452	1616.432	1233.344
75.636	14.367	1615.719	1232.062
76.651	14.496	1614.808	1232.212
77.666	14.376	1614.147	1230.712
78.680	14.423	1613.161	1230.198
79.695	14.530	1612.348	1230.257
80.709	14.514	1610.963	1228.976
81.724	14.553	1610.672	1228.935
82.739	14.604	1609.469	1228.282
83.753	14.607	1609.010	1227.847
84.768	14.688	1607.726	1227.350
85.782	14.853	1607.136	1228.004
86.797	14.911	1606.115	1227.540
87.812	14.890	1605.692	1226.954
88.826	14.928	1603.631	1225.553
89.841	14.749	1603.296	1223.873
90.855	14.773	1602.181	1223.090
91.870	14.806	1601.387	1222.622
92.884	14.887	1599.965	1222.014
93.899	14.938	1598.876	1221.451
94.914	14.846	1597.693	1219.767
95.928	14.943	1596.370	1219.353
96.943	15.006	1595.352	1218.930
97.957	14.984	1593.922	1217.565
98.972	14.802	1592.691	1215.194
99.987	14.892	1590.632	1214.169
101.001	14.932	1588.818	1212.970
102.016	14.904	1587.250	1211.459
103.030	14.735	1586.765	1209.759
104.045	14.820	1585.315	1209.162
105.060	14.959	1583.590	1208.742
106.074	14.825	1582.725	1207.009
107.089	14.767	1581.176	1205.305
108.103	14.694	1579.076	1203.074
109.118	14.517	1577.690	1200.634
110.133	14.516	1576.648	1199.727
111.147	14.609	1575.134	1199.140
112.162	14.547	1573.859	1197.614
113.176	14.623	1571.935	1196.591
114.191	14.672	1570.792	1195.966
115.206	14.641	1570.138	1195.143
116.220	14.588	1569.032	1193.814
117.235	14.736	1566.991	1193.214
118.249	14.617	1566.151	1191.615
119.264	14.719	1564.121	1190.696
120.279	14.594	1563.256	1189.039
121.293	14.622	1561.458	1187.768
122.308	14.564	1560.087	1186.204
123.322	14.624	1558.326	1185.185
124.337	14.508	1557.494	1183.630
125.352	14.526	1556.033	1182.543
126.366	14.545	1555.254	1181.980
127.381	14.543	1553.650	1180.637
128.395	14.500	1553.010	1179.745
129.410	14.579	1551.144	1178.783
130.424	14.501	1550.349	1177.520
131.439	14.648	1548.410	1176.978
132.454	14.691	1547.505	1176.494
133.468	14.656	1545.745	1174.803
134.483	14.818	1544.309	1174.745
135.497	14.805	1542.995	1173.556
136.512	14.740	1542.154	1172.357
137.527	14.713	1540.694	1170.948
138.541	14.724	1539.453	1169.982
139.556	14.713	1538.374	1168.978
140.570	14.820	1536.911	1168.511
141.585	14.746	1535.789	1167.043
142.600	14.844	1534.461	1166.609
143.614	14.928	1533.387	1166.278
144.629	14.981	1532.155	1165.606
145.643	15.017	1530.842	1164.757
146.658	15.013	1529.538	1163.633
147.673	15.052	1527.799	1162.479
148.687	14.970	1526.482	1160.804
149.702	14.843	1525.263	1158.893
150.716	14.928	1523.356	1157.930
151.731	14.805	1522.072	1156.003
152.746	14.833	1520.658	1155.020
153.760	14.835	1519.358	1153.945
154.775	14.827	1518.159	1152.872
155.789	14.861	1517.046	1152.159
156.804	14.988	1515.777	1151.969
157.819	14.927	1514.894	1150.776
158.833	14.989	1513.598	1150.116
159.848	14.973	1512.933	1149.403
160.862	15.189	1511.171	1149.443
161.877	15.190	1509.753	1148.271
162.892	14.997	1508.961	1146.243
163.906	14.974	1507.446	1144.836
164.921	14.961	1506.123	1143.638
165.935	14.884	1505.568	1142.590
166.950	14.988	1504.443	1142.345
167.964	14.969	1503.453	1141.365
168.979	15.007	1502.923	1141.118
169.994	14.974	1501.809	1139.945
171.008	15.050	1500.361	1139.263
172.023	15.043	1499.021	1138.097
173.037	15.099	1498.156	1137.721
174.052	15.081	1497.253	1136.810
175.067	15.236	1496.245	1136.998
176.081	15.195	1494.409	1135.228
177.096	15.011	1493.627	1133.286
178.110	15.049	1492.284	1132.424
179.125	15.010	1491.233	1131.264
180.140	14.995	1490.245	1130.311
181.154	15.053	1489.391	1129.953
182.169	15.146	1488.119	1129.514
183.183	15.168	1487.085	1128.783
184.198	15.197	1485.544	1127.707
185.213	15.189	1484.750	1126.948
186.227	15.244	1484.047	1126.688
187.242	15.372	1482.432	1126.216
188.256	15.370	1481.323	1125.264
189.271	15.387	1480.696	1124.805
190.286	15.399	1480.036	1124.281
191.300	15.295	1478.711	1122.481
192.315	15.192	1477.478	1120.757
193.329	15.060	1475.771	1118.475
194.344	15.001	1474.642	1117.132
195.359	15.017	1473.881	1116.563
196.373	15.135	1472.496	1116.200
197.388	15.240	1471.249	1115.854
198.402	15.331	1470.798	1116.018
199.417	15.370	1470.232	1115.749
200.432	15.450	1468.980	1115.235
201.446	15.560	1467.554	1114.781
202.461	15.553	1466.584	1113.898
203.475	15.617	1465.426	1113.348
204.490	15.628	1464.758	1112.815
205.504	15.695	1463.346	1112.084
206.519	15.469	1462.812	1110.087
207.534	15.471	1461.283	1108.841
208.548	15.452	1459.977	1107.626
209.563	15.499	1459.184	1107.236
210.577	15.452	1458.118	1106.020
211.592	15.556	1457.090	1105.825
212.607	15.538	1456.685	1105.304
213.621	15.608	1455.867	1105.048
214.636	15.674	1455.179	1104.859
215.650	15.651	1453.765	1103.536
216.665	15.630	1452.893	1102.641
217.680	15.652	1452.253	1102.202
218.694	15.749	1451.600	1102.246
219.709	15.777	1450.291	1101.332
220.723	15.844	1449.397	1101.000
221.738	15.789	1448.659	1099.982
222.753	15.650	1447.886	1098.387
223.767	15.762	1446.882	1098.258
224.782	15.770	1445.628	1097.260
225.796	15.794	1444.617	1096.552
226.811	15.912	1443.957	1096.726
227.826	15.894	1443.529	1096.184
228.840	15.817	1442.329	1094.677
229.855	15.832	1441.074	1093.724
230.869	15.859	1440.382	1093.276
231.884	15.785	1439.274	1091.861
232.899	15.817	1437.941	1090.962
233.913	15.762	1436.698	1089.566
234.928	15.782	1435.718	1088.855
235.942	15.676	1434.816	1087.386
236.957	15.685	1433.045	1086.011
237.972	15.844	1431.498	1085.764
238.986	15.787	1430.952	1084.885
240.001	15.841	1430.148	1084.529
241.015	15.788	1429.061	1083.269
242.030	15.779	1427.870	1082.211
243.045	15.847	1427.154	1082.008
244.059	15.900	1426.329	1081.631
245.074	15.920	1425.282	1080.870
246.088	16.021	1424.699	1080.976
247.103	15.945	1424.064	1079.915
248.117	15.960	1423.343	1079.370
249.132	16.038	1422.508	1079.136
250.147	16.183	1421.742	1079.390
251.161	16.250	1421.036	1079.188
252.176	16.273	1421.055	1079.255
253.190	16.377	1419.910	1078.952
254.205	16.465	1418.703	1078.503
255.220	16.449	1417.840	1077.648
256.234	16.503	1417.149	1077.369
257.249	16.494	1416.099	1076.423
258.263	16.460	1415.617	1075.742
259.278	16.432	1414.731	1074.793
260.293	16.401	1414.247	1074.135
261.307	16.533	1412.835	1073.804
262.322	16.525	1412.353	1073.295
263.336	16.610	1411.502	1073.090
264.351	16.645	1410.547	1072.495
265.366	16.566	1409.998	1071.482
266.380	16.590	1409.096	1070.852
267.395	16.652	1408.011	1070.324
268.409	16.790	1407.080	1070.392
269.424	16.653	1406.123	1068.703
270.439	16.528	1404.558	1066.632
271.453	16.621	1403.988	1066.694
272.468	16.583	1403.381	1065.899
273.482	16.625	1402.236	1065.200
274.497	16.481	1402.137	1064.125
275.512	16.474	1400.902	1063.045
276.526	16.630	1399.497	1062.865
277.541	16.609	1398.438	1061.836
278.555	16.524	1397.968	1060.851
279.570	16.616	1396.644	1060.332
280.585	16.689	1396.140	1060.310
281.599	16.725	1395.246	1059.760
282.614	16.821	1394.147	1059.432
283.628	16.746	1392.790	1057.841
284.643	16.732	1391.964	1057.035
285.657	16.664	1390.888	1055.698
286.672	16.736	1389.696	1055.147
287.687	16.570	1389.299	1053.724
288.701	16.631	1388.404	1053.331
289.716	16.741	1387.326	1053.104
290.730	16.714	1386.913	1052.529
291.745	16.716	1385.511	1051.379
292.760	16.763	1384.678	1050.948
293.774	16.853	1383.538	1050.548
294.789	16.784	1382.646	1049.349
295.803	16.827	1382.129	1049.131
296.818	16.940	1381.240	1049.060
297.833	16.903	1379.980	1047.787
298.847	16.807	1378.974	1046.338
299.862	16.802	1378.355	1045.745
300.876	16.919	1377.071	1045.395
301.891	16.933	1375.984	1044.564
302.906	16.885	1375.651	1043.927
303.920	16.930	1374.861	1043.510
304.935	17.049	1374.044	1043.526
305.949	17.174	1373.288	1043.632
306.964	17.126	1372.618	1042.735
307.979	17.242	1371.408	1042.435
308.993	17.217	1370.773	1041.706
310.008	17.186	1369.759	1040.653
311.022	17.192	1368.510	1039.646
312.037	17.192	1367.827	1039.036
313.052	17.206	1366.750	1038.216
314.066	17.084	1365.829	1036.678
315.081	17.060	1364.714	1035.590
316.095	17.089	1363.959	1035.103
317.110	17.095	1362.497	1033.942
318.125	17.053	1361.430	1032.781
319.139	17.102	1360.555	1032.327
320.154	16.971	1360.201	1031.169
321.168	17.053	1358.816	1030.525
322.183	17.126	1357.876	1030.168
323.197	17.094	1356.895	1029.134
324.212	17.102	1356.002	1028.414
325.227	17.102	1355.923	1028.265
326.241	17.149	1354.765	1027.583
327.256	17.223	1353.600	1027.052
328.270	17.233	1352.684	1026.328
329.285	17.194	1351.827	1025.352
330.300	17.156	1350.783	1024.238
331.314	17.223	1349.958	1023.929
332.329	17.264	1349.470	1023.716
333.343	17.202	1348.393	1022.433
334.358	17.254	1347.438	1021.929
335.373	17.238	1346.523	1021.048
336.387	17.260	1345.869	1020.595
337.402	17.345	1344.990	1020.350
338.416	17.368	1344.472	1020.005
339.431	17.407	1344.066	1019.838
340.446	17.388	1343.282	1019.043
341.460	17.423	1342.076	1018.246
342.475	17.604	1341.171	1018.553
343.489	17.584	1340.230	1017.626
344.504	17.677	1339.309	1017.390
345.519	17.610	1338.602	1016.366
346.533	17.688	1337.492	1015.898
347.548	17.783	1336.434	1015.568
348.562	17.765	1335.837	1014.922
349.577	17.793	1334.865	1014.260
350.592	17.693	1334.406	1013.227
351.606	17.658	1333.420	1012.178
352.621	17.693	1331.976	1011.203
353.635	17.687	1330.708	1010.110
354.650	17.579	1330.332	1009.100
355.665	17.561	1329.612	1008.357
356.679	17.676	1328.397	1008.027
357.694	17.607	1327.235	1006.644
358.708	17.669	1326.404	1006.296
359.723	17.779	1325.396	1006.090
360.738	17.780	1323.895	1004.865
361.752	17.710	1322.935	1003.634
362.767	17.921	1321.938	1004.033
363.781	17.825	1321.372	1002.951
364.796	17.746	1320.743	1001.917
365.810	17.768	1320.037	1001.424
366.825	17.909	1319.261	1001.576
367.840	17.896	1318.799	1001.056
368.854	18.043	1317.748	1001.031
369.869	17.945	1317.840	1000.442
370.883	17.968	1317.025	999.869
371.898	18.068	1315.953	999.548
372.913	18.042	1314.880	998.492
373.927	17.976	1314.519	997.744
374.942	18.078	1313.125	997.193
375.956	18.089	1312.677	996.830
376.971	18.096	1311.615	995.979
377.986	18.049	1310.893	995.069
379.000	18.106	1309.833	994.505
380.015	18.179	1309.511	994.600
381.029	18.200	1308.893	994.161
382.044	18.271	1308.167	993.939
383.059	18.275	1307.388	993.276
384.073	18.266	1306.556	992.510
385.088	18.258	1305.963	991.921
386.102	18.271	1305.109	991.258
387.117	18.348	1304.189	990.921
388.132	18.352	1303.429	990.279
389.146	18.146	1302.485	988.283
390.161	18.207	1301.469	987.780
391.175	18.287	1300.363	987.315
392.190	18.219	1299.947	986.516
393.205	18.297	1298.898	986.084
394.219	18.328	1298.009	985.501
395.234	18.349	1297.110	984.847
396.248	18.402	1295.727	984.019
397.263	18.296	1294.789	982.608
398.278	18.207	1293.627	981.130
399.292	18.225	1292.456	980.260
400.307	18.253	1290.760	979.046
401.321	18.164	1290.290	978.096
402.336	18.222	1289.340	977.620
403.350	18.160	1288.415	976.474
404.365	18.276	1286.974	975.960
405.380	18.265	1286.269	975.275
406.394	18.262	1285.897	974.892
407.409	18.304	1285.116	974.453
408.423	18.409	1284.074	974.174
409.438	18.430	1283.498	973.769
410.453	18.536	1282.977	973.891
411.467	18.565	1282.299	973.453
412.482	18.617	1281.406	972.984
413.496	18.581	1281.060	972.432
414.511	18.605	1280.383	971.968
415.526	18.736	1279.408	971.880
416.540	18.796	1278.472	971.427
417.555	18.842	1277.931	971.185
418.569	18.758	1277.647	970.412
419.584	18.815	1277.180	970.291
420.599	18.744	1276.274	969.118
421.613	140.932	1432.811	1796.557
422.628	135.603	1455.588	1796.667
