DTS Sentinel unit serial number:	SN413079Multiplexer serial number:	ORYXHardware model number:	OX4-SRSoftware version number:	ORYX F/W v4.00 Oryx Data Collector v3.7.2.0data status	okinstallation	princeton_trtdifferential loss correction	single-endedforward channel	channel 4reverse channel	N/Adate	2019/09/19time	05:33:35forward acquisition time	60.00reverse acquisition time	0.00gamma	496.2192k internal	0.2341k external	0.2341temperature offset calibration	1.0031default loss term (dB/km)	0.3790temperature slope calibration	1.0000multiplexer offset coefficient	1.0000multiplexer slope coefficient	1.0000fibre end	0.00T internal ref (°C)	19.36T ext. ref 1 (°C)	0.60T ext. ref 2 (°C)	12.94length (m)	temperature (°C)	Stokes	anti-Stokes-747.200	608.760	-0.125	0.312
-746.185	134.609	-0.115	0.150
-745.171	800.000	-0.113	-0.343
-744.156	-200.000	-0.003	0.042
-743.142	789.881	-0.204	0.561
-742.127	319.652	-0.023	0.043
-741.112	286.660	0.081	-0.146
-740.098	215.169	-0.133	0.212
-739.083	-200.000	0.154	-0.000
-738.069	800.000	-0.066	0.278
-737.054	-200.000	0.052	-0.266
-736.039	191.323	-0.181	-0.272
-735.025	-18.947	0.233	-0.146
-734.010	49.263	0.128	-0.121
-732.996	148.013	-0.031	0.042
-731.981	-200.000	0.010	-0.122
-730.966	87.408	-0.039	-0.043
-729.952	602.197	0.032	0.080
-728.937	132.675	-0.271	0.350
-727.923	513.415	0.033	-0.076
-726.908	-148.092	-0.272	-0.023
-725.894	154.063	0.323	0.443
-724.879	98.189	-0.053	-0.061
-723.864	-200.000	-0.001	-0.184
-722.850	39.033	-0.159	-0.142
-721.835	331.236	-0.165	0.318
-720.821	581.671	0.050	-0.123
-719.806	311.843	0.123	-0.232
-718.791	128.932	0.155	-0.198
-717.777	-200.000	0.033	0.364
-716.762	138.025	-0.214	-0.281
-715.748	-200.000	0.029	-0.466
-714.733	-200.000	-0.122	-0.000
-713.718	518.563	-0.044	0.104
-712.704	32.447	-0.129	-0.111
-711.689	-200.000	-0.049	-0.290
-710.675	-112.776	0.100	0.020
-709.660	800.000	-0.010	0.030
-708.645	-35.721	-0.319	0.173
-707.631	-101.041	-0.152	0.037
-706.616	-106.741	-0.210	0.047
-705.602	489.303	0.070	0.159
-704.587	800.000	0.030	-0.124
-703.572	41.944	-0.206	0.187
-702.558	-15.011	0.373	0.239
-701.543	113.405	0.146	0.178
-700.529	557.288	0.029	-0.069
-699.514	31.676	-0.224	0.193
-698.499	-8.466	0.114	-0.077
-697.485	-125.919	-0.101	-0.015
-696.470	-34.386	0.278	-0.153
-695.456	-133.747	-0.122	-0.015
-694.441	47.620	-0.198	-0.185
-693.426	-183.930	0.258	0.004
-692.412	654.568	-0.048	-0.123
-691.397	-200.000	-0.013	0.253
-690.383	107.849	-0.129	0.154
-689.368	-200.000	-0.014	-0.163
-688.354	-200.000	0.006	-0.172
-687.339	-100.602	-0.148	0.037
-686.324	-68.295	-0.255	-0.099
-685.310	-33.651	-0.265	-0.146
-684.295	800.000	-0.063	0.204
-683.281	-200.000	-0.005	0.085
-682.266	49.911	-0.159	0.150
-681.251	-120.332	-0.266	0.045
-680.237	18.013	-0.143	-0.114
-679.222	0.813	0.057	-0.041
-678.208	338.959	0.023	0.044
-677.193	70.602	0.241	0.249
-676.178	-19.699	-0.298	0.184
-675.164	800.000	-0.047	0.157
-674.149	136.633	0.051	0.067
-673.135	-122.839	0.189	-0.030
-672.120	-28.677	0.045	-0.026
-671.105	-87.458	-0.177	-0.054
-670.091	480.981	-0.154	0.349
-669.076	-200.000	-0.026	0.148
-668.062	-28.680	0.207	-0.119
-667.047	-51.135	0.207	0.097
-666.032	-162.176	-0.280	-0.014
-665.018	800.000	0.073	0.282
-664.003	800.000	-0.091	0.370
-662.989	-79.131	-0.048	0.016
-661.974	-65.385	-0.124	-0.050
-660.959	-44.479	0.196	-0.098
-659.945	60.575	0.242	-0.240
-658.930	800.000	-0.031	-0.096
-657.916	-53.141	-0.143	0.066
-656.901	-30.895	-0.113	0.064
-655.886	67.246	-0.227	-0.232
-654.872	800.000	-0.024	-0.104
-653.857	-145.938	0.041	-0.004
-652.843	-78.642	-0.234	-0.080
-651.828	-8.712	0.162	0.108
-650.814	-119.717	0.057	0.010
-649.799	-114.787	0.230	-0.044
-648.784	800.000	-0.133	-0.436
-647.770	-45.607	0.187	-0.093
-646.755	-103.462	0.205	-0.048
-645.741	-200.000	0.001	-0.084
-644.726	-190.041	-0.230	0.003
-643.711	-200.000	0.043	0.202
-642.697	800.000	-0.101	-0.346
-641.682	9.528	0.297	-0.225
-640.668	-70.598	0.337	-0.127
-639.653	401.049	-0.092	0.193
-638.638	-104.857	-0.214	0.049
-637.624	655.355	-0.018	-0.047
-636.609	-109.921	-0.475	0.099
-635.595	-131.116	0.145	0.019
-634.580	14.354	-0.112	-0.087
-633.565	272.053	0.060	0.106
-632.551	-45.737	0.205	-0.101
-631.536	-152.403	-0.261	-0.019
-630.522	-7.619	0.052	0.035
-629.507	-117.495	0.262	0.047
-628.492	-58.583	0.041	-0.018
-627.478	32.264	0.151	0.130
-626.463	-149.924	0.211	-0.016
-625.449	800.000	0.049	-0.144
-624.434	-146.709	0.157	0.014
-623.419	800.000	0.099	0.350
-622.405	15.239	0.028	-0.022
-621.390	-97.220	0.422	-0.110
-620.376	106.758	0.087	-0.103
-619.361	70.854	-0.053	-0.054
-618.346	-200.000	-0.004	0.358
-617.332	721.352	0.044	0.117
-616.317	-96.317	-0.189	0.050
-615.303	-200.000	0.058	0.330
-614.288	-200.000	0.031	-0.154
-613.273	-102.127	0.137	0.033
-612.259	-104.832	-0.166	-0.038
-611.244	800.000	0.094	-0.304
-610.230	-73.202	-0.181	-0.066
-609.215	440.327	0.107	-0.234
-608.201	-84.579	0.143	-0.045
-607.186	92.269	-0.049	0.055
-606.171	-200.000	0.010	0.083
-605.157	-200.000	-0.027	-0.196
-604.142	-200.000	0.024	0.420
-603.128	40.557	-0.164	0.148
-602.113	-200.000	-0.008	-0.261
-601.098	-55.194	-0.158	0.071
-600.084	69.302	-0.234	0.240
-599.069	-187.044	0.263	-0.004
-598.055	-124.895	-0.352	-0.054
-597.040	-86.330	-0.285	0.087
-596.025	165.911	-0.123	-0.174
-595.011	326.554	0.223	-0.426
-593.996	622.823	0.163	0.408
-592.982	136.394	0.136	-0.177
-591.967	50.996	0.046	-0.043
-590.952	-36.007	0.160	-0.086
-589.938	471.633	0.027	0.061
-588.923	-200.000	-0.077	0.399
-587.909	800.000	0.022	-0.069
-586.894	800.000	-0.071	0.279
-585.879	246.331	0.051	-0.086
-584.865	-184.858	0.200	-0.003
-583.850	-200.000	-0.058	0.292
-582.836	500.968	-0.069	0.158
-581.821	325.781	0.111	0.211
-580.806	645.056	-0.049	0.125
-579.792	-200.000	-0.007	0.108
-578.777	-91.524	-0.061	0.017
-577.763	105.130	0.180	0.211
-576.748	154.522	-0.138	0.189
-575.733	767.961	0.060	-0.164
-574.719	-200.000	-0.074	-0.352
-573.704	61.062	-0.148	-0.146
-572.690	800.000	0.040	0.157
-571.675	-7.193	0.287	-0.194
-570.661	-9.413	-0.347	-0.230
-569.646	493.488	-0.112	0.257
-568.631	257.559	0.163	-0.278
-567.617	53.293	-0.121	-0.115
-566.602	28.474	-0.090	0.076
-565.588	800.000	0.059	0.162
-564.573	-112.396	-0.313	-0.062
-563.558	430.734	0.283	-0.611
-562.544	382.348	-0.052	-0.107
-561.529	178.501	0.127	-0.185
-560.515	152.220	-0.117	-0.159
-559.500	-200.000	0.023	-0.260
-558.485	800.000	-0.046	0.152
-557.471	-40.949	-0.248	0.127
-556.456	-5.598	0.269	0.183
-555.442	-86.503	0.130	-0.040
-554.427	50.782	-0.193	0.181
-553.412	-56.563	-0.075	-0.033
-552.398	56.515	0.233	-0.226
-551.383	367.928	0.177	-0.356
-550.369	-153.572	-0.119	-0.008
-549.354	-70.266	0.365	-0.138
-548.339	128.309	-0.096	-0.122
-547.325	25.105	0.207	0.171
-546.310	800.000	-0.131	-0.388
-545.296	54.787	-0.125	0.120
-544.281	9.961	0.239	0.181
-543.266	-99.257	0.114	0.029
-542.252	284.855	0.074	-0.132
-541.237	-200.000	0.017	0.242
-540.223	-200.000	-0.005	-0.252
-539.208	-106.999	-0.114	0.025
-538.193	-138.621	-0.162	-0.018
-537.179	-107.342	0.170	0.037
-536.164	-200.000	0.034	-0.238
-535.150	-121.378	-0.150	-0.025
-534.135	-101.205	0.096	0.023
-533.121	-200.000	-0.019	-0.222
-532.106	-19.638	0.218	0.134
-531.091	-163.657	0.138	-0.006
-530.077	800.000	-0.132	-0.374
-529.062	193.913	-0.138	-0.207
-528.048	-16.846	0.103	0.065
-527.033	800.000	0.039	0.139
-526.018	-200.000	0.015	-0.267
-525.004	-3.271	0.083	0.058
-523.989	62.845	0.129	-0.129
-522.975	-200.000	0.027	0.254
-521.960	53.035	0.172	0.163
-520.945	-53.589	-0.358	-0.163
-519.931	-156.670	-0.431	0.026
-518.916	800.000	0.095	-0.350
-517.902	-128.117	0.088	-0.013
-516.887	192.847	0.292	0.438
-515.872	311.501	0.090	-0.168
-514.858	-172.173	-0.141	0.004
-513.843	800.000	-0.044	0.162
-512.829	25.242	-0.126	0.104
-511.814	-131.807	-0.271	-0.035
-510.799	21.401	-0.050	-0.041
-509.785	50.436	0.041	-0.039
-508.770	-200.000	0.039	0.278
-507.756	-200.000	0.018	-0.141
-506.741	0.433	-0.098	-0.069
-505.726	253.590	-0.154	-0.261
-504.712	641.311	0.033	0.083
-503.697	-200.000	-0.007	0.092
-502.683	-71.970	0.249	-0.092
-501.668	-98.262	-0.327	-0.083
-500.653	80.539	-0.100	0.107
-499.639	800.000	0.054	-0.184
-498.624	675.555	-0.067	-0.174
-497.610	248.099	0.085	0.143
-496.595	44.378	-0.225	-0.205
-495.581	-200.000	-0.033	-0.225
-494.566	18.784	0.297	-0.236
-493.551	83.699	0.179	-0.194
-492.537	800.000	0.072	-0.202
-491.522	800.000	0.054	-0.151
-490.508	694.926	-0.032	0.082
-489.493	192.097	0.128	0.192
-488.478	-47.235	-0.011	0.006
-487.464	-88.262	-0.230	-0.068
-486.449	-200.000	-0.036	-0.231
-485.435	-133.791	0.286	0.035
-484.420	165.797	-0.102	-0.143
-483.405	-112.916	-0.258	-0.051
-482.391	-200.000	-0.034	0.176
-481.376	-200.000	0.038	0.263
-480.362	-200.000	-0.052	-0.322
-479.347	632.654	-0.106	0.266
-478.332	351.833	0.052	0.101
-477.318	684.533	0.154	0.399
-476.303	211.235	-0.042	0.065
-475.289	146.591	-0.220	0.293
-474.274	-200.000	-0.024	-0.158
-473.259	-82.843	-0.132	-0.042
-472.245	800.000	-0.116	0.374
-471.230	-200.000	-0.082	0.396
-470.216	30.388	-0.112	0.094
-469.201	800.000	0.131	-0.559
-468.186	707.886	0.045	-0.117
-467.172	-171.329	0.159	0.005
-466.157	-31.006	0.044	-0.025
-465.143	-200.000	-0.067	-0.444
-464.128	84.239	0.209	-0.226
-463.113	454.468	-0.139	0.306
-462.099	91.753	-0.139	-0.154
-461.084	419.244	-0.071	-0.151
-460.070	-200.000	0.034	0.289
-459.055	-56.572	-0.264	-0.116
-458.040	24.469	0.047	0.039
-457.026	-65.982	-0.246	-0.097
-456.011	-186.352	-0.263	0.004
-454.997	-5.944	0.249	0.169
-453.982	8.301	0.026	-0.020
-452.968	-7.042	0.125	-0.084
-451.953	-53.441	0.062	-0.028
-450.938	800.000	-0.102	-0.422
-449.924	-140.228	-0.143	0.015
-448.909	92.512	0.020	-0.023
-447.895	151.279	-0.026	0.036
-446.880	-28.849	-0.393	0.224
-445.865	486.148	0.084	-0.189
-444.851	-29.869	0.273	0.154
-443.836	27.184	-0.112	-0.093
-442.822	91.773	-0.271	-0.302
-441.807	-78.001	0.279	0.095
-440.792	271.521	-0.016	-0.028
-439.778	103.050	-0.238	0.276
-438.763	94.730	-0.141	-0.158
-437.749	237.155	0.064	0.105
-436.734	157.207	-0.087	-0.120
-435.719	-162.724	-0.402	-0.020
-434.705	-200.000	-0.021	-0.331
-433.690	-164.630	0.194	-0.009
-432.676	-200.000	-0.012	0.167
-431.661	800.000	-0.173	0.589
-430.646	-101.164	-0.130	0.032
-429.632	8.184	0.119	-0.088
-428.617	515.930	0.023	0.054
-427.603	157.405	0.156	-0.213
-426.588	-30.962	-0.152	-0.085
-425.573	-31.657	0.107	-0.060
-424.559	57.498	-0.195	-0.189
-423.544	-200.000	-0.098	-0.444
-422.530	-32.421	0.086	-0.048
-421.515	533.599	-0.078	-0.182
-420.500	396.437	-0.107	0.221
-419.486	233.487	0.217	0.354
-418.471	243.968	-0.048	0.079
-417.457	425.949	-0.102	0.217
-416.442	406.589	0.124	-0.258
-415.428	-73.388	-0.082	0.030
-414.413	-29.593	-0.386	-0.218
-413.398	190.450	0.009	0.014
-412.384	-48.994	0.177	-0.084
-411.369	-154.000	0.120	0.008
-410.355	800.000	0.019	0.082
-409.340	203.883	-0.097	-0.149
-408.325	-162.332	-0.302	-0.015
-407.311	-183.824	-0.251	0.004
-406.296	-200.000	-0.006	0.258
-405.282	800.000	0.026	-0.076
-404.267	429.198	0.134	-0.286
-403.252	800.000	-0.105	-0.342
-402.238	-200.000	-0.017	-0.085
-401.223	52.245	0.193	-0.182
-400.209	374.397	-0.143	0.289
-399.194	-125.530	-0.154	0.023
-398.179	-72.298	0.338	0.124
-397.165	800.000	0.026	-0.112
-396.150	-137.719	0.172	0.019
-395.136	-200.000	-0.027	0.153
-394.121	250.302	-0.071	0.120
-393.106	-168.115	0.098	0.004
-392.092	19.203	-0.340	-0.270
-391.077	-200.000	-0.008	-0.245
-390.063	-200.000	0.008	0.258
-389.048	-200.000	0.009	-0.147
-388.033	800.000	0.037	-0.155
-387.019	-87.578	0.094	0.028
-386.004	-101.181	0.283	0.068
-384.990	80.560	-0.234	-0.249
-383.975	-55.482	-0.024	0.011
-382.960	800.000	0.018	-0.074
-381.946	-200.000	-0.035	-0.155
-380.931	800.000	-0.017	0.049
-379.917	-72.087	-0.224	-0.082
-378.902	-22.700	-0.221	-0.132
-377.888	-123.740	-0.306	0.048
-376.873	-62.213	0.180	0.074
-375.858	222.442	0.135	-0.214
-374.844	123.803	-0.243	-0.301
-373.829	-200.000	-0.062	-0.384
-372.815	-27.833	0.216	0.124
-371.800	723.897	-0.085	0.223
-370.785	289.637	-0.020	0.036
-369.771	-45.306	0.375	0.184
-368.756	79.508	0.113	0.120
-367.742	-44.993	0.081	0.040
-366.727	-171.268	0.095	0.003
-365.712	722.806	-0.108	0.283
-364.698	-162.576	0.156	0.008
-363.683	668.444	0.058	-0.149
-362.669	-200.000	0.020	-0.227
-361.654	-90.260	-0.056	-0.016
-360.639	68.446	0.189	0.191
-359.625	-189.841	-0.362	-0.004
-358.610	46.061	-0.026	0.023
-357.596	800.000	-0.038	-0.107
-356.581	358.878	0.021	-0.042
-355.566	-126.850	0.103	0.015
-354.552	-69.635	0.277	-0.104
-353.537	-93.715	-0.150	0.041
-352.523	-37.221	-0.084	0.044
-351.508	-136.994	-0.317	0.036
-350.493	800.000	0.032	-0.129
-349.479	-9.306	0.401	0.264
-348.464	800.000	0.089	0.267
-347.450	-33.666	-0.061	0.033
-346.435	-113.054	0.427	-0.083
-345.420	141.958	-0.201	-0.263
-344.406	-139.557	-0.067	0.007
-343.391	800.000	0.025	0.102
-342.377	-132.944	-0.177	-0.022
-341.362	-200.000	-0.043	-0.215
-340.348	265.332	0.183	-0.314
-339.333	-50.399	-0.042	0.020
-338.318	60.184	-0.118	-0.116
-337.304	50.940	0.291	0.272
-336.289	44.779	0.073	0.066
-335.275	-58.055	-0.149	0.064
-334.260	-21.353	-0.129	0.077
-333.245	3.109	0.170	0.122
-332.231	327.066	0.194	-0.366
-331.216	99.727	0.193	0.221
-330.202	-34.191	-0.148	-0.080
-329.187	28.349	0.119	0.099
-328.172	206.008	0.101	0.155
-327.158	-132.531	0.090	-0.011
-326.143	-170.522	-0.197	-0.007
-325.129	-3.469	-0.077	0.053
-324.114	800.000	-0.029	-0.087
-323.099	-200.000	-0.103	-0.515
-322.085	11.536	0.214	-0.162
-321.070	-67.296	0.164	0.064
-320.056	689.380	-0.142	-0.366
-319.041	85.373	-0.142	-0.154
-318.026	-6.434	0.369	0.248
-317.012	248.355	-0.065	0.109
-315.997	-129.329	-0.073	0.010
-314.983	-97.592	0.420	-0.107
-313.968	-23.230	-0.173	0.103
-312.953	84.769	-0.274	0.296
-311.939	-200.000	-0.000	-0.036
-310.924	800.000	0.031	-0.124
-309.910	48.062	0.066	-0.061
-308.895	-69.191	0.180	0.068
-307.880	-200.000	-0.024	0.402
-306.866	-29.001	-0.136	-0.077
-305.851	-107.727	0.307	-0.066
-304.837	-53.020	0.214	0.097
-303.822	39.614	0.120	0.106
-302.807	114.719	0.121	0.146
-301.793	217.408	-0.355	0.557
-300.778	-128.474	0.320	0.045
-299.764	-86.643	-0.357	0.108
-298.749	430.251	0.096	0.204
-297.735	-200.000	0.007	-0.220
-296.720	-102.525	0.209	0.049
-295.705	266.739	-0.044	0.076
-294.691	800.000	0.057	-0.204
-293.676	97.982	-0.241	-0.273
-292.662	800.000	-0.053	0.220
-291.647	-64.540	0.268	-0.107
-290.632	-97.377	0.395	-0.101
-289.618	-23.773	-0.179	0.105
-288.603	116.201	0.173	0.208
-287.589	-78.077	0.449	0.152
-286.574	175.310	0.216	0.308
-285.559	-20.582	-0.334	0.202
-284.545	-64.646	0.155	-0.062
-283.530	-5.224	0.124	0.084
-282.516	142.594	-0.072	0.095
-281.501	-200.000	0.072	-0.345
-280.486	-200.000	-0.035	-0.401
-279.472	38.364	0.269	-0.236
-278.457	216.964	-0.096	-0.151
-277.443	-53.869	0.027	-0.012
-276.428	257.885	0.062	0.105
-275.413	380.285	0.148	0.298
-274.399	224.162	-0.096	0.153
-273.384	-200.000	0.062	0.530
-272.370	30.192	-0.019	-0.016
-271.355	-65.787	-0.320	-0.126
-270.340	23.655	0.043	0.035
-269.326	343.286	0.182	-0.350
-268.311	-61.433	-0.157	-0.065
-267.297	-200.000	0.045	0.381
-266.282	91.279	-0.139	-0.153
-265.267	-63.435	-0.383	-0.155
-264.253	2.965	-0.103	0.073
-263.238	25.060	-0.151	-0.123
-262.224	35.892	-0.096	-0.083
-261.209	275.425	0.123	0.215
-260.195	-30.035	0.223	0.125
-259.180	22.902	0.395	0.318
-258.165	20.232	-0.436	-0.347
-257.151	-200.000	0.006	0.051
-256.136	-99.623	0.269	0.067
-255.122	160.295	0.022	-0.030
-254.107	-94.072	-0.148	0.040
-253.092	150.348	0.219	0.293
-252.078	-200.000	-0.067	-0.392
-251.063	403.079	-0.054	0.112
-250.049	-75.371	-0.160	-0.056
-249.034	-76.635	-0.304	-0.105
-248.019	-71.197	0.219	0.081
-247.005	45.322	-0.130	-0.118
-245.990	800.000	-0.080	-0.284
-244.976	57.991	0.195	0.188
-243.961	179.983	0.213	0.307
-242.946	144.732	0.085	-0.112
-241.932	-96.528	-0.090	0.023
-240.917	-80.423	0.100	0.033
-239.903	332.871	0.089	0.170
-238.888	-200.000	0.038	0.207
-237.873	60.637	-0.120	-0.117
-236.859	-200.000	-0.004	0.377
-235.844	11.232	-0.084	-0.063
-234.830	270.732	-0.063	0.110
-233.815	800.000	-0.049	0.157
-232.800	206.018	-0.195	-0.299
-231.786	-119.809	0.328	0.056
-230.771	-200.000	-0.000	0.252
-229.757	-34.384	-0.233	0.126
-228.742	89.361	0.187	-0.205
-227.727	-141.331	0.106	-0.011
-226.713	-57.888	-0.081	0.035
-225.698	800.000	-0.062	-0.244
-224.684	353.937	-0.086	-0.168
-223.669	478.627	0.114	0.253
-222.655	-99.635	0.170	-0.042
-221.640	-53.358	0.256	0.115
-220.625	-56.806	-0.262	-0.114
-219.611	-200.000	0.060	0.347
-218.596	-200.000	0.002	0.029
-217.582	369.593	-0.148	-0.293
-216.567	-42.358	0.194	0.097
-215.552	-98.810	-0.190	0.048
-214.538	-74.910	0.151	0.053
-213.523	-200.000	-0.025	-0.249
-212.509	-3.937	-0.265	0.180
-211.494	4.808	-0.171	0.124
-210.479	-5.666	-0.181	0.122
-209.465	-200.000	-0.019	0.274
-208.450	-200.000	0.061	0.337
-207.436	-200.000	-0.000	0.236
-206.421	-1.960	-0.107	0.074
-205.406	165.978	-0.165	0.229
-204.392	-200.000	0.013	0.058
-203.377	-97.890	-0.085	-0.022
-202.363	800.000	-0.078	-0.234
-201.348	-51.482	-0.199	-0.091
-200.333	459.951	-0.049	0.107
-199.319	-53.599	0.137	0.061
-198.304	39.354	0.015	-0.013
-197.290	-168.352	0.304	-0.011
-196.275	-145.382	-0.036	0.003
-195.260	-140.113	0.198	0.020
-194.246	-200.000	0.007	-0.101
-193.231	160.075	-0.175	0.240
-192.217	-200.000	-0.003	0.243
-191.202	800.000	0.106	0.372
-190.187	97.917	-0.241	-0.272
-189.173	-200.000	-0.031	0.286
-188.158	91.762	0.097	0.107
-187.144	-200.000	0.028	0.164
-186.129	4.504	-0.223	-0.161
-185.114	-32.210	0.208	-0.114
-184.100	-200.000	0.004	-0.068
-183.085	6.836	-0.077	0.057
-182.071	-11.950	0.040	0.026
-181.056	800.000	-0.133	0.439
-180.042	800.000	0.057	-0.155
-179.027	95.991	-0.158	0.177
-178.012	-200.000	0.149	0.001
-176.998	-200.000	0.015	0.093
-175.983	800.000	0.079	0.293
-174.969	41.310	-0.149	-0.132
-173.954	-200.000	-0.035	0.171
-172.939	308.693	-0.177	0.325
-171.925	478.688	-0.061	0.135
-170.910	-56.137	-0.146	-0.064
-169.896	-200.000	-0.030	0.160
-168.881	65.952	0.195	-0.194
-167.866	-200.000	-0.011	0.061
-166.852	330.592	-0.071	-0.134
-165.837	88.096	0.430	0.467
-164.823	-200.000	0.001	-0.403
-163.808	228.691	-0.217	-0.347
-162.793	-200.000	-0.067	-0.334
-161.779	213.709	0.086	-0.133
-160.764	-53.967	0.116	0.052
-159.750	-101.021	-0.461	0.111
-158.735	-35.458	0.173	0.092
-157.720	-200.000	-0.001	0.134
-156.706	-200.000	0.027	0.242
-155.691	313.228	0.152	-0.280
-154.677	315.676	0.063	0.117
-153.662	-200.000	-0.012	0.081
-152.647	87.467	0.042	-0.046
-151.633	-51.288	-0.279	0.128
-150.618	119.711	0.038	0.046
-149.604	-107.520	-0.248	0.053
-148.589	-52.565	0.253	-0.115
-147.574	-67.677	-0.075	0.029
-146.560	153.617	0.096	0.129
-145.545	63.421	0.018	-0.017
-144.531	-40.259	0.199	-0.101
-143.516	112.837	-0.226	0.268
-142.502	-142.927	-0.307	0.029
-141.487	157.749	-0.183	0.248
-140.472	635.507	0.069	0.171
-139.458	-25.470	-0.078	-0.045
-138.443	54.689	0.186	-0.175
-137.429	800.000	-0.024	-0.071
-136.414	103.140	0.074	-0.084
-135.399	-24.770	0.210	-0.122
-134.385	-41.885	-0.266	-0.134
-133.370	-25.107	0.343	0.199
-132.356	-61.551	-0.086	0.035
-131.341	-200.000	-0.008	-0.058
-130.326	-98.215	0.302	-0.076
-129.312	-78.637	-0.219	0.073
-128.297	96.699	-0.074	0.083
-127.283	13.182	0.229	0.174
-126.268	-200.000	-0.039	-0.179
-125.253	-200.000	-0.028	-0.142
-124.239	18.397	-0.181	0.141
-123.224	800.000	-0.078	0.247
-122.210	-42.702	0.540	0.269
-121.195	654.882	0.025	0.063
-120.180	-87.414	-0.146	-0.043
-119.166	-11.777	0.065	0.042
-118.151	215.481	0.048	-0.074
-117.137	-28.061	0.166	0.094
-116.122	-200.000	-0.005	0.124
-115.107	800.000	-0.035	0.146
-114.093	-44.896	0.328	0.160
-113.078	24.840	-0.152	0.124
-112.064	18.880	0.177	-0.139
-111.049	459.170	-0.190	-0.413
-110.034	-200.000	-0.002	-0.328
-109.020	-88.878	-0.188	0.055
-108.005	59.037	0.221	-0.213
-106.991	-115.544	-0.300	0.055
-105.976	-16.184	-0.182	0.113
-104.962	-200.000	-0.051	-0.228
-103.947	-169.944	0.375	-0.013
-102.932	-200.000	-0.021	0.454
-101.918	298.397	0.039	-0.070
-100.903	-200.000	-0.061	0.318
-99.889	800.000	0.161	-0.493
-98.874	-85.305	0.204	-0.062
-97.859	-15.419	0.268	0.167
-96.845	7.979	0.124	0.091
-95.830	-138.341	0.219	0.024
-94.816	-136.154	-0.227	0.026
-93.801	52.934	-0.205	0.191
-92.786	293.593	0.244	-0.435
-91.772	35.696	0.095	-0.082
-90.757	172.736	-0.335	-0.471
-89.743	-53.439	0.567	-0.254
-88.728	262.765	-0.151	-0.255
-87.713	254.367	0.108	-0.180
-86.699	244.758	0.096	-0.158
-85.684	-151.056	0.213	-0.016
-84.670	-68.685	0.294	-0.111
-83.655	91.369	-0.108	-0.119
-82.640	-200.000	-0.048	-0.227
-81.626	86.980	0.316	-0.341
-80.611	-61.835	0.090	-0.037
-79.597	-200.000	0.033	0.146
-78.582	-57.826	0.321	-0.137
-77.567	-45.473	0.187	-0.091
-76.553	-200.000	-0.430	0.002
-75.538	-103.529	0.325	-0.075
-74.524	299.857	-0.124	-0.223
-73.509	69.602	0.058	0.059
-72.494	142.771	0.197	-0.256
-71.480	172.386	-0.161	0.227
-70.465	-105.476	-0.016	-0.004
-69.451	-176.806	0.170	-0.004
-68.436	-127.155	-0.186	-0.027
-67.422	25.601	0.092	0.075
-66.407	800.000	0.047	0.148
-65.392	181.847	-0.112	0.160
-64.378	36.996	0.180	-0.156
-63.363	-200.000	0.005	-0.272
-62.349	-149.072	0.184	0.014
-61.334	177.492	-0.904	-1.286
-60.319	46.510	0.915	0.828
-59.305	283.344	-0.608	-1.067
-58.290	198.366	1.023	1.527
-57.276	293.979	0.619	1.104
-56.261	-200.000	136.472	627.311
-55.246	340.890	1639.592	3124.067
-54.232	135.680	2784.411	3536.197
-53.217	74.439	2337.669	2397.157
-52.203	25.236	2088.302	1692.203
-51.188	20.911	2008.770	1588.364
-50.173	20.141	1994.624	1570.146
-49.159	37.879	2071.905	1796.123
-48.144	34.694	2082.654	1775.810
-47.130	21.310	2035.734	1613.115
-46.115	19.359	2024.537	1586.244
-45.100	19.375	2020.835	1583.427
-44.086	19.250	2019.431	1581.115
-43.071	19.177	2016.881	1578.391
-42.057	19.163	2014.677	1576.477
-41.042	19.274	2012.643	1575.833
-40.027	19.291	2011.010	1574.652
-39.013	19.354	2008.373	1573.102
-37.998	19.275	2007.243	1571.427
-36.984	19.364	2005.791	1571.038
-35.969	19.248	2003.967	1568.497
-34.954	19.249	2002.051	1566.947
-33.940	19.376	2000.960	1567.182
-32.925	19.342	1999.699	1565.818
-31.911	19.335	1997.806	1564.219
-30.896	19.346	1995.970	1562.819
-29.881	19.378	1994.760	1562.091
-28.867	19.382	1992.803	1560.536
-27.852	19.395	1991.164	1559.312
-26.838	19.500	1988.476	1558.094
-25.823	19.439	1987.041	1556.356
-24.809	19.366	1985.788	1554.652
-23.794	19.424	1984.124	1553.814
-22.779	19.355	1982.917	1552.183
-21.765	19.426	1980.450	1550.827
-20.750	19.339	1979.172	1548.986
-19.736	19.409	1977.841	1548.505
-18.721	19.440	1976.159	1547.413
-17.706	19.332	1975.069	1545.523
-16.692	19.348	1972.995	1543.983
-15.677	19.324	1972.012	1542.943
-14.663	19.363	1970.161	1541.780
-13.648	19.404	1968.720	1540.958
-12.633	19.439	1967.396	1540.169
-11.619	19.445	1965.560	1538.723
-10.604	19.388	1964.925	1537.657
-9.590	19.283	1963.891	1535.852
-8.575	19.315	1961.644	1534.324
-7.560	19.399	1960.648	1534.232
-6.546	19.335	1959.385	1532.611
-5.531	19.323	1958.307	1531.602
-4.517	19.357	1956.670	1530.557
-3.502	19.331	1955.977	1529.728
-2.487	19.335	1954.342	1528.418
-1.473	19.464	1953.072	1528.507
-0.458	19.327	1948.117	1523.363
0.556	18.072	1927.383	1493.728
1.571	13.700	1908.571	1441.107
2.586	9.916	1930.500	1424.210
3.600	8.981	1964.974	1441.119
4.615	9.086	1956.495	1435.713
5.629	7.263	1857.321	1347.329
6.644	3.095	1748.858	1235.115
7.659	0.874	1719.940	1197.034
8.673	0.573	1717.476	1192.831
9.688	0.677	1716.029	1192.544
10.702	0.603	1714.837	1191.021
11.717	0.547	1710.307	1187.336
12.731	0.844	1708.119	1188.044
13.746	4.363	1714.764	1220.262
14.761	10.973	1728.589	1282.240
15.775	16.011	1738.411	1329.249
16.790	17.189	1739.504	1339.258
17.804	16.397	1735.768	1330.032
18.819	15.390	1732.992	1319.864
19.834	14.731	1730.785	1312.888
20.848	14.477	1729.447	1309.763
21.863	14.335	1727.551	1307.096
22.877	13.967	1726.794	1303.520
23.892	13.814	1725.038	1300.881
24.907	13.757	1723.413	1299.097
25.921	13.643	1722.541	1297.434
26.936	13.729	1721.270	1297.035
27.950	13.679	1720.577	1296.003
28.965	13.737	1719.902	1295.834
29.980	13.811	1719.570	1296.047
30.994	13.811	1718.442	1295.082
32.009	13.863	1717.155	1294.400
33.023	13.907	1716.533	1294.166
34.038	13.857	1715.865	1293.154
35.053	13.857	1714.461	1291.980
36.067	13.882	1713.113	1291.045
37.082	13.809	1712.835	1290.157
38.096	13.895	1711.065	1289.375
39.111	13.846	1710.635	1288.555
40.126	13.846	1710.085	1288.031
41.140	13.842	1708.621	1286.781
42.155	13.768	1707.022	1284.892
43.169	13.813	1705.702	1284.134
44.184	13.664	1704.885	1282.250
45.199	13.700	1703.724	1281.543
46.213	13.674	1702.504	1280.307
47.228	13.776	1701.034	1279.876
48.242	13.791	1699.952	1279.065
49.257	13.813	1698.702	1278.186
50.271	13.771	1697.371	1276.744
51.286	13.747	1696.339	1275.674
52.301	13.830	1694.462	1274.781
53.315	13.718	1693.606	1273.168
54.330	13.746	1691.377	1271.596
55.344	13.795	1689.847	1270.710
56.359	13.732	1688.980	1269.457
57.374	13.795	1687.424	1268.659
58.388	13.758	1685.988	1267.183
59.403	13.733	1685.086	1266.203
60.417	13.697	1683.261	1264.450
61.432	13.738	1682.217	1263.865
62.447	13.663	1680.751	1262.083
63.461	13.636	1680.132	1261.299
64.476	13.552	1678.876	1259.603
65.490	13.647	1677.513	1259.190
66.505	13.655	1675.929	1257.949
67.520	13.732	1674.793	1257.570
68.534	13.709	1673.947	1256.649
69.549	13.579	1673.221	1255.008
70.563	13.705	1671.371	1254.461
71.578	13.627	1670.164	1252.858
72.593	13.656	1669.195	1252.241
73.607	13.702	1667.802	1251.432
74.622	13.582	1666.908	1249.745
75.636	13.627	1665.817	1249.157
76.651	13.581	1664.916	1248.022
77.666	13.641	1663.763	1247.496
78.680	13.625	1662.689	1246.465
79.695	13.633	1661.670	1245.646
80.709	13.582	1660.979	1244.640
81.724	13.633	1659.794	1244.024
82.739	13.653	1659.189	1243.608
83.753	13.761	1657.537	1243.072
84.768	13.727	1656.667	1242.049
85.782	13.786	1656.304	1242.111
86.797	13.808	1655.093	1241.258
87.812	13.733	1654.073	1239.824
88.826	13.753	1652.901	1238.985
89.841	13.707	1651.958	1237.828
90.855	13.713	1650.531	1236.693
91.870	13.778	1649.533	1236.321
92.884	13.758	1648.743	1235.465
93.899	13.780	1647.683	1234.730
94.914	13.825	1646.314	1233.923
95.928	13.886	1644.697	1233.056
96.943	13.896	1643.634	1232.226
97.957	13.885	1641.724	1230.602
98.972	13.931	1640.492	1229.914
99.987	13.857	1638.733	1227.941
101.001	13.831	1637.064	1226.390
102.016	13.810	1635.695	1225.101
103.030	13.727	1634.387	1223.393
104.045	13.854	1632.928	1223.134
105.060	13.838	1631.238	1221.642
106.074	13.842	1629.847	1220.521
107.089	13.783	1628.730	1219.143
108.103	13.668	1626.967	1216.869
109.118	13.708	1625.136	1215.691
110.133	13.737	1623.645	1214.673
111.147	13.769	1622.289	1213.788
112.162	13.750	1621.084	1212.643
113.176	13.734	1619.569	1211.282
114.191	13.716	1618.404	1210.172
115.206	13.796	1616.591	1209.293
116.220	13.813	1615.467	1208.473
117.235	13.763	1614.432	1207.225
118.249	13.725	1613.708	1206.298
119.264	13.753	1611.905	1205.047
120.279	13.793	1610.029	1203.831
121.293	13.708	1608.702	1202.116
122.308	13.717	1607.539	1201.206
123.322	13.666	1605.908	1199.509
124.337	13.642	1604.375	1198.089
125.352	13.718	1602.548	1197.168
126.366	13.682	1601.594	1196.087
127.381	13.769	1600.236	1195.594
128.395	13.585	1599.621	1193.700
129.410	13.695	1597.773	1193.011
130.424	13.708	1596.282	1191.881
131.439	13.698	1594.846	1190.632
132.454	13.736	1593.104	1189.499
133.468	13.730	1591.739	1188.337
134.483	13.798	1590.511	1187.799
135.497	13.798	1589.170	1186.692
136.512	13.882	1587.322	1185.808
137.527	13.765	1586.339	1184.132
138.541	13.830	1584.724	1183.286
139.556	13.849	1583.206	1182.186
140.570	13.825	1582.174	1181.137
141.585	13.923	1581.116	1180.937
142.600	13.961	1579.837	1180.148
143.614	13.933	1578.586	1178.910
144.629	13.864	1577.561	1177.553
145.643	14.001	1575.971	1177.232
146.658	14.002	1574.862	1176.309
147.673	14.023	1572.884	1174.876
148.687	14.021	1571.808	1173.951
149.702	13.906	1570.225	1171.853
150.716	14.002	1567.911	1170.700
151.731	13.950	1566.824	1169.421
152.746	13.959	1565.639	1168.497
153.760	13.945	1564.290	1167.290
154.775	13.929	1563.272	1166.315
155.789	14.033	1561.336	1165.492
156.804	13.940	1560.801	1164.338
157.819	14.047	1559.353	1163.902
158.833	14.100	1557.823	1163.031
159.848	14.087	1556.845	1162.109
160.862	14.173	1555.220	1161.395
161.877	14.204	1553.769	1160.420
162.892	14.172	1552.823	1159.388
163.906	14.113	1551.681	1158.026
164.921	14.058	1550.587	1156.720
165.935	14.035	1549.501	1155.650
166.950	14.120	1548.156	1155.133
167.964	14.169	1546.437	1154.086
168.979	14.134	1545.963	1153.388
169.994	14.022	1544.990	1151.787
171.008	14.226	1543.175	1151.746
172.023	14.148	1542.516	1150.610
173.037	14.227	1541.231	1150.097
174.052	14.277	1539.858	1149.315
175.067	14.292	1538.802	1148.529
176.081	14.220	1537.652	1147.070
177.096	14.265	1536.736	1146.596
178.110	14.151	1535.146	1144.522
179.125	14.148	1534.222	1143.716
180.140	14.088	1533.078	1142.347
181.154	14.264	1532.047	1142.684
182.169	14.174	1530.835	1141.064
183.183	14.214	1529.482	1140.232
184.198	14.347	1527.895	1139.857
185.213	14.326	1526.976	1138.928
186.227	14.368	1526.246	1138.571
187.242	14.395	1525.065	1137.768
188.256	14.402	1523.734	1136.727
189.271	14.564	1522.155	1136.547
190.286	14.426	1522.505	1135.766
191.300	14.423	1520.393	1134.072
192.315	14.261	1519.380	1132.116
193.329	14.339	1518.253	1131.706
194.344	14.366	1517.194	1131.002
195.359	14.277	1516.033	1129.428
196.373	14.421	1514.903	1129.468
197.388	14.407	1514.192	1128.739
198.402	14.574	1512.484	1128.495
199.417	14.488	1511.220	1126.870
200.432	14.600	1510.180	1126.752
201.446	14.577	1509.599	1126.062
202.461	14.677	1508.040	1125.474
203.475	14.677	1507.036	1124.627
204.490	14.657	1505.962	1123.593
205.504	14.766	1505.009	1123.517
206.519	14.630	1504.082	1121.808
207.534	14.610	1502.982	1120.752
208.548	14.557	1502.407	1119.871
209.563	14.614	1501.083	1119.168
210.577	14.614	1499.583	1117.953
211.592	14.600	1498.685	1117.086
212.607	14.713	1497.895	1117.154
213.621	14.703	1497.393	1116.615
214.636	14.802	1495.786	1115.978
215.650	14.814	1495.093	1115.442
216.665	14.775	1494.243	1114.455
217.680	14.732	1493.359	1113.409
218.694	14.715	1492.694	1112.696
219.709	14.853	1491.238	1112.436
220.723	14.829	1490.650	1111.735
221.738	14.871	1489.098	1110.764
222.753	14.891	1488.340	1110.232
223.767	14.910	1487.367	1109.535
224.782	14.898	1486.536	1108.737
225.796	14.889	1485.627	1107.897
226.811	14.873	1485.111	1107.308
227.826	14.981	1483.845	1106.986
228.840	14.992	1483.133	1106.428
229.855	14.900	1482.170	1105.005
230.869	14.970	1480.831	1104.368
231.884	14.964	1479.980	1103.599
232.899	15.036	1478.526	1102.885
233.913	14.869	1477.905	1101.226
234.928	14.971	1476.237	1100.560
235.942	14.882	1475.250	1099.141
236.957	14.997	1473.967	1098.841
237.972	14.944	1473.027	1097.696
238.986	15.009	1471.916	1097.198
240.001	14.935	1471.217	1096.093
241.015	15.058	1469.734	1095.699
242.030	15.011	1468.467	1094.347
243.045	15.039	1468.036	1094.114
244.059	15.106	1466.776	1093.519
245.074	15.106	1466.194	1092.984
246.088	15.144	1465.030	1092.266
247.103	15.088	1464.486	1091.404
248.117	15.237	1463.160	1091.286
249.132	15.195	1463.027	1090.818
250.147	15.280	1462.115	1090.596
251.161	15.368	1461.070	1090.292
252.176	15.364	1460.538	1089.768
253.190	15.355	1460.040	1089.243
254.205	15.489	1458.618	1088.953
255.220	15.379	1458.241	1087.865
256.234	15.482	1456.796	1087.357
257.249	15.486	1455.787	1086.537
258.263	15.480	1455.472	1086.163
259.278	15.475	1454.103	1085.017
260.293	15.485	1453.629	1084.629
261.307	15.534	1452.780	1084.219
262.322	15.548	1452.243	1083.812
263.336	15.552	1451.187	1082.953
264.351	15.523	1450.254	1081.973
265.366	15.602	1448.946	1081.412
266.380	15.633	1448.586	1081.248
267.395	15.663	1447.241	1080.339
268.409	15.660	1446.640	1079.774
269.424	15.718	1444.968	1078.801
270.439	15.684	1444.227	1077.936
271.453	15.639	1443.544	1077.044
272.468	15.649	1442.623	1076.326
273.482	15.620	1441.910	1075.511
274.497	15.620	1441.050	1074.776
275.512	15.729	1439.764	1074.420
276.526	15.622	1439.144	1073.176
277.541	15.703	1437.692	1072.513
278.555	15.783	1436.768	1072.238
279.570	15.812	1435.891	1071.676
280.585	15.788	1435.299	1070.984
281.599	15.776	1434.685	1070.358
282.614	15.857	1433.539	1069.923
283.628	15.874	1432.250	1068.971
284.643	15.796	1431.839	1068.077
285.657	15.802	1430.266	1066.846
286.672	15.825	1429.442	1066.284
287.687	15.863	1428.611	1065.810
288.701	15.896	1427.428	1065.044
289.716	15.882	1426.681	1064.301
290.730	15.949	1425.455	1063.715
291.745	15.935	1424.155	1062.567
292.760	15.872	1423.554	1061.623
293.774	15.980	1422.269	1061.253
294.789	15.889	1421.463	1059.983
295.803	15.975	1420.515	1059.728
296.818	15.988	1419.296	1058.806
297.833	15.999	1418.662	1058.303
298.847	16.068	1417.952	1058.114
299.862	16.048	1416.634	1056.914
300.876	16.027	1415.635	1055.943
301.891	16.060	1414.752	1055.397
302.906	16.130	1413.724	1054.973
303.920	16.146	1413.358	1054.708
304.935	16.113	1412.514	1053.778
305.949	16.202	1411.951	1053.819
306.964	16.236	1410.806	1053.089
307.979	16.297	1410.292	1052.991
308.993	16.225	1409.225	1051.650
310.008	16.263	1407.921	1050.819
311.022	16.356	1406.412	1050.179
312.037	16.313	1405.815	1049.374
313.052	16.374	1405.251	1049.239
314.066	16.314	1403.811	1047.700
315.081	16.315	1402.792	1046.852
316.095	16.320	1401.873	1046.106
317.110	16.297	1401.602	1045.670
318.125	16.346	1399.785	1044.521
319.139	16.259	1398.922	1043.249
320.154	16.304	1397.684	1042.509
321.168	16.373	1396.857	1042.229
322.183	16.320	1395.698	1040.942
323.197	16.407	1394.814	1040.729
324.212	16.340	1393.789	1039.457
325.227	16.435	1393.463	1039.706
326.241	16.418	1392.166	1038.545
327.256	16.460	1391.484	1038.204
328.270	16.385	1390.551	1036.951
329.285	16.439	1389.612	1036.494
330.300	16.332	1388.802	1035.142
331.314	16.405	1387.967	1034.876
332.329	16.408	1386.660	1033.828
333.343	16.469	1385.789	1033.456
334.358	16.476	1385.164	1032.943
335.373	16.443	1384.309	1032.011
336.387	16.558	1383.253	1031.834
337.402	16.519	1382.832	1031.190
338.416	16.634	1382.017	1031.198
339.431	16.671	1381.335	1030.821
340.446	16.597	1380.667	1029.778
341.460	16.682	1379.619	1029.424
342.475	16.768	1378.632	1029.118
343.489	16.735	1377.601	1028.056
344.504	16.660	1376.964	1027.036
345.519	16.796	1375.876	1026.961
346.533	16.824	1374.562	1026.054
347.548	16.773	1374.087	1025.301
348.562	16.954	1372.626	1025.216
349.577	16.837	1372.152	1024.062
350.592	16.840	1371.757	1023.698
351.606	16.788	1370.834	1022.606
352.621	16.795	1369.937	1021.888
353.635	16.810	1368.862	1021.087
354.650	16.853	1367.977	1020.591
355.665	16.895	1367.079	1020.084
356.679	16.885	1365.583	1018.821
357.694	16.852	1364.704	1017.876
358.708	16.891	1363.571	1017.174
359.723	16.924	1362.450	1016.446
360.738	16.946	1361.240	1015.586
361.752	16.918	1360.385	1014.691
362.767	17.037	1358.824	1014.144
363.781	17.032	1358.287	1013.628
364.796	17.004	1357.632	1012.878
365.810	16.988	1357.040	1012.251
366.825	16.934	1356.566	1011.491
367.840	17.102	1355.302	1011.454
368.854	17.082	1354.862	1010.919
369.869	17.068	1354.451	1010.438
370.883	17.072	1353.636	1009.766
371.898	17.219	1352.188	1009.473
372.913	17.120	1351.938	1008.606
373.927	17.239	1350.691	1008.294
374.942	17.236	1349.798	1007.519
375.956	17.165	1349.579	1006.849
376.971	17.190	1348.687	1006.242
377.986	17.267	1347.437	1005.674
379.000	17.169	1346.807	1004.538
380.015	17.273	1345.767	1004.286
381.029	17.351	1344.897	1004.006
382.044	17.352	1344.232	1003.428
383.059	17.359	1343.448	1002.798
384.073	17.433	1342.602	1002.511
385.088	17.290	1342.669	1001.628
386.102	17.367	1341.566	1001.171
387.117	17.426	1340.941	1000.966
388.132	17.427	1339.540	999.833
389.146	17.478	1338.812	999.502
390.161	17.425	1337.906	998.426
391.175	17.517	1337.563	998.624
392.190	17.509	1336.459	997.661
393.205	17.510	1335.281	996.700
394.219	17.584	1334.490	996.456
395.234	17.528	1333.485	995.291
396.248	17.596	1331.922	994.430
397.263	17.601	1330.454	993.278
398.278	17.545	1329.525	992.169
399.292	17.631	1328.100	991.519
400.307	17.548	1327.542	990.529
401.321	17.454	1326.746	989.306
402.336	17.509	1325.580	988.668
403.350	17.555	1324.377	987.949
404.365	17.568	1323.302	987.132
405.380	17.557	1322.474	986.366
406.394	17.625	1321.988	986.308
407.409	17.635	1320.902	985.470
408.423	17.618	1320.394	984.905
409.438	17.713	1319.484	984.689
410.453	17.719	1318.557	983.942
411.467	17.716	1318.141	983.529
412.482	17.759	1317.424	983.156
413.496	17.828	1316.515	982.788
414.511	17.820	1316.067	982.322
415.526	17.790	1314.867	981.165
416.540	17.953	1313.928	981.315
417.555	17.835	1313.880	980.513
418.569	17.857	1313.333	980.144
419.584	17.919	1312.815	980.023
420.599	17.981	1311.821	979.553
421.613	101.994	1364.894	1492.753
422.628	100.454	1372.551	1492.833
