DTS Sentinel unit serial number:	SN413079Multiplexer serial number:	ORYXHardware model number:	OX4-SRSoftware version number:	ORYX F/W v4.00 Oryx Data Collector v3.7.2.0data status	okinstallation	princeton_trtdifferential loss correction	single-endedforward channel	channel 1reverse channel	N/Adate	2019/09/18time	01:22:35forward acquisition time	60.00reverse acquisition time	0.00gamma	496.2192k internal	0.2341k external	0.2341temperature offset calibration	0.9978default loss term (dB/km)	0.3790temperature slope calibration	1.0000multiplexer offset coefficient	1.0000multiplexer slope coefficient	1.0000fibre end	0.00T internal ref (°C)	23.12T ext. ref 1 (°C)	0.17T ext. ref 2 (°C)	16.88length (m)	temperature (°C)	Stokes	anti-Stokes-747.200	134.443	0.086	0.112
-746.185	-79.804	-0.404	-0.136
-745.171	671.810	-0.090	0.235
-744.156	42.170	-0.184	0.167
-743.142	-94.476	-0.089	-0.024
-742.127	-162.245	-0.345	0.017
-741.112	800.000	-0.096	0.366
-740.098	-8.342	0.071	-0.048
-739.083	-168.641	-0.358	-0.014
-738.069	114.443	-0.055	-0.068
-737.054	-9.457	-0.123	0.082
-736.039	43.447	-0.239	-0.219
-735.025	-200.000	0.002	0.075
-734.010	-63.118	-0.236	-0.098
-732.996	800.000	0.090	-0.276
-731.981	-200.000	0.029	-0.178
-730.966	-81.229	-0.357	0.118
-729.952	-101.276	0.318	-0.078
-728.937	-200.000	0.000	-0.247
-727.923	-136.601	0.176	-0.020
-726.908	88.132	-0.294	-0.327
-725.894	-60.448	-0.220	-0.094
-724.879	31.649	0.171	-0.148
-723.864	-200.000	-0.005	-0.319
-722.850	800.000	-0.032	-0.132
-721.835	-59.924	-0.205	-0.088
-720.821	174.319	-0.103	0.148
-719.806	-200.000	0.059	-0.358
-718.791	-59.225	-0.063	-0.027
-717.777	-124.860	0.164	-0.025
-716.762	-119.086	-0.121	0.021
-715.748	-90.445	0.058	0.017
-714.733	-200.000	-0.016	-0.202
-713.718	568.690	-0.051	0.124
-712.704	-70.182	-0.224	-0.085
-711.689	-154.752	0.594	0.039
-710.675	-28.429	-0.131	0.075
-709.660	287.369	0.050	0.090
-708.645	287.552	-0.138	0.250
-707.631	800.000	-0.115	-0.365
-706.616	-59.313	-0.180	-0.077
-705.602	-103.134	-0.298	-0.070
-704.587	800.000	-0.083	0.250
-703.572	195.879	0.190	0.289
-702.558	800.000	-0.109	0.322
-701.543	490.295	-0.060	-0.136
-700.529	-30.402	-0.405	0.230
-699.514	488.290	-0.142	0.325
-698.499	310.898	-0.038	-0.071
-697.485	-24.651	0.235	-0.140
-696.470	800.000	0.035	-0.111
-695.456	519.723	0.076	0.177
-694.441	-69.596	0.078	0.030
-693.426	-57.732	-0.147	-0.064
-692.412	800.000	-0.087	-0.250
-691.397	49.736	0.201	-0.190
-690.383	2.264	-0.176	-0.127
-689.368	-60.365	-0.026	0.011
-688.354	573.016	0.057	0.139
-687.339	38.033	0.264	0.235
-686.324	-132.318	-0.401	0.052
-685.310	-145.842	0.193	0.017
-684.295	-106.783	0.116	0.026
-683.281	800.000	0.119	0.415
-682.266	-121.013	-0.226	0.038
-681.251	-125.150	0.173	0.026
-680.237	628.897	-0.120	0.303
-679.222	-132.061	-0.053	0.007
-678.208	-2.903	-0.274	0.191
-677.193	533.456	0.098	-0.231
-676.178	-78.960	0.240	0.082
-675.164	-69.250	0.333	0.128
-674.149	-114.760	0.080	0.015
-673.135	150.481	-0.314	-0.426
-672.120	800.000	-0.028	0.093
-671.105	-151.469	-0.275	0.020
-670.091	231.726	-0.118	-0.193
-669.076	800.000	-0.058	0.196
-668.062	-200.000	-0.055	0.248
-667.047	-75.982	-0.125	-0.044
-666.032	800.000	-0.127	0.421
-665.018	151.973	0.079	-0.107
-664.003	-30.114	-0.295	-0.168
-662.989	800.000	0.071	0.203
-661.974	-124.118	-0.130	-0.020
-660.959	796.779	-0.082	0.226
-659.945	63.338	-0.122	-0.122
-658.930	-118.679	-0.323	0.057
-657.916	451.669	0.245	0.541
-656.901	147.474	-0.052	-0.070
-655.886	378.894	0.045	-0.091
-654.872	-110.146	0.049	0.010
-653.857	-5.170	-0.458	-0.315
-652.843	25.072	0.299	0.248
-651.828	351.372	0.017	-0.033
-650.814	-161.740	-0.247	-0.013
-649.799	46.030	-0.194	-0.179
-648.784	-200.000	0.009	0.240
-647.770	-200.000	-0.014	-0.162
-646.755	-15.117	-0.388	-0.248
-645.741	-200.000	-0.048	-0.218
-644.726	-200.000	-0.002	0.242
-643.711	635.267	0.012	0.030
-642.697	-144.549	-0.421	-0.039
-641.682	800.000	0.031	0.128
-640.668	1.294	-0.308	-0.221
-639.653	-125.721	0.081	0.012
-638.638	-124.346	0.200	-0.031
-637.624	-15.610	0.184	-0.117
-636.609	-137.778	0.277	-0.031
-635.595	-105.619	0.232	-0.052
-634.580	13.038	0.031	-0.024
-633.565	9.120	-0.329	-0.248
-632.551	-127.522	-0.430	-0.062
-631.536	72.237	-0.207	0.215
-630.522	-145.882	-0.329	0.029
-629.507	-101.131	0.198	0.048
-628.492	162.278	0.189	-0.264
-627.478	-94.331	-0.169	-0.046
-626.463	185.776	0.101	-0.150
-625.449	28.233	-0.100	-0.084
-624.434	-9.261	-0.285	-0.190
-623.419	51.263	0.102	0.096
-622.405	-139.745	0.284	-0.030
-621.390	-61.712	-0.231	-0.097
-620.376	288.375	-0.218	0.393
-619.361	42.353	0.026	0.024
-618.346	52.480	-0.244	-0.232
-617.332	283.668	0.092	0.165
-616.317	-200.000	-0.027	0.561
-615.303	-42.488	0.204	0.104
-614.288	-200.000	-0.045	-0.361
-613.273	692.196	-0.086	0.224
-612.259	-200.000	0.019	-0.137
-611.244	648.250	0.113	-0.287
-610.230	-47.980	0.307	-0.148
-609.215	-130.534	0.170	-0.023
-608.201	48.261	-0.128	-0.119
-607.186	415.006	-0.011	0.024
-606.171	-39.995	0.138	0.072
-605.157	-105.598	0.216	0.049
-604.142	-169.207	-0.271	0.010
-603.128	201.122	-0.101	0.156
-602.113	-23.942	0.369	0.220
-601.098	-71.307	-0.069	0.026
-600.084	-123.199	0.146	-0.023
-599.069	-31.340	0.235	0.132
-598.055	-30.928	0.224	-0.126
-597.040	209.473	-0.072	0.112
-596.025	166.776	-0.082	-0.116
-595.011	-31.752	-0.206	-0.115
-593.996	26.480	-0.143	-0.119
-592.982	-61.447	0.156	0.065
-591.967	-159.868	-0.244	-0.013
-590.952	-200.000	-0.000	0.011
-589.938	138.238	0.101	0.132
-588.923	177.925	-0.061	0.088
-587.909	365.606	-0.137	0.275
-586.894	234.865	0.104	-0.171
-585.879	-175.189	-0.072	0.002
-584.865	55.899	-0.188	0.182
-583.850	800.000	-0.042	0.132
-582.836	114.909	-0.242	0.294
-581.821	77.279	-0.128	0.136
-580.806	-200.000	-0.003	0.410
-579.792	-98.329	0.262	0.067
-578.777	-108.436	0.267	0.057
-577.763	800.000	-0.063	-0.251
-576.748	-38.480	-0.118	0.062
-575.733	320.286	0.085	-0.161
-574.719	-200.000	-0.038	-0.303
-573.704	302.601	-0.255	-0.469
-572.690	800.000	0.039	-0.157
-571.675	-123.790	-0.303	0.048
-570.661	50.481	-0.118	-0.111
-569.646	242.620	0.112	-0.187
-568.631	229.346	-0.091	-0.148
-567.617	-189.333	0.080	0.001
-566.602	-94.563	-0.682	0.185
-565.588	388.633	-0.071	-0.147
-564.573	536.038	0.067	-0.158
-563.558	-194.259	-0.214	-0.002
-562.544	606.902	-0.139	0.344
-561.529	-146.793	0.141	-0.012
-560.515	583.001	0.142	0.348
-559.500	19.527	-0.299	0.239
-558.485	-32.678	-0.172	-0.095
-557.471	-128.116	0.336	-0.048
-556.456	-36.622	0.219	0.117
-555.442	186.221	0.069	-0.103
-554.427	800.000	0.051	-0.142
-553.412	-75.190	-0.306	-0.109
-552.398	-40.265	-0.153	0.079
-551.383	28.478	-0.051	0.043
-550.369	135.350	0.222	0.288
-549.354	-156.247	0.218	-0.014
-548.339	-117.805	0.078	-0.014
-547.325	-33.546	0.256	0.141
-546.310	47.447	-0.119	-0.110
-545.296	-200.000	0.030	-0.259
-544.281	282.126	-0.072	-0.128
-543.266	-200.000	0.008	0.220
-542.252	112.896	-0.125	-0.151
-541.237	583.158	-0.104	-0.255
-540.223	-73.043	-0.236	0.086
-539.208	46.867	0.186	0.172
-538.193	-62.306	-0.144	-0.060
-537.179	800.000	-0.063	0.209
-536.164	34.438	-0.308	0.267
-535.150	-200.000	0.004	-0.035
-534.135	-200.000	-0.011	-0.296
-533.121	337.586	-0.173	0.334
-532.106	-200.000	-0.003	-0.119
-531.091	334.165	0.091	0.176
-530.077	19.845	0.205	0.164
-529.062	206.558	-0.103	-0.159
-528.048	-84.551	-0.426	0.134
-527.033	153.836	-0.051	0.069
-526.018	157.423	0.149	-0.205
-525.004	800.000	-0.031	-0.088
-523.989	212.022	0.210	-0.328
-522.975	-57.372	0.194	-0.085
-521.960	7.014	-0.175	0.130
-520.945	62.249	-0.158	0.156
-519.931	-191.025	0.219	0.002
-518.916	-200.000	0.002	-0.547
-517.902	-27.730	0.180	-0.104
-516.887	26.867	-0.308	-0.257
-515.872	-96.644	-0.297	-0.078
-514.858	-200.000	0.001	0.084
-513.843	3.934	-0.127	0.092
-512.829	-200.000	0.015	-0.160
-511.814	58.836	0.155	-0.152
-510.799	-92.661	0.081	0.022
-509.785	800.000	-0.049	-0.186
-508.770	-83.988	-0.178	0.056
-507.756	-28.494	-0.091	0.052
-506.741	-116.573	0.148	-0.027
-505.726	800.000	-0.155	-0.497
-504.712	69.913	-0.233	0.239
-503.697	239.720	0.089	-0.147
-502.683	-200.000	0.017	0.426
-501.668	-127.419	0.083	0.012
-500.653	490.791	-0.077	-0.175
-499.639	-200.000	0.049	0.251
-498.624	369.963	0.167	0.336
-497.610	-200.000	0.015	0.222
-496.595	800.000	0.041	0.113
-495.581	223.581	0.064	-0.102
-494.566	49.811	-0.247	0.231
-493.551	-79.909	0.131	-0.044
-492.537	-30.597	0.114	-0.064
-491.522	-34.098	-0.282	0.154
-490.508	-200.000	-0.006	0.048
-489.493	-99.826	0.120	0.030
-488.478	800.000	-0.071	-0.212
-487.464	-50.171	-0.291	-0.137
-486.449	-200.000	0.026	0.114
-485.435	-175.931	-0.179	-0.005
-484.420	33.023	-0.119	0.102
-483.405	70.228	0.247	-0.253
-482.391	173.666	0.262	0.376
-481.376	-128.698	0.011	-0.002
-480.362	14.572	-0.159	-0.123
-479.347	159.961	-0.113	0.156
-478.332	-178.278	0.066	0.002
-477.318	-200.000	-0.037	0.199
-476.303	189.744	0.194	0.289
-475.289	-200.000	0.009	0.273
-474.274	140.732	-0.142	-0.186
-473.259	25.923	0.061	-0.050
-472.245	118.289	0.078	0.096
-471.230	-117.106	0.100	0.018
-470.216	125.960	0.100	-0.125
-469.201	218.150	0.081	0.128
-468.186	349.902	-0.120	-0.235
-467.172	463.034	-0.051	-0.112
-466.157	-163.158	0.170	-0.008
-465.143	555.564	0.126	0.300
-464.128	-134.958	-0.180	0.022
-463.113	800.000	-0.039	0.133
-462.099	-200.000	-0.010	0.048
-461.084	-56.937	-0.212	-0.093
-460.070	-200.000	0.071	0.338
-459.055	283.480	-0.061	-0.109
-458.040	-98.034	0.242	0.062
-457.026	-104.145	0.127	-0.029
-456.011	52.022	-0.215	0.203
-454.997	-90.538	0.186	0.053
-453.982	-91.348	-0.217	0.062
-452.968	-144.740	-0.126	0.011
-451.953	-200.000	0.172	-0.001
-450.938	800.000	-0.066	0.182
-449.924	-42.697	-0.097	0.049
-448.909	158.131	-0.089	-0.122
-447.895	-105.192	0.244	0.055
-446.880	-109.717	0.203	0.042
-445.865	49.221	0.164	-0.153
-444.851	800.000	0.138	-0.386
-443.836	-34.129	0.013	0.007
-442.822	112.769	0.067	0.080
-441.807	-106.630	-0.192	0.042
-440.792	-200.000	0.023	-0.139
-439.778	-86.937	-0.379	-0.115
-438.763	-200.000	0.006	-0.085
-437.749	-200.000	0.035	-0.346
-436.734	-200.000	-0.029	0.277
-435.719	-87.639	0.083	0.025
-434.705	68.385	-0.100	0.101
-433.690	-149.355	0.474	-0.037
-432.676	-25.744	0.093	0.054
-431.661	96.507	0.194	0.219
-430.646	102.308	-0.045	0.052
-429.632	-9.703	-0.256	-0.169
-428.617	101.858	0.211	-0.243
-427.603	800.000	0.073	-0.235
-426.588	350.825	-0.124	-0.243
-425.573	-121.272	0.248	-0.041
-424.559	-200.000	-0.011	-0.074
-423.544	800.000	-0.066	-0.249
-422.530	64.301	0.128	-0.128
-421.515	199.116	0.024	-0.037
-420.500	248.516	0.122	0.204
-419.486	315.220	0.065	0.122
-418.471	800.000	-0.049	-0.168
-417.457	800.000	-0.060	-0.235
-416.442	25.615	0.111	0.092
-415.428	-112.068	-0.058	0.011
-414.413	204.254	0.010	-0.015
-413.398	-156.750	-0.247	0.015
-412.384	18.288	0.207	-0.163
-411.369	199.440	-0.102	-0.155
-410.355	-172.665	0.104	-0.003
-409.340	800.000	-0.060	0.206
-408.325	599.738	-0.125	-0.308
-407.311	142.942	0.184	0.241
-406.296	-200.000	-0.024	0.354
-405.282	-69.843	-0.228	-0.086
-404.267	517.933	-0.092	-0.212
-403.252	800.000	0.082	-0.243
-402.238	516.182	-0.082	-0.190
-401.223	-12.418	0.185	-0.120
-400.209	-200.000	-0.221	0.000
-399.194	-58.123	0.151	-0.065
-398.179	323.737	-0.024	-0.044
-397.165	-63.075	0.116	-0.047
-396.150	-6.895	0.288	0.193
-395.136	69.102	-0.118	0.120
-394.121	-37.903	-0.201	0.106
-393.106	800.000	-0.111	0.328
-392.092	166.918	0.100	0.141
-391.077	81.071	-0.128	0.137
-390.063	-200.000	-0.020	0.199
-389.048	78.283	-0.210	-0.222
-388.033	-64.447	-0.128	0.052
-387.019	306.648	-0.127	0.233
-386.004	-38.185	0.207	0.108
-384.990	-4.257	0.188	0.128
-383.975	-126.259	0.242	0.036
-382.960	103.139	-0.133	-0.154
-381.946	6.108	-0.311	-0.227
-380.931	-35.784	-0.230	0.123
-379.917	11.928	0.264	-0.201
-378.902	381.263	0.044	-0.090
-377.888	-107.295	0.400	-0.087
-376.873	27.185	0.046	0.039
-375.858	-55.241	0.153	-0.068
-374.844	-47.255	-0.153	0.074
-373.829	351.643	0.066	-0.130
-372.815	-125.126	-0.270	0.041
-371.800	224.366	-0.020	0.031
-370.785	91.550	0.103	0.115
-369.771	90.454	0.160	0.177
-368.756	-200.000	0.061	0.285
-367.742	763.009	0.021	-0.056
-366.727	800.000	0.055	0.159
-365.712	-150.506	-0.359	-0.027
-364.698	15.168	-0.227	-0.176
-363.683	800.000	-0.025	-0.082
-362.669	-200.000	-0.027	0.402
-361.654	800.000	-0.077	0.247
-360.639	47.361	0.178	0.164
-359.625	52.943	-0.091	0.086
-358.610	171.452	-0.130	0.184
-357.596	330.216	-0.158	-0.301
-356.581	181.749	-0.047	0.068
-355.566	15.475	-0.109	-0.085
-354.552	-125.990	0.177	0.026
-353.537	-10.546	0.200	0.130
-352.523	800.000	0.052	-0.219
-351.508	-200.000	-0.035	-0.405
-350.493	88.824	0.218	0.239
-349.479	-51.255	-0.094	0.043
-348.464	-2.326	-0.041	0.029
-347.450	800.000	-0.095	-0.269
-346.435	24.841	0.273	0.224
-345.420	800.000	0.050	-0.204
-344.406	-200.000	0.020	-0.388
-343.391	12.696	-0.325	-0.247
-342.377	30.496	0.410	0.346
-341.362	1.291	-0.127	0.090
-340.348	-46.407	0.203	-0.098
-339.333	-0.091	0.251	-0.177
-338.318	-114.067	0.203	-0.039
-337.304	-92.501	0.289	-0.080
-336.289	32.848	-0.018	0.016
-335.275	-106.191	-0.259	-0.057
-334.260	800.000	0.161	-0.560
-333.245	-48.959	-0.369	-0.174
-332.231	-4.949	0.252	-0.171
-331.216	-85.552	0.445	-0.136
-330.202	800.000	-0.099	-0.288
-329.187	-55.517	0.270	0.119
-328.172	800.000	0.092	-0.265
-327.158	250.265	0.076	0.127
-326.143	77.375	0.097	-0.102
-325.129	354.568	0.066	0.130
-324.114	800.000	-0.064	-0.224
-323.099	168.844	0.084	-0.118
-322.085	145.511	0.086	0.114
-321.070	36.573	0.068	0.059
-320.056	532.565	-0.135	0.315
-319.041	800.000	0.103	-0.345
-318.026	-75.594	0.216	-0.076
-317.012	-200.000	-0.044	0.196
-315.997	-200.000	0.050	0.285
-314.983	-61.917	-0.063	-0.026
-313.968	-77.004	0.173	0.059
-312.953	-200.000	0.028	0.122
-311.939	132.614	0.135	-0.171
-310.924	-200.000	0.046	-0.273
-309.910	26.575	-0.098	0.081
-308.895	-23.578	0.260	-0.154
-307.880	-200.000	0.012	-0.080
-306.866	82.243	0.143	-0.153
-305.851	-169.450	0.261	0.009
-304.837	-149.648	-0.234	0.018
-303.822	123.401	-0.140	0.173
-302.807	8.078	-0.284	0.210
-301.793	-83.306	-0.027	-0.009
-300.778	-200.000	0.004	-0.172
-299.764	-100.472	0.168	-0.041
-298.749	-152.065	-0.275	-0.020
-297.735	361.778	0.119	0.236
-296.720	454.267	-0.047	-0.102
-295.705	191.893	-0.085	-0.127
-294.691	87.236	0.175	-0.191
-293.676	-21.750	0.191	-0.114
-292.662	472.120	0.121	-0.268
-291.647	32.322	0.130	0.111
-290.632	-68.686	-0.158	0.060
-289.618	288.817	-0.063	-0.113
-288.603	12.883	0.063	-0.048
-287.589	-99.836	-0.100	0.025
-286.574	-200.000	-0.304	0.001
-285.559	433.063	0.137	-0.292
-284.545	565.982	0.139	-0.331
-283.530	-200.000	-0.014	0.215
-282.516	18.236	0.194	0.153
-281.501	-200.000	-0.009	0.131
-280.486	347.569	-0.095	-0.183
-279.472	14.405	0.383	0.294
-278.457	-200.000	-0.041	0.300
-277.443	-200.000	0.016	0.072
-276.428	28.265	0.125	-0.104
-275.413	-41.259	-0.074	0.037
-274.399	6.310	0.169	0.124
-273.384	800.000	0.073	-0.207
-272.370	338.676	-0.127	-0.243
-271.355	75.623	0.246	-0.256
-270.340	-24.961	0.114	-0.067
-269.326	-49.210	-0.127	-0.060
-268.311	0.371	-0.107	-0.075
-267.297	-200.000	-0.016	0.183
-266.282	664.291	-0.149	0.379
-265.267	-167.629	-0.382	-0.015
-264.253	-47.549	0.161	-0.077
-263.238	15.532	0.216	0.167
-262.224	-50.911	-0.176	-0.081
-261.209	-99.621	-0.200	-0.049
-260.195	-132.083	0.217	0.028
-259.180	-54.763	-0.362	-0.161
-258.165	145.742	0.082	-0.108
-257.151	-24.987	-0.134	-0.078
-256.136	60.151	0.152	0.147
-255.122	-200.000	-0.003	-0.067
-254.107	-64.787	-0.111	-0.044
-253.092	487.614	0.116	-0.260
-252.078	340.974	-0.130	-0.250
-251.063	64.655	0.284	0.281
-250.049	30.227	-0.042	0.035
-249.034	-120.362	-0.227	-0.038
-248.019	-200.000	0.011	0.075
-247.005	-88.160	-0.427	0.126
-245.990	-200.000	0.002	-0.044
-244.976	800.000	0.057	-0.161
-243.961	-139.854	0.035	-0.004
-242.946	-146.729	-0.263	-0.022
-241.932	-90.283	0.145	0.041
-240.917	-113.887	0.270	-0.052
-239.903	-27.020	0.119	0.068
-238.888	-200.000	-0.045	0.212
-237.873	-20.846	-0.108	-0.065
-236.859	-107.653	-0.414	-0.089
-235.844	-200.000	-0.027	0.170
-234.830	-200.000	0.045	0.215
-233.815	-72.059	0.317	-0.116
-232.800	800.000	0.080	-0.226
-231.786	394.566	-0.140	0.287
-230.771	-16.755	0.075	0.046
-229.757	-200.000	0.016	0.371
-228.742	-78.339	0.140	-0.047
-227.727	-200.000	0.024	-0.125
-226.713	592.922	0.163	-0.395
-225.698	535.762	0.022	-0.052
-224.684	516.390	-0.059	-0.136
-223.669	129.119	-0.253	0.317
-222.655	-200.000	0.000	0.047
-221.640	-200.000	-0.019	0.131
-220.625	-113.501	0.118	0.023
-219.611	-68.226	0.323	-0.123
-218.596	800.000	-0.104	-0.293
-217.582	157.865	0.083	-0.113
-216.567	-53.614	-0.266	0.119
-215.552	700.504	-0.132	0.342
-214.538	-73.363	0.123	-0.044
-213.523	800.000	-0.090	0.321
-212.509	49.165	0.102	-0.094
-211.494	-66.607	0.083	0.032
-210.479	36.700	0.186	0.161
-209.465	-90.291	0.258	0.074
-208.450	-30.423	0.246	0.137
-207.436	563.283	0.138	0.328
-206.421	446.868	0.068	0.148
-205.406	38.750	0.368	0.323
-204.392	-170.088	-0.074	0.003
-203.377	-57.780	-0.161	0.069
-202.363	76.325	0.227	-0.235
-201.348	-34.467	0.228	0.123
-200.333	333.719	-0.121	-0.229
-199.319	-98.848	0.114	-0.028
-198.304	-200.000	-0.040	0.219
-197.290	250.043	-0.179	0.298
-196.275	-200.000	0.004	0.036
-195.260	-200.000	0.049	0.247
-194.246	800.000	0.035	0.100
-193.231	-43.701	-0.392	-0.194
-192.217	-96.824	0.242	-0.062
-191.202	-112.651	0.118	-0.023
-190.187	800.000	0.043	0.183
-189.173	-124.788	-0.077	0.012
-188.158	328.702	-0.041	0.078
-187.144	-94.870	0.136	-0.036
-186.129	-200.000	0.006	0.077
-185.114	-70.131	0.063	-0.024
-184.100	-200.000	-0.015	-0.236
-183.085	-155.757	0.094	-0.006
-182.071	800.000	-0.034	-0.122
-181.056	128.283	-0.217	-0.271
-180.042	182.154	-0.113	-0.164
-179.027	688.631	-0.068	0.175
-178.012	14.942	-0.112	0.086
-176.998	-136.829	0.128	0.014
-175.983	325.339	-0.061	0.114
-174.969	321.218	-0.048	-0.089
-173.954	-112.939	-0.261	0.051
-172.939	-49.344	-0.163	-0.076
-171.925	31.064	0.318	0.267
-170.910	88.417	0.023	0.025
-169.896	304.448	0.123	-0.224
-168.881	-81.594	-0.044	-0.014
-167.866	24.389	-0.259	-0.209
-166.852	-17.655	0.232	0.143
-165.837	-54.445	0.392	-0.174
-164.823	208.921	-0.177	0.272
-163.808	-108.302	-0.306	0.065
-162.793	-26.822	0.199	0.114
-161.779	-100.187	-0.321	0.078
-160.764	-2.396	-0.144	0.099
-159.750	105.545	-0.024	-0.028
-158.735	800.000	-0.051	0.195
-157.720	506.240	0.098	0.223
-156.706	-109.245	-0.169	0.035
-155.691	214.687	0.035	0.055
-154.677	-87.341	-0.301	0.089
-153.662	359.272	0.102	0.201
-152.647	103.518	0.194	-0.223
-151.633	-200.000	-0.010	0.056
-150.618	5.059	0.091	0.065
-149.604	-83.446	0.360	-0.113
-148.589	336.599	0.031	-0.059
-147.574	-200.000	-0.022	0.185
-146.560	734.575	-0.002	-0.004
-145.545	-94.089	0.133	-0.036
-144.531	-118.913	0.109	0.019
-143.516	1.372	0.156	0.110
-142.502	178.830	0.080	-0.114
-141.487	-200.000	0.025	-0.117
-140.472	-57.506	-0.259	0.111
-139.458	-152.209	-0.162	0.011
-138.443	-71.258	-0.142	0.052
-137.429	-41.158	0.389	-0.196
-136.414	42.380	0.056	0.050
-135.399	-114.749	0.478	0.089
-134.385	-5.491	0.196	0.131
-133.370	-200.000	0.011	-0.278
-132.356	78.067	0.043	0.045
-131.341	-200.000	-0.065	-0.303
-130.326	-200.000	-0.006	0.207
-129.312	-200.000	0.034	-0.379
-128.297	154.546	-0.194	0.261
-127.283	-141.817	0.119	-0.012
-126.268	-94.605	0.219	0.058
-125.253	285.222	0.079	0.140
-124.239	800.000	0.018	0.053
-123.224	278.049	0.266	0.463
-122.210	-200.000	0.044	0.217
-121.195	209.547	0.154	0.236
-120.180	417.352	-0.099	-0.206
-119.166	-200.000	0.039	-0.171
-118.151	-155.861	0.045	-0.003
-117.137	330.339	-0.094	-0.177
-116.122	723.979	0.086	0.225
-115.107	511.819	0.261	-0.595
-114.093	-117.166	0.138	0.025
-113.078	800.000	-0.085	0.249
-112.064	163.628	-0.104	-0.143
-111.049	538.853	-0.167	0.389
-110.034	299.643	-0.048	0.087
-109.020	-120.332	-0.372	0.062
-108.005	303.717	0.040	0.072
-106.991	46.738	0.199	0.181
-105.976	339.229	-0.169	0.322
-104.962	-69.410	0.167	0.063
-103.947	456.404	-0.054	-0.116
-102.932	-79.821	-0.071	-0.023
-101.918	-56.591	0.366	0.159
-100.903	59.140	-0.252	-0.243
-99.889	-123.762	0.295	-0.046
-98.874	40.678	0.040	-0.035
-97.859	-28.308	0.303	0.171
-96.845	-62.738	0.116	0.047
-95.830	-95.184	-0.123	-0.032
-94.816	113.877	-0.202	0.239
-93.801	-135.155	-0.192	0.023
-92.786	-200.000	0.042	0.183
-91.772	-170.793	-0.193	-0.006
-90.757	-200.000	0.030	0.187
-89.743	326.969	-0.136	-0.255
-88.728	-65.629	0.060	0.023
-87.713	-200.000	-0.007	-0.049
-86.699	800.000	-0.027	0.105
-85.684	-161.195	0.056	0.003
-84.670	217.892	-0.134	0.209
-83.655	800.000	-0.063	0.173
-82.640	-200.000	0.073	0.000
-81.626	-118.660	-0.084	0.014
-80.611	-37.478	-0.211	-0.110
-79.597	-68.377	0.193	0.073
-78.582	410.105	0.139	-0.288
-77.567	73.339	-0.068	0.069
-76.553	155.450	-0.194	-0.261
-75.538	-200.000	-0.025	0.182
-74.524	222.557	0.245	0.385
-73.509	-43.391	0.070	-0.035
-72.494	121.084	-0.136	0.165
-71.480	-179.434	0.137	-0.003
-70.465	206.196	-0.134	0.204
-69.451	158.936	-0.027	0.036
-68.436	-116.750	0.294	-0.053
-67.422	104.437	-0.261	-0.300
-66.407	152.056	0.110	0.147
-65.392	88.121	0.161	0.174
-64.378	352.933	-0.095	-0.184
-63.363	-129.084	-0.533	0.073
-62.349	-200.000	-0.010	-0.102
-61.334	2.619	-1.313	-0.929
-60.319	121.885	0.762	0.928
-59.305	800.000	-0.420	-1.359
-58.290	271.007	0.647	1.111
-57.276	800.000	0.658	1.781
-56.261	-200.000	125.887	670.781
-55.246	422.895	1581.053	3313.169
-54.232	141.649	2734.656	3533.903
-53.217	96.059	2151.840	2398.786
-52.203	34.665	1585.269	1351.605
-51.188	26.505	1329.769	1085.027
-50.173	23.821	1292.708	1039.074
-49.159	52.211	1362.948	1267.448
-48.144	48.717	1374.100	1256.786
-47.130	26.577	1321.476	1078.518
-46.115	23.267	1302.178	1043.257
-45.100	23.170	1296.999	1038.502
-44.086	23.100	1294.560	1036.094
-43.071	23.052	1292.271	1033.939
-42.057	22.959	1290.646	1032.054
-41.042	23.025	1288.588	1030.754
-40.027	22.987	1287.664	1029.755
-39.013	22.984	1285.401	1027.884
-37.998	23.009	1283.640	1026.581
-36.984	23.229	1281.624	1026.203
-35.969	23.054	1280.382	1024.157
-34.954	23.121	1278.749	1023.197
-33.940	23.143	1276.848	1021.759
-32.925	23.197	1275.765	1021.164
-31.911	23.084	1275.089	1019.933
-30.896	23.230	1273.048	1019.101
-29.881	23.387	1271.325	1018.583
-28.867	23.291	1270.291	1017.163
-27.852	23.334	1268.878	1016.237
-26.838	23.361	1267.672	1015.385
-25.823	23.285	1266.289	1013.805
-24.809	23.184	1265.654	1012.679
-23.794	23.147	1263.854	1010.988
-22.779	23.148	1263.028	1010.288
-21.765	23.219	1261.586	1009.501
-20.750	23.195	1260.136	1008.167
-19.736	23.086	1258.566	1006.249
-18.721	23.054	1257.850	1005.454
-17.706	23.077	1256.678	1004.607
-16.692	23.091	1255.225	1003.483
-15.677	22.974	1254.440	1002.156
-14.663	23.028	1253.153	1001.394
-13.648	22.966	1252.462	1000.447
-12.633	22.972	1251.398	999.595
-11.619	23.080	1250.852	999.731
-10.604	23.075	1249.752	998.780
-9.590	23.108	1248.551	997.968
-8.575	23.036	1247.740	996.874
-7.560	23.085	1246.408	996.050
-6.546	23.143	1245.811	995.857
-5.531	23.099	1245.358	995.211
-4.517	23.237	1244.255	995.062
-3.502	23.093	1243.618	993.702
-2.487	23.024	1243.352	993.066
-1.473	23.080	1238.407	989.388
-0.458	21.402	1223.368	968.054
0.556	16.364	1208.670	932.244
1.571	12.977	1215.814	918.837
2.586	12.386	1231.440	927.231
3.600	12.484	1219.396	918.625
4.615	8.997	1148.539	846.795
5.629	2.990	1078.902	765.525
6.644	0.341	1061.857	740.364
7.659	0.157	1060.091	738.165
8.673	0.041	1059.320	736.998
9.688	0.142	1057.861	736.410
10.702	0.278	1055.137	735.115
11.717	3.767	1059.572	755.212
12.731	10.734	1069.070	796.168
13.746	15.795	1074.121	824.725
14.761	16.767	1075.531	830.504
15.775	15.904	1073.948	824.979
16.790	14.935	1071.971	818.646
17.804	14.353	1070.530	814.628
18.819	14.010	1069.765	812.299
19.834	13.813	1068.807	810.536
20.848	13.568	1067.414	808.216
21.863	13.363	1066.599	806.524
22.877	13.232	1066.008	805.369
23.892	13.061	1065.403	804.007
24.907	13.102	1064.945	803.791
25.921	13.106	1064.067	803.075
26.936	13.164	1063.159	802.602
27.950	13.292	1062.101	802.354
28.965	13.271	1060.793	801.192
29.980	13.249	1060.034	800.444
30.994	13.327	1058.579	799.651
32.009	13.339	1057.665	798.946
33.023	13.405	1056.725	798.483
34.038	13.403	1055.553	797.519
35.053	13.310	1054.483	796.191
36.067	13.236	1054.091	795.472
37.082	13.303	1052.859	794.792
38.096	13.337	1052.346	794.499
39.111	13.370	1051.486	793.938
40.126	13.367	1050.244	792.914
41.140	13.201	1049.188	791.250
42.155	13.173	1047.857	790.042
43.169	13.126	1046.925	789.048
44.184	13.167	1045.749	788.288
45.199	13.115	1045.036	787.430
46.213	13.120	1044.234	786.779
47.228	13.286	1043.120	786.661
48.242	13.170	1042.150	785.308
49.257	13.280	1040.812	784.754
50.271	13.294	1039.845	784.021
51.286	13.377	1039.022	783.723
52.301	13.417	1038.035	783.101
53.315	13.171	1037.444	781.420
54.330	13.072	1036.476	780.157
55.344	13.183	1035.437	779.828
56.359	13.227	1034.288	779.103
57.374	13.190	1033.813	778.502
58.388	13.032	1033.421	777.392
59.403	13.101	1032.337	776.833
60.417	13.110	1030.770	775.625
61.432	13.088	1030.462	775.223
62.447	13.155	1029.697	774.894
63.461	13.122	1029.010	774.152
64.476	13.112	1028.332	773.526
65.490	13.033	1027.260	772.281
66.505	13.158	1026.555	772.269
67.520	13.188	1026.023	771.942
68.534	13.109	1025.694	771.257
69.549	13.186	1024.561	770.695
70.563	13.164	1023.759	769.922
71.578	13.093	1022.810	768.810
72.593	12.994	1022.511	768.055
73.607	12.967	1021.945	767.437
74.622	13.249	1020.750	767.781
75.636	13.033	1020.266	766.348
76.651	12.972	1019.645	765.530
77.666	13.045	1018.760	765.134
78.680	13.001	1018.328	764.538
79.695	13.059	1017.443	764.075
80.709	13.111	1017.152	764.028
81.724	13.136	1016.451	763.552
82.739	13.172	1015.625	763.032
83.753	13.181	1014.870	762.437
84.768	13.324	1013.930	762.321
85.782	13.417	1012.899	761.909
86.797	13.277	1012.280	760.731
87.812	13.186	1011.516	759.670
88.826	13.243	1010.212	758.888
89.841	13.288	1008.967	758.091
90.855	13.352	1008.004	757.593
91.870	13.338	1007.557	757.127
92.884	13.423	1006.782	756.864
93.899	13.230	1006.268	755.531
94.914	13.441	1005.119	755.563
95.928	13.363	1003.977	754.283
96.943	13.375	1003.473	753.893
97.957	13.244	1002.788	752.715
98.972	13.298	1002.034	752.325
99.987	13.433	1000.879	752.005
101.001	13.266	999.827	750.391
102.016	13.312	999.203	750.067
103.030	13.409	998.267	749.737
104.045	13.430	997.540	749.220
105.060	13.254	996.711	747.734
106.074	13.214	996.046	746.989
107.089	13.321	994.394	746.165
108.103	13.094	994.061	744.827
109.118	13.096	993.217	744.136
110.133	13.139	992.159	743.472
111.147	13.203	990.918	742.763
112.162	13.284	990.352	742.638
113.176	13.285	989.478	741.921
114.191	13.309	988.893	741.524
115.206	13.274	988.126	740.725
116.220	13.361	986.975	740.189
117.235	13.221	986.249	738.954
118.249	13.326	985.168	738.545
119.264	13.342	984.500	738.052
120.279	13.288	983.679	737.129
121.293	13.319	982.806	736.547
122.308	13.250	981.717	735.359
123.322	13.263	980.888	734.732
124.337	13.278	979.895	733.989
125.352	13.098	978.894	732.378
126.366	13.266	977.864	732.287
127.381	13.159	976.907	731.031
128.395	13.182	975.952	730.354
129.410	13.203	975.237	729.847
130.424	13.325	974.463	729.740
131.439	13.312	973.644	729.006
132.454	13.287	972.589	728.041
133.468	13.266	971.710	727.227
134.483	13.354	970.378	726.549
135.497	13.282	969.997	725.884
136.512	13.310	968.967	725.172
137.527	13.233	968.346	724.306
138.541	13.243	967.974	724.010
139.556	13.386	966.695	723.611
140.570	13.426	966.139	723.309
141.585	13.403	965.221	722.454
142.600	13.510	964.067	721.997
143.614	13.445	963.875	721.503
144.629	13.426	962.885	720.615
145.643	13.400	962.442	720.109
146.658	13.334	961.116	718.763
147.673	13.409	960.149	718.304
148.687	13.336	959.526	717.456
149.702	13.527	958.402	717.380
150.716	13.378	957.848	716.259
151.731	13.320	957.257	715.503
152.746	13.444	956.457	715.377
153.760	13.539	955.785	715.220
154.775	13.553	955.098	714.706
155.789	13.507	954.698	714.142
156.804	13.484	954.238	713.637
157.819	13.725	952.756	713.503
158.833	13.656	952.559	712.993
159.848	13.561	951.909	712.036
160.862	13.641	950.474	711.244
161.877	13.578	949.809	710.413
162.892	13.427	949.263	709.293
163.906	13.432	948.074	708.364
164.921	13.465	947.413	707.949
165.935	13.558	946.710	707.761
166.950	13.633	945.795	707.331
167.964	13.605	944.717	706.345
168.979	13.724	943.663	706.003
169.994	13.518	943.220	704.728
171.008	13.890	941.706	705.116
172.023	13.652	941.807	704.118
173.037	13.867	940.789	704.206
174.052	13.731	940.664	703.475
175.067	13.697	939.677	702.530
176.081	13.516	939.320	701.434
177.096	13.740	938.642	701.813
178.110	13.684	937.849	700.923
179.125	13.700	937.460	700.639
180.140	13.675	936.708	699.906
181.154	13.686	936.303	699.592
182.169	13.782	935.900	699.633
183.183	13.753	935.185	698.915
184.198	13.879	933.851	698.384
185.213	13.941	933.537	698.350
186.227	13.863	933.186	697.695
187.242	13.930	932.224	697.196
188.256	13.882	931.995	696.764
189.271	13.937	930.947	696.147
190.286	13.827	929.964	694.891
191.300	13.678	929.421	693.800
192.315	13.744	928.889	693.617
193.329	13.730	928.135	692.934
194.344	13.919	927.744	693.369
195.359	13.802	927.221	692.430
196.373	13.931	926.451	692.329
197.388	13.911	925.805	691.706
198.402	14.108	924.913	691.796
199.417	14.112	924.492	691.438
200.432	14.047	923.940	690.692
201.446	14.129	923.992	691.010
202.461	14.082	923.425	690.330
203.475	14.219	922.542	690.178
204.490	14.170	921.526	689.154
205.504	14.128	920.795	688.374
206.519	14.275	920.052	688.362
207.534	14.128	919.130	687.007
208.548	14.110	918.900	686.698
209.563	14.220	918.210	686.574
210.577	14.157	918.071	686.150
211.592	14.277	916.768	685.609
212.607	14.277	915.907	684.908
213.621	14.240	915.471	684.367
214.636	14.346	914.485	684.007
215.650	14.271	913.759	683.094
216.665	14.315	913.368	682.921
217.680	14.583	912.139	683.039
218.694	14.423	911.887	682.137
219.709	14.258	911.662	681.231
220.723	14.484	910.515	681.237
221.738	14.383	909.975	680.361
222.753	14.245	909.728	679.552
223.767	14.434	908.772	679.551
224.782	14.479	908.258	679.288
225.796	14.501	907.944	679.084
226.811	14.505	906.691	678.100
227.826	14.346	907.000	677.629
228.840	14.501	905.444	677.032
229.855	14.503	904.576	676.334
230.869	14.489	903.746	675.597
231.884	14.372	903.607	674.956
232.899	14.452	902.598	674.469
233.913	14.479	902.164	674.192
234.928	14.364	901.842	673.427
235.942	14.370	900.990	672.755
236.957	14.483	900.024	672.431
237.972	14.464	899.779	672.113
238.986	14.553	898.875	671.736
240.001	14.598	898.375	671.485
241.015	14.604	897.479	670.781
242.030	14.634	897.347	670.742
243.045	14.600	896.492	669.905
244.059	14.599	895.926	669.420
245.074	14.619	895.468	669.099
246.088	14.606	894.540	668.295
247.103	14.693	893.992	668.176
248.117	14.834	893.316	668.174
249.132	14.780	892.770	667.492
250.147	14.755	892.353	667.020
251.161	14.858	891.979	667.094
252.176	14.889	890.997	666.421
253.190	14.995	890.109	666.120
254.205	15.015	889.724	665.853
255.220	14.912	889.099	664.917
256.234	14.927	888.687	664.611
257.249	14.963	887.669	663.935
258.263	15.089	886.762	663.697
259.278	15.042	886.000	662.882
260.293	15.140	885.578	662.893
261.307	15.085	885.214	662.345
262.322	15.068	884.497	661.685
263.336	15.198	883.892	661.685
264.351	15.322	882.606	661.152
265.366	15.121	882.529	660.245
266.380	15.114	881.843	659.644
267.395	15.138	881.370	659.326
268.409	15.105	880.277	658.321
269.424	15.145	879.818	658.075
270.439	15.224	878.980	657.704
271.453	15.337	878.257	657.547
272.468	15.263	877.491	656.625
273.482	15.238	877.005	656.104
274.497	15.159	876.419	655.301
275.512	15.409	875.787	655.747
276.526	15.318	875.618	655.206
277.541	15.286	875.251	654.747
278.555	15.325	874.319	654.146
279.570	15.227	873.987	653.456
280.585	15.400	872.963	653.309
281.599	15.372	872.228	652.590
282.614	15.487	871.287	652.277
283.628	15.462	871.073	651.960
284.643	15.418	870.422	651.245
285.657	15.379	869.751	650.532
286.672	15.457	869.196	650.362
287.687	15.285	868.757	649.313
288.701	15.377	867.993	649.040
289.716	15.607	867.428	649.446
290.730	15.467	866.978	648.513
291.745	15.525	866.310	648.180
292.760	15.599	865.687	647.942
293.774	15.604	865.087	647.454
294.789	15.518	864.503	646.627
295.803	15.530	863.663	645.990
296.818	15.579	862.787	645.464
297.833	15.457	862.214	644.511
298.847	15.589	861.777	644.634
299.862	15.680	860.978	644.328
300.876	15.639	860.586	643.822
301.891	15.888	859.921	644.219
302.906	15.772	859.547	643.440
303.920	15.773	858.886	642.891
304.935	15.688	858.475	642.200
305.949	15.722	858.155	642.037
306.964	15.860	856.838	641.518
307.979	15.940	856.533	641.537
308.993	15.872	856.019	640.839
310.008	15.790	855.492	640.074
311.022	15.826	854.832	639.660
312.037	15.898	854.035	639.283
313.052	15.859	853.642	638.783
314.066	15.702	853.179	637.784
315.081	15.837	852.520	637.748
316.095	15.703	852.019	636.807
317.110	15.820	851.554	636.846
318.125	15.889	851.075	636.694
319.139	15.741	850.736	635.823
320.154	15.882	850.218	635.913
321.168	15.969	849.262	635.471
322.183	15.945	848.515	634.762
323.197	15.841	848.640	634.411
324.212	15.913	848.197	634.294
325.227	15.974	847.318	633.809
326.241	16.034	846.582	633.428
327.256	16.049	846.042	633.026
328.270	16.028	845.386	632.398
329.285	15.988	844.913	631.838
330.300	15.849	844.693	631.098
331.314	16.006	843.845	630.997
332.329	16.054	843.277	630.696
333.343	16.122	843.133	630.785
334.358	16.144	842.861	630.608
335.373	16.233	842.103	630.317
336.387	16.140	841.970	629.815
337.402	16.234	841.601	629.836
338.416	16.214	841.234	629.432
339.431	16.171	841.096	629.112
340.446	16.264	840.565	629.005
341.460	16.332	839.867	628.679
342.475	16.306	839.572	628.306
343.489	16.275	839.456	628.048
344.504	16.367	838.646	627.729
345.519	16.334	838.418	627.379
346.533	16.348	837.865	626.963
347.548	16.397	836.854	626.331
348.562	16.371	836.427	625.861
349.577	16.393	835.910	625.499
350.592	16.301	835.253	624.612
351.606	16.367	834.713	624.400
352.621	16.534	833.911	624.360
353.635	16.363	833.411	623.301
354.650	16.397	832.827	622.933
355.665	16.434	832.364	622.668
356.679	16.460	831.724	622.230
357.694	16.552	830.901	621.895
358.708	16.576	830.352	621.517
359.723	16.473	829.777	620.654
360.738	16.669	829.225	620.906
361.752	16.609	828.845	620.347
362.767	16.412	828.539	619.342
363.781	16.546	827.497	618.998
364.796	16.767	827.108	619.459
365.810	16.738	827.077	619.276
366.825	16.662	826.561	618.557
367.840	16.636	825.780	617.823
368.854	16.803	825.464	618.141
369.869	16.728	825.065	617.515
370.883	16.677	824.580	616.911
371.898	16.633	824.546	616.671
372.913	16.809	823.573	616.527
373.927	16.763	822.967	615.853
374.942	16.906	822.944	616.303
375.956	16.922	822.298	615.820
376.971	16.975	821.802	615.588
377.986	16.926	821.162	614.875
379.000	16.991	820.988	614.926
380.015	16.933	820.555	614.337
381.029	17.091	819.693	614.212
382.044	17.138	819.018	613.821
383.059	17.106	818.423	613.204
384.073	16.973	818.151	612.466
385.088	16.910	817.786	611.913
386.102	17.020	817.131	611.764
387.117	16.962	816.665	611.152
388.132	17.031	816.069	610.901
389.146	17.058	815.466	610.493
390.161	17.206	814.541	610.275
391.175	17.105	814.464	609.803
392.190	17.109	813.816	609.279
393.205	17.055	813.660	608.914
394.219	17.165	813.238	608.937
395.234	16.996	813.197	608.246
396.248	17.013	812.548	607.768
397.263	16.881	812.456	607.173
398.278	17.149	811.681	607.498
399.292	16.909	811.394	606.372
400.307	16.993	810.817	606.190
401.321	17.110	810.073	605.996
402.336	17.104	809.968	605.841
403.350	17.250	809.279	605.794
404.365	17.113	808.978	605.027
405.380	17.260	808.284	604.976
406.394	17.505	807.258	605.027
407.409	17.401	807.057	604.454
408.423	17.392	807.163	604.446
409.438	17.384	806.614	603.955
410.453	17.306	806.471	603.518
411.467	17.576	805.720	603.858
412.482	17.491	805.478	603.323
413.496	17.515	804.932	602.946
414.511	17.633	804.812	603.220
415.526	17.537	804.298	602.441
416.540	17.600	803.679	602.148
417.555	17.601	802.975	601.568
418.569	17.719	802.837	601.831
419.584	17.535	802.225	600.670
420.599	17.517	802.139	600.490
421.613	113.773	1298.939	1486.790
422.628	98.123	1371.266	1486.846
