DTS Sentinel unit serial number:	SN413079Multiplexer serial number:	ORYXHardware model number:	OX4-SRSoftware version number:	ORYX F/W v4.00 Oryx Data Collector v3.7.2.0data status	okinstallation	princeton_trtdifferential loss correction	single-endedforward channel	channel 1reverse channel	N/Adate	2019/09/17time	20:58:35forward acquisition time	60.00reverse acquisition time	0.00gamma	496.2192k internal	0.2333k external	0.2333temperature offset calibration	0.9979default loss term (dB/km)	0.3790temperature slope calibration	1.0000multiplexer offset coefficient	1.0000multiplexer slope coefficient	1.0000fibre end	0.00T internal ref (°C)	28.75T ext. ref 1 (°C)	0.21T ext. ref 2 (°C)	20.23length (m)	temperature (°C)	Stokes	anti-Stokes-747.200	800.000	0.120	0.388
-746.185	-183.999	-0.417	0.007
-745.171	-172.653	0.195	0.006
-744.156	9.613	0.046	-0.035
-743.142	384.573	0.166	-0.344
-742.127	13.273	0.202	0.157
-741.112	751.237	0.144	-0.389
-740.098	-34.482	0.105	-0.058
-739.083	697.108	0.049	0.131
-738.069	-74.494	-0.569	0.206
-737.054	-200.000	-0.012	-0.055
-736.039	91.516	-0.227	-0.256
-735.025	-47.140	0.119	0.058
-734.010	-103.209	-0.322	-0.076
-732.996	-118.993	-0.281	0.050
-731.981	-200.000	0.006	-0.527
-730.966	136.226	0.217	0.285
-729.952	85.859	-0.092	0.102
-728.937	772.450	-0.061	0.166
-727.923	78.284	-0.196	-0.210
-726.908	321.948	0.132	-0.252
-725.894	180.984	-0.117	0.173
-724.879	-102.173	-0.355	-0.086
-723.864	-200.000	-0.012	-0.207
-722.850	531.910	-0.092	0.220
-721.835	800.000	0.025	-0.087
-720.821	800.000	0.091	0.279
-719.806	-93.936	0.102	0.028
-718.791	-43.321	-0.413	-0.210
-717.777	339.084	-0.065	-0.127
-716.762	-140.850	0.216	-0.022
-715.748	-112.329	-0.335	0.067
-714.733	-200.000	0.024	0.133
-713.718	-40.696	-0.151	-0.078
-712.704	259.325	0.088	0.152
-711.689	-144.511	0.288	0.027
-710.675	446.104	0.157	-0.347
-709.660	-198.394	-0.249	-0.001
-708.645	-13.033	0.043	-0.028
-707.631	-200.000	-0.089	-0.449
-706.616	-200.000	0.074	-0.389
-705.602	-74.802	0.339	-0.122
-704.587	-200.000	-0.018	0.215
-703.572	121.735	0.113	0.141
-702.558	515.656	-0.105	-0.246
-701.543	800.000	0.053	-0.177
-700.529	-56.848	-0.121	0.054
-699.514	-34.496	0.312	0.171
-698.499	375.249	-0.121	-0.248
-697.485	-77.388	0.122	-0.043
-696.470	114.756	0.168	0.206
-695.456	783.726	-0.078	0.213
-694.441	-22.634	-0.165	-0.100
-693.426	-200.000	-0.062	0.322
-692.412	-115.941	-0.056	-0.010
-691.397	55.286	-0.221	-0.215
-690.383	-51.328	-0.322	0.151
-689.368	83.728	-0.313	0.343
-688.354	-101.580	-0.075	0.018
-687.339	-155.637	-0.480	0.031
-686.324	151.578	0.235	0.321
-685.310	192.755	0.243	0.369
-684.295	-0.265	-0.207	0.147
-683.281	148.305	0.055	0.074
-682.266	-112.248	0.126	0.025
-681.251	-40.342	-0.241	0.126
-680.237	353.307	0.164	-0.325
-679.222	800.000	-0.116	-0.486
-678.208	-154.212	-0.369	-0.025
-677.193	-66.763	-0.087	-0.035
-676.178	64.929	-0.194	-0.196
-675.164	256.339	-0.153	-0.263
-674.149	433.558	0.050	-0.108
-673.135	28.892	0.082	0.070
-672.120	800.000	-0.099	0.359
-671.105	8.303	0.037	0.028
-670.091	-52.678	0.356	-0.165
-669.076	-200.000	0.006	-0.115
-668.062	546.761	0.038	-0.091
-667.047	620.737	-0.034	-0.086
-666.032	158.053	0.089	0.124
-665.018	-79.314	0.038	-0.013
-664.003	-193.506	-0.144	-0.001
-662.989	752.973	0.021	-0.058
-661.974	-35.574	-0.040	-0.022
-660.959	-200.000	0.044	0.253
-659.945	543.581	-0.079	-0.189
-658.930	-102.130	-0.099	0.024
-657.916	778.826	-0.030	0.082
-656.901	-200.000	-0.002	0.344
-655.886	-106.458	0.493	0.110
-654.872	144.773	-0.170	0.227
-653.857	119.388	0.210	0.260
-652.843	-200.000	-0.088	-0.430
-651.828	-83.159	0.578	-0.186
-650.814	800.000	-0.053	0.218
-649.799	225.452	0.227	-0.369
-648.784	50.086	0.130	-0.123
-647.770	639.096	0.038	0.096
-646.755	800.000	0.036	0.101
-645.741	-200.000	-0.020	0.155
-644.726	-162.806	-0.210	0.010
-643.711	-113.746	0.215	-0.042
-642.697	-135.253	-0.115	-0.014
-641.682	602.547	0.080	0.199
-640.668	449.300	-0.108	-0.238
-639.653	23.550	0.107	0.088
-638.638	-48.654	-0.245	-0.118
-637.624	-37.544	-0.175	0.094
-636.609	-200.000	0.028	-0.233
-635.595	504.900	-0.072	-0.167
-634.580	-171.918	-0.208	-0.007
-633.565	342.800	0.110	-0.216
-632.551	48.113	-0.096	0.090
-631.536	-129.450	0.164	-0.023
-630.522	-92.072	0.137	-0.039
-629.507	188.235	-0.139	-0.209
-628.492	-200.000	0.018	-0.477
-627.478	-200.000	-0.009	-0.061
-626.463	-200.000	-0.002	0.014
-625.449	271.401	0.001	0.002
-624.434	-200.000	0.060	0.285
-623.419	-200.000	-0.051	-0.254
-622.405	309.241	0.066	-0.124
-621.390	-200.000	0.012	0.067
-620.376	61.547	0.195	0.195
-619.361	-200.000	-0.004	-0.205
-618.346	46.771	-0.067	-0.063
-617.332	-200.000	-0.003	0.082
-616.317	-125.974	0.169	0.025
-615.303	-112.161	-0.211	0.042
-614.288	104.892	-0.069	-0.081
-613.273	-94.391	-0.184	-0.050
-612.259	76.882	0.300	-0.319
-611.244	27.470	0.065	0.055
-610.230	-35.901	-0.249	-0.135
-609.215	800.000	0.038	-0.134
-608.201	112.133	-0.077	-0.094
-607.186	-128.890	0.104	-0.015
-606.171	-68.838	-0.022	-0.008
-605.157	-200.000	0.008	0.144
-604.142	311.938	0.244	0.458
-603.128	45.780	0.046	0.043
-602.113	-83.937	-0.322	0.102
-601.098	-200.000	0.053	-0.240
-600.084	-85.048	-0.263	-0.082
-599.069	61.878	-0.090	0.090
-598.055	32.294	0.143	-0.123
-597.040	-80.873	-0.123	0.041
-596.025	-25.105	-0.156	0.093
-595.011	-200.000	-0.016	-0.080
-593.996	198.172	0.090	-0.138
-592.982	-200.000	-0.053	0.267
-591.967	-37.304	-0.182	-0.097
-590.952	701.353	-0.128	-0.336
-589.938	99.263	0.180	0.208
-588.923	153.957	0.135	0.185
-587.909	-171.451	-0.168	-0.006
-586.894	800.000	0.024	0.087
-585.879	-200.000	0.026	0.219
-584.865	-58.296	-0.335	0.146
-583.850	-26.220	-0.219	0.128
-582.836	245.329	0.129	-0.217
-581.821	-200.000	0.023	0.137
-580.806	397.249	0.095	0.199
-579.792	-200.000	0.036	-0.261
-578.777	214.544	0.135	0.214
-577.763	23.857	0.197	-0.162
-576.748	-29.191	-0.160	0.092
-575.733	506.072	-0.077	0.178
-574.719	141.462	0.205	0.271
-573.704	-51.387	0.247	0.115
-572.690	-62.360	-0.104	0.043
-571.675	217.366	-0.124	-0.197
-570.661	-77.296	0.438	0.152
-569.646	-200.000	0.007	0.099
-568.631	800.000	0.025	-0.103
-567.617	-20.082	-0.279	0.172
-566.602	-89.429	0.016	0.005
-565.588	166.769	-0.124	-0.175
-564.573	85.527	-0.330	-0.362
-563.558	-10.314	0.118	-0.078
-562.544	-87.908	-0.354	0.106
-561.529	-61.680	-0.268	-0.112
-560.515	800.000	-0.081	-0.245
-559.500	37.642	0.148	0.132
-558.485	-200.000	0.018	-0.140
-557.471	-9.905	0.124	0.082
-556.456	-85.155	-0.279	-0.087
-555.442	-200.000	-0.063	-0.286
-554.427	800.000	-0.011	0.046
-553.412	28.971	-0.268	-0.227
-552.398	-200.000	0.004	0.023
-551.383	91.601	0.139	-0.156
-550.369	-121.476	0.208	0.035
-549.354	-200.000	-0.024	-0.154
-548.339	800.000	0.049	-0.180
-547.325	-200.000	-0.017	-0.207
-546.310	259.352	-0.096	0.166
-545.296	-72.522	0.257	-0.095
-544.281	-58.697	-0.265	-0.115
-543.266	-99.839	0.160	0.040
-542.252	-200.000	-0.010	-0.203
-541.237	-200.000	0.013	-0.275
-540.223	-132.460	0.161	-0.021
-539.208	51.571	-0.204	0.194
-538.193	-200.000	0.054	0.331
-537.179	-46.781	0.080	-0.039
-536.164	-200.000	-0.081	-0.378
-535.150	-85.655	-0.287	-0.089
-534.135	73.559	0.162	0.170
-533.121	-91.288	-0.337	0.096
-532.106	-114.265	-0.495	0.095
-531.091	-200.000	-0.027	-0.398
-530.077	34.005	-0.458	-0.397
-529.062	-78.473	-0.196	0.067
-528.048	-173.618	0.172	0.005
-527.033	9.710	-0.092	-0.069
-526.018	13.963	-0.326	0.253
-525.004	155.548	-0.146	-0.200
-523.989	-11.148	-0.269	0.177
-522.975	-15.430	0.121	0.077
-521.960	125.202	-0.157	-0.198
-520.945	175.821	0.052	-0.075
-519.931	-58.648	-0.316	-0.136
-518.916	24.367	-0.265	0.218
-517.902	-200.000	-0.005	-0.180
-516.887	-200.000	0.014	0.112
-515.872	266.606	0.173	0.302
-514.858	65.280	-0.172	-0.173
-513.843	800.000	0.035	0.136
-512.829	144.272	-0.055	-0.074
-511.814	635.390	0.164	0.415
-510.799	-99.955	0.532	0.132
-509.785	-200.000	0.084	-0.391
-508.770	-200.000	0.050	-0.448
-507.756	-200.000	0.022	0.248
-506.741	90.393	-0.129	0.144
-505.726	163.178	-0.105	0.147
-504.712	-134.205	-0.213	0.026
-503.697	119.447	-0.089	-0.109
-502.683	171.128	-0.058	-0.083
-501.668	317.014	-0.065	0.122
-500.653	-122.004	-0.090	0.015
-499.639	-48.998	0.274	-0.131
-498.624	-22.982	0.474	-0.285
-497.610	-7.167	-0.276	-0.187
-496.595	-200.000	-0.053	-0.339
-495.581	-162.544	-0.135	0.007
-494.566	154.149	-0.126	-0.172
-493.551	67.525	0.030	-0.030
-492.537	800.000	0.045	-0.193
-491.522	800.000	0.088	0.251
-490.508	-117.511	0.156	-0.028
-489.493	27.289	-0.056	0.047
-488.478	81.014	-0.266	0.286
-487.464	32.691	-0.252	0.217
-486.449	311.003	0.039	0.072
-485.435	-200.000	-0.264	-0.001
-484.420	-134.565	0.152	0.018
-483.405	67.073	-0.253	-0.257
-482.391	-46.981	-0.354	-0.172
-481.376	-200.000	0.023	0.139
-480.362	35.757	0.027	0.024
-479.347	-200.000	0.000	0.007
-478.332	-200.000	-0.011	-0.226
-477.318	769.308	-0.058	0.156
-476.303	-200.000	0.036	-0.239
-475.289	-118.628	0.086	-0.015
-474.274	290.507	-0.023	-0.042
-473.259	-200.000	0.011	-0.111
-472.245	800.000	-0.067	-0.270
-471.230	106.226	0.325	-0.382
-470.216	-77.170	0.093	0.032
-469.201	-200.000	-0.001	-0.072
-468.186	800.000	0.047	0.192
-467.172	59.134	-0.087	0.085
-466.157	136.431	-0.178	0.231
-465.143	65.918	0.076	-0.076
-464.128	149.199	-0.099	0.133
-463.113	-2.881	0.263	0.183
-462.099	-200.000	0.039	-0.277
-461.084	-43.019	0.190	0.096
-460.070	77.329	0.243	-0.257
-459.055	61.180	-0.208	0.205
-458.040	-200.000	-0.002	0.219
-457.026	-72.115	-0.220	-0.081
-456.011	63.291	0.073	-0.072
-454.997	-200.000	0.010	0.054
-453.982	-200.000	0.010	0.170
-452.968	-144.437	0.023	-0.002
-451.953	-3.896	0.072	0.049
-450.938	-81.016	0.049	0.016
-449.924	-200.000	0.030	0.301
-448.909	79.834	-0.113	0.121
-447.895	-65.137	0.242	-0.097
-446.880	-6.396	-0.330	-0.224
-445.865	800.000	-0.053	0.157
-444.851	-12.442	-0.310	0.201
-443.836	-199.853	0.376	-0.002
-442.822	-200.000	-0.002	-0.234
-441.807	-106.707	0.235	-0.052
-440.792	-40.759	0.318	-0.163
-439.778	607.095	0.020	-0.049
-438.763	41.033	0.274	0.245
-437.749	218.262	0.125	0.198
-436.734	144.132	-0.111	-0.147
-435.719	-48.779	-0.113	-0.054
-434.705	79.068	0.117	-0.124
-433.690	132.319	0.133	0.170
-432.676	-106.970	-0.256	-0.056
-431.661	-87.049	-0.356	-0.108
-430.646	-136.083	0.315	-0.037
-429.632	-19.137	0.351	0.217
-428.617	800.000	-0.012	0.041
-427.603	-54.094	0.188	0.085
-426.588	53.063	-0.077	-0.073
-425.573	95.552	0.249	-0.282
-424.559	-69.185	0.275	0.105
-423.544	-200.000	-0.007	0.046
-422.530	800.000	-0.035	-0.137
-421.515	4.549	0.063	-0.046
-420.500	-149.399	0.306	0.024
-419.486	-22.185	0.076	0.046
-418.471	40.839	0.201	0.180
-417.457	-200.000	-0.001	0.144
-416.442	-45.950	-0.013	0.006
-415.428	-200.000	0.000	-0.011
-414.413	449.272	0.119	0.261
-413.398	3.215	0.227	0.164
-412.384	-75.438	0.229	-0.081
-411.369	5.335	0.237	-0.174
-410.355	-145.754	-0.103	-0.009
-409.340	-19.021	-0.065	0.040
-408.325	-55.659	0.154	-0.068
-407.311	304.615	0.077	-0.142
-406.296	79.466	-0.165	0.176
-405.282	-200.000	-0.012	0.214
-404.267	-40.605	0.060	-0.031
-403.252	34.658	0.072	-0.063
-402.238	800.000	0.104	0.284
-401.223	222.977	0.094	0.151
-400.209	32.709	-0.069	0.060
-399.194	-200.000	0.007	-0.344
-398.179	530.949	-0.171	0.400
-397.165	-36.368	-0.215	0.115
-396.150	123.345	-0.174	0.217
-395.136	-79.169	-0.215	0.072
-394.121	253.322	0.182	0.308
-393.106	44.726	0.150	0.137
-392.092	44.637	0.131	-0.119
-391.077	-200.000	0.007	0.166
-390.063	-200.000	-0.046	-0.328
-389.048	800.000	-0.059	0.205
-388.033	-153.147	-0.008	0.001
-387.019	127.035	-0.174	-0.218
-386.004	-200.000	-0.075	-0.332
-384.990	-200.000	0.003	0.101
-383.975	800.000	0.140	0.480
-382.960	383.719	0.073	-0.149
-381.946	-72.151	0.294	-0.108
-380.931	161.050	0.157	0.218
-379.917	-110.832	0.125	-0.026
-378.902	169.741	0.049	-0.070
-377.888	800.000	0.049	-0.175
-376.873	-200.000	0.048	-0.213
-375.858	-37.125	0.019	-0.010
-374.844	-75.242	-0.203	0.072
-373.829	81.168	0.193	-0.206
-372.815	-128.325	-0.117	0.017
-371.800	-200.000	0.050	0.310
-370.785	-80.655	-0.188	0.062
-369.771	412.339	-0.025	0.052
-368.756	-200.000	-0.054	0.281
-367.742	209.837	-0.173	-0.269
-366.727	547.940	-0.093	-0.221
-365.712	-200.000	0.009	0.135
-364.698	597.857	-0.134	-0.329
-363.683	312.151	-0.039	-0.072
-362.669	-2.932	0.105	0.073
-361.654	-31.586	0.106	0.059
-360.639	79.580	0.174	0.185
-359.625	260.034	0.086	-0.147
-358.610	63.231	0.080	0.079
-357.596	-83.297	-0.090	0.029
-356.581	-97.250	0.058	0.015
-355.566	-74.476	-0.215	-0.077
-354.552	-0.558	0.095	-0.067
-353.537	-200.000	-0.031	0.362
-352.523	83.918	-0.335	0.362
-351.508	-18.320	0.108	0.067
-350.493	196.187	0.164	0.247
-349.479	-100.863	-0.230	-0.056
-348.464	-6.510	-0.357	0.241
-347.450	800.000	-0.036	-0.124
-346.435	-159.817	-0.127	-0.007
-345.420	20.043	-0.199	0.159
-344.406	61.490	0.134	0.132
-343.391	-163.404	0.395	-0.019
-342.377	-200.000	-0.024	-0.124
-341.362	-80.083	0.207	0.069
-340.348	45.068	-0.075	0.068
-339.333	800.000	-0.081	-0.229
-338.318	-25.191	0.247	-0.145
-337.304	800.000	-0.060	-0.207
-336.289	-200.000	-0.025	0.324
-335.275	2.513	0.213	-0.153
-334.260	-200.000	0.039	0.221
-333.245	-200.000	0.013	0.099
-332.231	445.296	0.092	-0.200
-331.216	127.940	-0.114	-0.143
-330.202	74.837	-0.125	-0.130
-329.187	-156.921	0.385	-0.023
-328.172	-51.843	-0.300	0.138
-327.158	-1.295	0.127	-0.089
-326.143	64.743	-0.077	-0.077
-325.129	519.501	0.044	-0.101
-324.114	487.415	0.095	0.213
-323.099	-200.000	0.058	0.330
-322.085	25.172	-0.085	0.070
-321.070	343.358	-0.063	-0.122
-320.056	-200.000	0.001	-0.152
-319.041	325.038	0.060	-0.114
-318.026	132.612	-0.101	-0.128
-317.012	109.044	0.188	-0.222
-315.997	-102.460	-0.216	0.051
-314.983	-92.968	0.202	0.056
-313.968	182.022	0.116	-0.169
-312.953	-38.779	0.287	-0.149
-311.939	800.000	-0.043	-0.124
-310.924	301.321	0.240	0.438
-309.910	146.515	0.187	0.249
-308.895	641.239	0.095	0.239
-307.880	271.296	0.088	0.154
-306.866	-200.000	-0.005	-0.154
-305.851	-11.497	-0.212	-0.138
-304.837	-2.083	0.127	-0.089
-303.822	51.976	0.333	0.314
-302.807	722.031	-0.126	0.331
-301.793	-41.357	0.069	0.035
-300.778	-83.696	0.012	0.004
-299.764	-61.216	0.403	0.168
-298.749	-200.000	-0.001	0.144
-297.735	-200.000	-0.057	-0.472
-296.720	4.335	-0.185	0.134
-295.705	800.000	-0.025	-0.078
-294.691	-141.495	0.271	-0.027
-293.676	-8.455	-0.008	-0.005
-292.662	-105.656	-0.359	-0.080
-291.647	-38.462	0.107	0.056
-290.632	354.020	0.170	-0.334
-289.618	-200.000	-0.010	0.245
-288.603	220.637	-0.089	-0.141
-287.589	-200.000	-0.004	0.028
-286.574	800.000	-0.023	0.062
-285.559	5.282	-0.116	-0.085
-284.545	63.444	0.167	0.165
-283.530	-127.384	-0.135	-0.019
-282.516	138.839	-0.108	0.140
-281.501	-200.000	-0.030	0.158
-280.486	-17.135	-0.289	-0.180
-279.472	-200.000	0.051	0.319
-278.457	110.536	0.243	0.289
-277.443	-200.000	-0.060	-0.320
-276.428	47.408	0.131	0.120
-275.413	800.000	0.047	0.186
-274.399	77.106	-0.044	0.047
-273.384	-200.000	-0.008	0.229
-272.370	3.776	0.046	0.033
-271.355	353.013	-0.078	0.153
-270.340	206.792	-0.123	-0.189
-269.326	78.755	0.092	-0.097
-268.311	172.658	0.034	-0.048
-267.297	79.853	0.123	0.131
-266.282	165.158	0.097	0.135
-265.267	-95.755	-0.128	-0.034
-264.253	8.077	0.088	-0.066
-263.238	490.529	0.077	0.174
-262.224	-179.751	-0.332	0.007
-261.209	-27.346	0.176	0.101
-260.195	-200.000	0.006	-0.072
-259.180	-51.608	-0.101	0.046
-258.165	227.263	0.040	0.064
-257.151	-200.000	-0.048	0.277
-256.136	-200.000	0.011	-0.251
-255.122	-183.780	-0.330	0.006
-254.107	-68.157	0.231	-0.089
-253.092	-181.240	-0.316	-0.006
-252.078	-129.329	0.181	0.025
-251.063	194.944	-0.090	0.134
-250.049	-31.281	-0.286	-0.159
-249.034	77.520	0.160	-0.167
-248.019	-7.907	0.115	-0.077
-247.005	-12.996	0.280	-0.180
-245.990	-200.000	0.032	0.227
-244.976	-6.718	0.086	0.058
-243.961	-187.921	-0.146	0.002
-242.946	-200.000	-0.012	-0.170
-241.932	-89.341	-0.145	0.042
-240.917	-200.000	-0.081	-0.403
-239.903	-36.659	-0.161	-0.085
-238.888	-200.000	-0.011	-0.117
-237.873	-64.059	0.373	0.150
-236.859	-200.000	0.017	0.114
-235.844	-110.780	-0.162	-0.033
-234.830	-35.404	-0.299	0.160
-233.815	-138.394	0.321	-0.035
-232.800	57.144	0.106	-0.102
-231.786	-200.000	0.050	0.242
-230.771	-91.912	0.252	0.071
-229.757	-141.487	-0.260	-0.026
-228.742	14.031	0.183	0.141
-227.727	-86.815	-0.221	0.067
-226.713	363.806	0.174	0.344
-225.698	-200.000	0.030	-0.282
-224.684	71.314	-0.246	-0.252
-223.669	800.000	-0.006	-0.017
-222.655	-62.203	-0.105	-0.043
-221.640	112.304	0.141	-0.168
-220.625	-140.120	-0.065	0.007
-219.611	-200.000	-0.002	0.062
-218.596	-200.000	0.018	-0.192
-217.582	250.470	-0.135	-0.225
-216.567	800.000	0.074	0.233
-215.552	-200.000	-0.033	0.227
-214.538	-165.313	-0.200	0.009
-213.523	800.000	-0.059	-0.247
-212.509	267.572	-0.096	-0.165
-211.494	71.555	-0.172	-0.176
-210.479	38.803	-0.162	-0.143
-209.465	-80.818	0.199	-0.065
-208.450	-66.801	0.167	0.065
-207.436	187.617	0.085	0.125
-206.421	-8.404	0.133	-0.088
-205.406	413.409	-0.105	-0.220
-204.392	-200.000	-0.039	0.238
-203.377	112.373	0.242	0.288
-202.363	729.460	-0.034	-0.090
-201.348	-200.000	-0.007	0.213
-200.333	216.225	0.184	-0.288
-199.319	-127.281	-0.149	-0.021
-198.304	-200.000	-0.009	0.398
-197.290	-31.146	-0.290	0.161
-196.275	-42.873	0.345	0.173
-195.260	8.300	0.152	0.112
-194.246	397.761	0.104	0.214
-193.231	-200.000	0.086	-0.584
-192.217	800.000	-0.126	-0.416
-191.202	-144.619	0.172	-0.016
-190.187	521.675	-0.045	-0.104
-189.173	-200.000	0.042	-0.188
-188.158	800.000	0.073	-0.242
-187.144	-142.343	-0.319	-0.031
-186.129	-8.118	0.188	0.125
-185.114	-105.126	-0.483	0.109
-184.100	111.823	-0.292	-0.346
-183.085	325.216	-0.170	-0.320
-182.071	800.000	-0.096	0.370
-181.056	-200.000	-0.026	0.623
-180.042	163.650	-0.069	-0.095
-179.027	-200.000	-0.034	0.147
-178.012	-73.195	0.279	0.100
-176.998	800.000	0.060	-0.244
-175.983	-84.869	-0.052	0.016
-174.969	409.240	0.127	0.265
-173.954	292.751	0.074	-0.132
-172.939	285.643	-0.118	0.210
-171.925	-164.227	0.087	-0.004
-170.910	-65.058	0.265	0.105
-169.896	-200.000	-0.033	0.194
-168.881	30.687	0.168	-0.141
-167.866	50.713	0.230	-0.214
-166.852	-198.353	0.173	0.001
-165.837	199.416	0.088	-0.133
-164.823	800.000	-0.054	-0.170
-163.808	-200.000	-0.052	0.457
-162.793	30.350	-0.106	0.089
-161.779	-39.336	-0.201	-0.104
-160.764	117.253	0.297	-0.359
-159.750	165.399	-0.170	0.236
-158.735	167.163	-0.086	-0.120
-157.720	72.026	0.088	-0.090
-156.706	-200.000	-0.008	0.213
-155.691	800.000	-0.058	0.205
-154.677	-13.590	-0.175	-0.111
-153.662	312.586	0.172	0.317
-152.647	-64.711	-0.176	0.070
-151.633	-131.911	0.076	0.010
-150.618	-103.548	0.419	0.097
-149.604	-81.067	-0.202	0.066
-148.589	46.584	-0.210	-0.191
-147.574	23.065	0.302	-0.243
-146.560	567.398	0.051	0.123
-145.545	800.000	0.070	0.279
-144.531	-90.881	0.289	0.082
-143.516	-67.667	-0.286	-0.110
-142.502	31.624	0.149	-0.126
-141.487	-107.247	0.020	-0.004
-140.472	-66.093	-0.165	-0.064
-139.458	48.397	-0.347	0.319
-138.443	-112.651	0.208	0.041
-137.429	177.915	0.180	-0.258
-136.414	800.000	-0.053	-0.184
-135.399	109.938	0.143	0.168
-134.385	-84.642	0.214	-0.066
-133.370	-58.767	0.099	0.042
-132.356	-86.656	-0.027	0.008
-131.341	-18.441	0.242	0.149
-130.326	377.230	0.036	-0.072
-129.312	-96.956	-0.233	-0.060
-128.297	-200.000	0.015	0.180
-127.283	-144.453	0.206	0.019
-126.268	-63.857	0.091	0.037
-125.253	-127.003	0.151	-0.022
-124.239	-132.677	0.398	-0.050
-123.224	198.867	0.154	0.232
-122.210	-165.409	0.140	0.006
-121.195	89.635	-0.189	-0.207
-120.180	-200.000	-0.038	0.432
-119.166	449.094	0.150	0.325
-118.151	-200.000	-0.002	0.178
-117.137	-81.703	-0.042	0.014
-116.122	-200.000	0.010	-0.384
-115.107	21.352	0.177	-0.141
-114.093	11.287	0.269	0.202
-113.078	117.416	-0.176	0.212
-112.064	79.525	0.038	0.040
-111.049	173.861	0.219	-0.311
-110.034	-8.666	-0.355	0.234
-109.020	-3.405	-0.403	0.275
-108.005	-105.422	-0.113	-0.025
-106.991	800.000	0.066	-0.258
-105.976	165.757	-0.177	0.245
-104.962	113.492	-0.319	0.380
-103.947	-40.043	0.433	-0.221
-102.932	75.252	0.065	0.068
-101.918	-91.204	0.439	-0.123
-100.903	-200.000	0.025	0.193
-99.889	85.015	-0.112	0.121
-98.874	-48.617	-0.075	0.035
-97.859	323.191	-0.072	-0.135
-96.845	415.853	-0.087	0.181
-95.830	800.000	-0.056	-0.225
-94.816	800.000	-0.082	0.273
-93.801	-48.832	0.283	0.133
-92.786	321.395	0.076	-0.142
-91.772	-55.253	-0.076	-0.034
-90.757	-200.000	0.022	-0.128
-89.743	-112.569	-0.058	-0.011
-88.728	-143.912	0.266	-0.025
-87.713	-63.535	0.440	0.177
-86.699	-62.822	-0.167	0.068
-85.684	-200.000	0.100	0.000
-84.670	-94.883	-0.276	0.073
-83.655	106.227	0.219	0.255
-82.640	298.915	0.074	0.134
-81.626	-32.354	0.273	-0.149
-80.611	-200.000	0.034	-0.153
-79.597	60.375	0.169	-0.164
-78.582	-200.000	-0.011	0.099
-77.567	-36.361	-0.037	-0.019
-76.553	-200.000	-0.014	-0.172
-75.538	800.000	-0.108	-0.368
-74.524	800.000	-0.059	-0.231
-73.509	-109.451	0.046	0.010
-72.494	-200.000	-0.013	0.327
-71.480	-65.835	0.101	0.040
-70.465	-200.000	0.024	0.257
-69.451	800.000	0.072	-0.276
-68.436	-49.410	-0.113	-0.053
-67.422	-24.875	0.251	-0.146
-66.407	66.205	-0.128	-0.127
-65.392	-138.115	0.152	0.017
-64.378	-200.000	-0.199	-0.001
-63.363	800.000	0.041	0.162
-62.349	-200.000	0.050	-0.269
-61.334	58.214	-0.772	-0.741
-60.319	112.978	0.482	0.572
-59.305	172.754	-0.529	-0.746
-58.290	372.862	0.745	1.483
-57.276	800.000	0.585	1.601
-56.261	-200.000	111.475	671.150
-55.246	520.907	1469.061	3372.480
-54.232	154.291	2624.166	3524.566
-53.217	107.666	2131.049	2482.919
-52.203	40.125	1594.337	1402.570
-51.188	32.084	1345.014	1134.833
-50.173	29.239	1307.436	1086.338
-49.159	58.006	1362.231	1305.233
-48.144	57.015	1377.171	1313.571
-47.130	32.301	1334.041	1126.696
-46.115	28.915	1316.148	1091.479
-45.100	28.616	1311.481	1085.802
-44.086	28.644	1308.676	1083.601
-43.071	28.587	1306.401	1081.335
-42.057	28.638	1304.479	1080.001
-41.042	28.544	1302.751	1077.979
-40.027	28.643	1301.016	1077.081
-39.013	28.640	1299.771	1075.988
-37.998	28.644	1297.335	1073.953
-36.984	28.651	1295.743	1072.634
-35.969	28.731	1293.739	1071.400
-34.954	28.749	1292.263	1070.237
-33.940	28.789	1291.220	1069.563
-32.925	28.889	1289.833	1068.954
-31.911	28.828	1288.439	1067.402
-30.896	28.865	1286.905	1066.306
-29.881	28.869	1285.871	1065.430
-28.867	28.891	1283.793	1063.792
-27.852	28.792	1282.871	1062.412
-26.838	28.846	1281.215	1061.313
-25.823	28.848	1280.045	1060.313
-24.809	28.729	1278.996	1058.714
-23.794	28.847	1277.450	1058.074
-22.779	28.775	1276.293	1056.658
-21.765	28.789	1275.232	1055.821
-20.750	28.863	1273.517	1054.782
-19.736	28.830	1271.732	1053.073
-18.721	28.697	1271.147	1051.787
-17.706	28.668	1270.073	1050.690
-16.692	28.778	1268.491	1049.964
-15.677	28.725	1267.834	1049.078
-14.663	28.667	1267.105	1048.104
-13.648	28.766	1265.588	1047.371
-12.633	28.681	1264.898	1046.274
-11.619	28.742	1263.955	1045.800
-10.604	28.607	1263.482	1044.597
-9.590	28.673	1262.200	1043.870
-8.575	28.695	1261.227	1043.150
-7.560	28.715	1260.139	1042.321
-6.546	28.828	1258.938	1041.931
-5.531	28.632	1258.872	1040.720
-4.517	28.695	1258.039	1040.349
-3.502	28.682	1256.995	1039.370
-2.487	28.633	1256.077	1038.292
-1.473	28.406	1251.699	1033.352
-0.458	26.417	1235.432	1008.800
0.556	20.319	1217.124	963.651
1.571	15.839	1221.338	941.883
2.586	14.589	1236.439	946.362
3.600	14.559	1223.880	936.497
4.615	10.739	1153.652	862.431
5.629	3.756	1081.186	773.338
6.644	0.401	1062.782	743.580
7.659	0.163	1060.852	740.996
8.673	0.166	1059.416	739.938
9.688	0.100	1058.096	738.631
10.702	0.367	1055.994	738.403
11.717	4.436	1061.012	761.842
12.731	11.764	1070.903	805.050
13.746	16.202	1076.399	831.016
14.761	16.878	1076.583	834.411
15.775	16.131	1074.525	829.071
16.790	15.182	1072.570	822.831
17.804	14.349	1070.984	817.458
18.819	13.892	1070.141	814.500
19.834	13.702	1069.342	812.888
20.848	13.512	1068.188	811.010
21.863	13.348	1067.064	809.279
22.877	13.118	1066.993	808.028
23.892	13.046	1065.938	806.807
24.907	13.227	1065.117	806.997
25.921	13.118	1064.428	805.872
26.936	13.119	1064.103	805.564
27.950	13.214	1062.761	804.934
28.965	13.241	1061.290	803.882
29.980	13.423	1060.018	803.730
30.994	13.331	1058.906	802.372
32.009	13.310	1058.545	801.923
33.023	13.385	1057.173	801.178
34.038	13.276	1056.238	799.872
35.053	13.322	1055.391	799.382
36.067	13.273	1054.351	798.285
37.082	13.406	1053.546	798.250
38.096	13.347	1052.786	797.316
39.111	13.349	1051.842	796.542
40.126	13.261	1051.243	795.593
41.140	13.073	1050.333	793.932
42.155	13.008	1048.542	792.193
43.169	13.180	1047.477	792.145
44.184	13.129	1046.465	791.066
45.199	13.014	1046.100	790.170
46.213	13.106	1044.880	789.615
47.228	13.157	1043.477	788.729
48.242	13.260	1042.235	788.215
49.257	13.226	1041.744	787.608
50.271	13.327	1040.411	787.015
51.286	13.286	1039.486	786.049
52.301	13.217	1038.703	785.060
53.315	13.197	1037.482	783.973
54.330	13.009	1036.858	782.538
55.344	13.135	1036.337	782.676
56.359	13.283	1034.809	782.150
57.374	13.087	1034.505	780.924
58.388	13.040	1033.647	779.987
59.403	13.150	1032.408	779.500
60.417	13.154	1031.594	778.839
61.432	13.118	1030.822	778.017
62.447	13.036	1030.354	777.210
63.461	13.086	1029.427	776.676
64.476	13.084	1028.312	775.753
65.490	12.995	1027.573	774.711
66.505	13.094	1026.975	774.658
67.520	13.182	1026.233	774.440
68.534	13.199	1025.531	773.923
69.549	13.156	1024.814	773.113
70.563	13.068	1024.348	772.281
71.578	13.115	1023.043	771.446
72.593	13.019	1022.714	770.685
73.607	12.954	1021.863	769.672
74.622	13.019	1020.965	769.230
75.636	12.921	1020.565	768.405
76.651	13.063	1019.720	768.359
77.666	12.939	1019.773	767.754
78.680	12.952	1018.633	766.887
79.695	13.062	1017.911	766.788
80.709	12.989	1017.377	765.980
81.724	13.109	1016.748	765.995
82.739	13.101	1015.914	765.258
83.753	13.302	1014.977	765.416
84.768	13.293	1014.381	764.857
85.782	13.262	1013.336	763.861
86.797	13.220	1012.005	762.595
87.812	13.115	1011.669	761.793
88.826	13.226	1010.390	761.271
89.841	13.317	1009.611	761.036
90.855	13.336	1008.518	760.232
91.870	13.338	1008.223	759.950
92.884	13.378	1007.049	759.182
93.899	13.368	1006.080	758.338
94.914	13.417	1005.443	758.018
95.928	13.322	1005.127	757.274
96.943	13.284	1004.205	756.342
97.957	13.216	1003.122	755.146
98.972	13.401	1001.771	754.909
99.987	13.395	1000.830	754.105
101.001	13.371	1000.434	753.628
102.016	13.408	999.692	753.175
103.030	13.322	998.794	752.039
104.045	13.248	998.264	751.235
105.060	13.276	996.522	749.985
106.074	13.283	996.268	749.762
107.089	13.271	994.780	748.520
108.103	13.246	993.798	747.603
109.118	13.248	993.190	747.087
110.133	13.100	992.695	745.983
111.147	13.181	991.737	745.559
112.162	13.157	990.668	744.582
113.176	13.197	990.170	744.324
114.191	13.305	989.312	744.096
115.206	13.222	988.583	743.112
116.220	13.261	987.839	742.659
117.235	13.236	986.653	741.588
118.249	13.308	985.453	740.946
119.264	13.140	985.153	739.903
120.279	13.339	984.071	739.916
121.293	13.176	983.208	738.473
122.308	13.295	982.285	738.242
123.322	13.146	981.366	736.823
124.337	13.278	980.067	736.370
125.352	13.236	979.487	735.684
126.366	13.151	978.462	734.472
127.381	13.205	977.370	733.824
128.395	13.149	976.549	732.895
129.410	13.177	975.821	732.411
130.424	13.252	974.850	731.949
131.439	13.317	973.847	731.415
132.454	13.363	972.899	730.844
133.468	13.373	972.266	730.346
134.483	13.413	971.291	729.726
135.497	13.188	971.039	728.481
136.512	13.300	969.775	727.960
137.527	13.358	968.646	727.306
138.541	13.458	967.958	727.161
139.556	13.408	967.265	726.360
140.570	13.315	967.057	725.731
141.585	13.470	965.705	725.329
142.600	13.447	965.315	724.873
143.614	13.408	964.525	724.045
144.629	13.486	963.578	723.609
145.643	13.549	962.348	722.896
146.658	13.381	961.359	721.358
147.673	13.370	960.520	720.616
148.687	13.345	959.734	719.856
149.702	13.339	959.380	719.498
150.716	13.365	958.195	718.662
151.731	13.373	957.769	718.313
152.746	13.378	957.057	717.736
153.760	13.314	956.580	717.039
154.775	13.448	955.957	717.088
155.789	13.462	955.232	716.539
156.804	13.549	954.442	716.260
157.819	13.534	953.851	715.690
158.833	13.553	952.903	714.997
159.848	13.650	952.320	714.916
160.862	13.520	951.516	713.689
161.877	13.548	950.315	712.845
162.892	13.506	949.430	711.936
163.906	13.522	948.425	711.190
164.921	13.586	947.857	710.974
165.935	13.674	946.610	710.351
166.950	13.570	946.200	709.538
167.964	13.501	945.667	708.779
168.979	13.527	944.566	708.002
169.994	13.605	943.328	707.344
171.008	13.628	942.852	707.023
172.023	13.691	942.319	706.830
173.037	13.730	941.830	706.566
174.052	13.550	941.149	705.229
175.067	13.727	940.117	705.145
176.081	13.663	939.597	704.419
177.096	13.737	938.931	704.172
178.110	13.589	938.460	703.129
179.125	13.667	938.081	703.112
180.140	13.644	937.539	702.547
181.154	13.657	936.975	702.119
182.169	13.754	936.345	701.996
183.183	13.764	935.924	701.657
184.198	13.843	934.204	700.642
185.213	13.825	934.201	700.500
186.227	13.971	933.220	700.317
187.242	13.904	933.053	699.847
188.256	13.919	932.302	699.287
189.271	13.901	931.622	698.638
190.286	13.804	930.636	697.431
191.300	13.647	930.414	696.543
192.315	13.688	929.674	696.098
193.329	13.676	929.399	695.782
194.344	13.810	928.327	695.481
195.359	13.797	927.662	694.864
196.373	13.800	927.249	694.505
197.388	13.863	927.105	694.599
198.402	13.966	926.277	694.348
199.417	14.055	925.236	693.878
200.432	14.019	925.059	693.534
201.446	14.102	924.425	693.343
202.461	14.120	923.993	693.033
203.475	14.186	923.108	692.582
204.490	14.084	922.632	691.741
205.504	14.021	921.692	690.714
206.519	14.053	920.818	690.131
207.534	14.000	920.278	689.445
208.548	14.213	919.658	689.802
209.563	14.121	918.770	688.693
210.577	14.108	918.555	688.419
211.592	14.139	917.544	687.725
212.607	14.193	916.820	687.347
213.621	14.297	916.130	687.199
214.636	14.179	915.425	686.123
215.650	14.261	914.804	685.932
216.665	14.345	914.007	685.619
217.680	14.271	913.788	685.091
218.694	14.281	913.032	684.506
219.709	14.385	912.050	684.136
220.723	14.352	911.475	683.506
221.738	14.338	910.906	682.965
222.753	14.453	909.634	682.420
223.767	14.402	909.532	682.076
224.782	14.560	908.706	682.041
225.796	14.388	908.570	681.173
226.811	14.417	907.838	680.686
227.826	14.455	906.674	679.906
228.840	14.499	905.975	679.500
229.855	14.419	905.733	678.934
230.869	14.503	904.685	678.432
231.884	14.451	903.964	677.619
232.899	14.436	903.094	676.845
233.913	14.382	902.298	675.971
234.928	14.452	901.905	675.898
235.942	14.371	901.493	675.201
236.957	14.531	900.886	675.337
237.972	14.418	900.338	674.408
238.986	14.454	899.455	673.833
240.001	14.394	898.901	673.115
241.015	14.427	898.384	672.803
242.030	14.438	897.732	672.297
243.045	14.540	896.920	672.041
244.059	14.548	896.789	671.917
245.074	14.417	896.227	670.908
246.088	14.677	894.878	670.883
247.103	14.513	894.706	670.039
248.117	14.649	893.876	669.902
249.132	14.700	893.763	669.965
250.147	14.862	892.605	669.684
251.161	14.863	892.047	669.212
252.176	14.658	891.532	667.945
253.190	14.887	890.736	668.204
254.205	14.921	890.125	667.824
255.220	14.998	889.283	667.439
256.234	14.901	888.722	666.573
257.249	14.820	888.494	666.021
258.263	14.859	887.625	665.465
259.278	15.103	886.805	665.762
260.293	14.934	886.364	664.698
261.307	15.087	885.755	664.792
262.322	15.063	885.394	664.365
263.336	15.098	884.344	663.658
264.351	15.127	883.138	662.810
265.366	15.109	882.899	662.499
266.380	15.038	882.557	661.904
267.395	15.191	881.718	661.820
268.409	15.153	880.829	660.947
269.424	14.979	880.398	659.875
270.439	15.173	879.086	659.600
271.453	15.129	878.994	659.299
272.468	15.124	878.478	658.833
273.482	15.201	877.685	658.482
274.497	15.072	877.434	657.730
275.512	15.246	876.174	657.410
276.526	15.259	875.995	657.269
277.541	15.154	875.950	656.765
278.555	15.299	874.966	656.535
279.570	15.226	874.437	655.795
280.585	15.419	873.431	655.739
281.599	15.317	872.770	654.787
282.614	15.372	872.220	654.528
283.628	15.285	871.870	653.868
284.643	15.342	871.241	653.561
285.657	15.316	870.546	652.882
286.672	15.382	869.661	652.418
287.687	15.343	869.314	651.948
288.701	15.454	868.800	651.936
289.716	15.347	868.268	651.065
290.730	15.399	867.813	650.866
291.745	15.598	866.814	650.830
292.760	15.543	866.152	650.064
293.774	15.580	865.690	649.801
294.789	15.532	865.109	649.122
295.803	15.620	864.059	648.616
296.818	15.532	863.694	647.946
297.833	15.509	863.206	647.434
298.847	15.548	862.713	647.158
299.862	15.560	862.146	646.722
300.876	15.508	861.498	645.977
301.891	15.667	860.679	645.916
302.906	15.605	860.216	645.274
303.920	15.672	859.918	645.252
304.935	15.637	859.253	644.562
305.949	15.823	858.291	644.494
306.964	15.829	857.888	644.158
307.979	15.780	857.376	643.530
308.993	15.791	856.891	643.148
310.008	15.908	855.809	642.727
311.022	15.818	855.389	642.013
312.037	15.735	854.936	641.300
313.052	15.787	854.461	641.082
314.066	15.750	854.136	640.640
315.081	15.686	853.320	639.730
316.095	15.634	852.905	639.165
317.110	15.787	852.213	639.170
318.125	15.730	851.743	638.545
319.139	15.889	851.180	638.671
320.154	15.878	850.577	638.118
321.168	15.848	849.921	637.458
322.183	15.866	849.719	637.317
323.197	15.995	848.900	637.133
324.212	15.918	848.443	636.444
325.227	15.838	847.938	635.704
326.241	15.891	847.456	635.490
327.256	15.983	846.495	635.060
328.270	15.888	846.103	634.351
329.285	15.963	845.467	634.101
330.300	15.937	844.932	633.546
331.314	16.021	844.430	633.427
332.329	15.884	844.428	632.857
333.343	15.979	843.669	632.589
334.358	15.984	843.009	632.056
335.373	16.156	842.613	632.346
336.387	16.146	842.259	631.987
337.402	16.136	842.074	631.755
338.416	16.036	841.734	631.071
339.431	16.052	841.846	631.158
340.446	16.242	841.017	631.190
341.460	16.110	840.855	630.523
342.475	16.363	840.062	630.816
343.489	16.236	839.773	630.069
344.504	16.327	838.950	629.736
345.519	16.351	838.946	629.764
346.533	16.316	838.241	629.049
347.548	16.242	837.547	628.199
348.562	16.348	837.494	628.496
349.577	16.201	836.554	627.192
350.592	16.253	836.042	626.945
351.606	16.463	834.773	626.716
352.621	16.274	834.503	625.756
353.635	16.346	833.929	625.539
354.650	16.428	833.297	625.312
355.665	16.204	832.748	624.015
356.679	16.597	832.018	624.866
357.694	16.364	831.472	623.540
358.708	16.316	831.142	623.060
359.723	16.367	830.288	622.552
360.738	16.493	829.498	622.371
361.752	16.513	829.191	622.157
362.767	16.641	828.269	621.882
363.781	16.611	828.043	621.545
364.796	16.686	827.326	621.226
365.810	16.735	826.969	621.087
366.825	16.675	827.111	620.918
367.840	16.781	826.316	620.654
368.854	16.655	825.777	619.731
369.869	16.780	825.308	619.781
370.883	16.758	824.965	619.390
371.898	16.801	824.500	619.143
372.913	16.805	824.151	618.842
373.927	16.862	823.416	618.443
374.942	16.867	823.213	618.254
375.956	16.801	823.206	617.954
376.971	16.901	822.524	617.751
377.986	16.975	821.915	617.509
379.000	17.039	821.487	617.365
380.015	16.991	821.015	616.781
381.029	17.008	820.349	616.285
382.044	16.999	819.716	615.724
383.059	16.893	819.274	614.954
384.073	17.136	818.200	614.972
385.088	16.886	818.122	613.955
386.102	16.918	817.784	613.761
387.117	16.882	816.961	612.959
388.132	16.988	816.519	612.956
389.146	17.079	816.085	612.905
390.161	16.957	815.390	611.889
391.175	16.953	815.310	611.761
392.190	17.076	814.636	611.644
393.205	17.083	813.941	611.093
394.219	17.025	813.736	610.677
395.234	16.974	813.451	610.224
396.248	16.980	812.871	609.760
397.263	16.993	812.498	609.470
398.278	17.104	811.812	609.303
399.292	16.991	811.534	608.633
400.307	16.904	810.979	607.853
401.321	17.083	810.403	608.006
402.336	17.213	809.915	608.051
403.350	17.173	809.572	607.597
404.365	17.143	809.079	607.065
405.380	17.251	808.525	606.981
406.394	17.301	808.449	607.053
407.409	17.186	808.007	606.255
408.423	17.452	807.686	606.910
409.438	17.379	807.197	606.227
410.453	17.322	806.605	605.528
411.467	17.407	805.990	605.314
412.482	17.387	805.847	605.082
413.496	17.579	804.970	605.050
414.511	17.506	804.795	604.608
415.526	17.546	804.590	604.543
416.540	17.470	803.792	603.618
417.555	17.481	803.290	603.226
418.569	17.571	802.959	603.244
419.584	17.479	802.692	602.665
420.599	17.484	802.335	602.363
421.613	111.710	1295.140	1476.803
422.628	96.300	1366.906	1476.897
