DTS Sentinel unit serial number:	SN413079Multiplexer serial number:	ORYXHardware model number:	OX4-SRSoftware version number:	ORYX F/W v4.00 Oryx Data Collector v3.7.2.0data status	okinstallation	princeton_trtdifferential loss correction	single-endedforward channel	channel 1reverse channel	N/Adate	2019/09/17time	16:02:35forward acquisition time	60.00reverse acquisition time	0.00gamma	496.2192k internal	0.2291k external	0.2291temperature offset calibration	0.9954default loss term (dB/km)	0.3790temperature slope calibration	1.0000multiplexer offset coefficient	1.0000multiplexer slope coefficient	1.0000fibre end	0.00T internal ref (°C)	40.03T ext. ref 1 (°C)	0.38T ext. ref 2 (°C)	38.58length (m)	temperature (°C)	Stokes	anti-Stokes-747.200	-38.601	-0.079	-0.043
-746.185	-130.614	-0.149	0.021
-745.171	-116.999	-0.299	-0.056
-744.156	-200.000	-0.096	0.437
-743.142	776.274	-0.079	-0.221
-742.127	-24.445	0.197	-0.120
-741.112	161.963	0.202	0.289
-740.098	270.367	-0.325	0.585
-739.083	329.141	0.162	0.319
-738.069	-105.521	0.131	0.030
-737.054	-200.000	-0.042	-0.203
-736.039	-61.240	-0.148	-0.064
-735.025	-37.767	-0.284	0.155
-734.010	-200.000	-0.485	-0.001
-732.996	-74.825	-0.203	-0.075
-731.981	78.077	0.231	-0.252
-730.966	-13.511	-0.226	-0.150
-729.952	-13.121	0.107	0.071
-728.937	101.989	-0.227	-0.272
-727.923	-86.923	-0.101	-0.032
-726.908	-172.607	-0.427	0.014
-725.894	68.529	0.159	-0.167
-724.879	800.000	-0.058	-0.202
-723.864	479.673	-0.078	-0.182
-722.850	-200.000	-0.024	0.158
-721.835	-200.000	-0.001	-0.012
-720.821	25.716	-0.063	-0.054
-719.806	-59.832	-0.155	0.068
-718.791	-69.976	-0.250	-0.097
-717.777	-116.642	-0.049	-0.009
-716.762	47.018	-0.206	0.196
-715.748	-200.000	-0.028	-0.188
-714.733	88.290	0.269	0.306
-713.718	-200.000	-0.010	-0.262
-712.704	-69.091	0.054	-0.021
-711.689	7.836	-0.162	-0.124
-710.675	-23.366	-0.163	0.100
-709.660	800.000	-0.048	-0.177
-708.645	-40.193	0.343	-0.183
-707.631	290.554	-0.112	-0.208
-706.616	504.032	-0.195	-0.462
-705.602	-33.201	0.191	-0.108
-704.587	-51.052	-0.185	-0.089
-703.572	782.198	-0.092	-0.258
-702.558	-200.000	-0.016	-0.080
-701.543	52.234	-0.247	-0.241
-700.529	-26.650	0.120	0.072
-699.514	608.014	-0.126	0.321
-698.499	790.686	-0.084	0.236
-697.485	-1.467	0.160	0.115
-696.470	403.433	-0.115	-0.248
-695.456	-170.509	-0.364	-0.013
-694.441	679.706	0.059	-0.156
-693.426	-73.666	0.152	-0.057
-692.412	800.000	0.142	0.418
-691.397	74.156	0.118	-0.126
-690.383	345.790	0.101	-0.203
-689.368	-110.756	-0.207	-0.044
-688.354	253.809	-0.011	-0.019
-687.339	-135.729	0.284	0.034
-686.324	74.934	-0.081	0.087
-685.310	692.392	-0.068	0.183
-684.295	400.747	0.064	0.138
-683.281	-200.000	-0.013	0.199
-682.266	-200.000	0.026	-0.309
-681.251	800.000	0.036	-0.148
-680.237	-41.222	-0.203	0.107
-679.222	-104.215	0.047	-0.011
-678.208	-89.278	-0.133	-0.040
-677.193	406.228	-0.101	0.218
-676.178	-193.136	0.176	0.002
-675.164	394.539	-0.200	-0.426
-674.149	-128.289	0.198	0.029
-673.135	-200.000	0.070	-0.325
-672.120	-200.000	0.011	-0.113
-671.105	-200.000	-0.031	-0.168
-670.091	-172.086	0.228	0.008
-669.076	-200.000	-0.003	-0.490
-668.062	-31.667	-0.365	0.209
-667.047	-69.463	-0.231	-0.090
-666.032	-86.782	0.144	-0.045
-665.018	596.633	-0.036	-0.092
-664.003	348.628	-0.075	-0.152
-662.989	493.075	-0.150	-0.351
-661.974	559.514	0.066	-0.162
-660.959	-75.238	0.028	0.010
-659.945	69.199	-0.349	0.366
-658.930	96.773	-0.203	0.237
-657.916	334.962	-0.129	0.255
-656.901	621.821	0.033	0.084
-655.886	800.000	0.026	0.116
-654.872	133.665	-0.196	0.258
-653.857	-200.000	-0.045	-0.290
-652.843	16.808	-0.308	0.248
-651.828	121.377	-0.126	0.160
-650.814	-52.611	-0.275	-0.129
-649.799	506.000	0.016	-0.038
-648.784	84.565	0.387	0.433
-647.770	23.783	-0.078	0.065
-646.755	800.000	-0.052	-0.198
-645.741	550.998	0.053	-0.130
-644.726	-151.282	0.203	-0.015
-643.711	355.596	0.055	0.112
-642.697	800.000	0.088	-0.279
-641.682	346.473	-0.092	-0.185
-640.668	-49.201	-0.412	0.201
-639.653	-200.000	-0.016	0.281
-638.638	410.192	0.029	-0.064
-637.624	205.841	0.118	-0.187
-636.609	150.866	-0.087	0.121
-635.595	-81.396	-0.281	-0.094
-634.580	-200.000	0.021	0.187
-633.565	308.318	-0.081	-0.155
-632.551	-72.191	-0.018	0.007
-631.536	121.494	0.054	0.069
-630.522	136.547	0.177	-0.236
-629.507	493.604	-0.037	0.088
-628.492	43.518	-0.157	-0.147
-627.478	-42.491	-0.172	0.089
-626.463	-54.116	0.279	0.129
-625.449	-160.861	-0.155	-0.008
-624.434	27.009	-0.188	-0.161
-623.419	800.000	0.064	0.202
-622.405	-133.169	0.230	0.030
-621.390	-146.260	-0.230	-0.021
-620.376	-32.949	0.233	-0.132
-619.361	28.272	0.030	-0.026
-618.346	-47.747	0.233	-0.115
-617.332	-52.115	0.278	-0.131
-616.317	59.420	-0.292	-0.293
-615.303	800.000	0.064	-0.220
-614.288	-109.584	-0.250	-0.054
-613.273	586.380	0.019	-0.047
-612.259	-61.612	0.206	-0.088
-611.244	-148.783	-0.570	-0.047
-610.230	173.459	-0.077	0.113
-609.215	-56.217	0.229	0.104
-608.201	64.866	-0.195	-0.200
-607.186	-200.000	-0.014	0.098
-606.171	4.395	0.094	-0.070
-605.157	108.605	-0.215	-0.261
-604.142	-108.794	-0.308	0.067
-603.128	-200.000	-0.007	0.177
-602.113	800.000	0.063	-0.192
-601.098	-142.209	-0.385	0.039
-600.084	-176.145	0.059	0.002
-599.069	497.063	-0.019	-0.045
-598.055	-100.234	0.468	0.118
-597.040	497.419	0.022	-0.050
-596.025	-200.000	0.061	-0.283
-595.011	800.000	-0.102	-0.290
-593.996	200.710	0.153	-0.240
-592.982	-200.000	-0.026	-0.172
-591.967	-75.832	-0.119	-0.043
-590.952	-200.000	0.057	0.398
-589.938	-88.903	0.183	0.055
-588.923	-200.000	0.000	0.061
-587.909	-69.807	0.482	-0.187
-586.894	800.000	-0.086	0.252
-585.879	209.140	0.088	0.141
-584.865	-200.000	-0.001	-0.366
-583.850	-96.830	-0.335	-0.090
-582.836	506.825	-0.018	-0.042
-581.821	-200.000	0.056	-0.256
-580.806	107.441	-0.170	0.206
-579.792	356.624	0.051	0.103
-578.777	-200.000	0.005	-0.204
-577.763	-3.132	0.196	-0.139
-576.748	32.082	0.134	0.118
-575.733	-80.948	0.148	-0.050
-574.719	-200.000	-0.031	-0.158
-573.704	50.544	-0.173	-0.166
-572.690	96.666	-0.165	0.193
-571.675	-200.000	0.023	0.130
-570.661	800.000	-0.058	-0.200
-569.646	-200.000	-0.004	-0.215
-568.631	-25.197	0.145	0.087
-567.617	113.455	-0.066	-0.081
-566.602	800.000	0.074	-0.214
-565.588	59.210	-0.396	-0.397
-564.573	-176.809	0.326	0.008
-563.558	-48.151	0.126	0.062
-562.544	486.444	0.090	-0.210
-561.529	-72.231	-0.177	0.067
-560.515	-19.102	-0.251	0.159
-559.500	26.135	0.026	-0.022
-558.485	-29.194	0.077	-0.045
-557.471	-200.000	-0.201	0.001
-556.456	800.000	0.036	-0.103
-555.442	16.016	-0.056	-0.045
-554.427	-88.406	-0.384	-0.117
-553.412	-57.352	0.228	-0.102
-552.398	-200.000	-0.025	-0.241
-551.383	-126.435	-0.428	-0.065
-550.369	800.000	0.016	-0.048
-549.354	-182.010	-0.360	0.007
-548.339	62.297	-0.084	-0.085
-547.325	-110.464	0.394	0.083
-546.310	-200.000	-0.025	-0.175
-545.296	-200.000	-0.003	-0.040
-544.281	342.809	-0.146	0.289
-543.266	21.871	-0.250	-0.207
-542.252	-10.680	0.069	0.046
-541.237	209.299	-0.107	0.170
-540.223	-200.000	-0.067	-0.301
-539.208	-75.738	-0.072	0.026
-538.193	-200.000	-0.029	0.449
-537.179	-47.537	-0.086	-0.043
-536.164	-85.601	-0.068	0.021
-535.150	-182.653	0.166	0.003
-534.135	-200.000	0.008	0.211
-533.121	-90.468	-0.104	0.031
-532.106	282.647	0.125	0.228
-531.091	65.653	0.165	-0.170
-530.077	492.689	-0.138	0.320
-529.062	-163.845	-0.337	0.016
-528.048	-96.171	0.232	0.063
-527.033	-122.617	-0.127	-0.021
-526.018	800.000	0.020	-0.074
-525.004	-200.000	-0.012	-0.233
-523.989	181.339	0.061	-0.091
-522.975	-91.347	0.234	-0.068
-521.960	-200.000	-0.005	0.316
-520.945	109.776	-0.154	0.187
-519.931	34.522	-0.166	-0.147
-518.916	-178.899	-0.228	-0.005
-517.902	32.697	-0.018	-0.016
-516.887	-64.403	0.278	-0.115
-515.872	168.455	-0.246	-0.355
-514.858	150.961	-0.050	-0.070
-513.843	171.820	-0.223	-0.326
-512.829	295.018	0.157	0.291
-511.814	-200.000	0.021	-0.169
-510.799	-200.000	0.049	0.238
-509.785	-166.924	-0.279	-0.012
-508.770	-49.336	0.019	-0.009
-507.756	-23.732	0.068	0.041
-506.741	-58.091	0.173	-0.076
-505.726	281.451	-0.093	-0.169
-504.712	-200.000	0.019	0.261
-503.697	-34.790	0.149	0.082
-502.683	-102.406	-0.276	0.067
-501.668	-20.157	0.143	-0.089
-500.653	-141.305	0.368	0.038
-499.639	-82.772	-0.238	0.078
-498.624	-200.000	-0.046	0.259
-497.610	-54.654	0.303	-0.139
-496.595	595.841	-0.049	-0.124
-495.581	42.653	0.249	-0.229
-494.566	18.610	0.273	0.222
-493.551	36.281	0.177	-0.158
-492.537	-146.434	-0.160	-0.014
-491.522	800.000	0.049	0.189
-490.508	-59.157	0.169	-0.074
-489.493	-200.000	0.042	-0.233
-488.478	38.267	-0.238	-0.215
-487.464	800.000	0.037	-0.160
-486.449	470.165	0.146	-0.333
-485.435	-200.000	-0.002	-0.108
-484.420	-200.000	-0.028	0.139
-483.405	-106.003	0.181	-0.041
-482.391	-200.000	0.015	0.506
-481.376	-164.484	-0.150	0.007
-480.362	33.437	-0.141	0.124
-479.347	-200.000	0.001	0.100
-478.332	28.801	-0.221	0.190
-477.318	148.608	-0.082	0.113
-476.303	639.494	-0.043	-0.110
-475.289	-39.772	0.117	-0.062
-474.274	-200.000	0.000	0.247
-473.259	-20.929	0.079	0.049
-472.245	-31.713	0.021	0.012
-471.230	219.026	0.030	0.049
-470.216	800.000	0.107	0.366
-469.201	49.679	0.096	-0.092
-468.186	-200.000	0.006	0.132
-467.172	-58.782	-0.573	0.251
-466.157	205.902	0.192	-0.303
-465.143	357.846	0.074	-0.149
-464.128	386.427	0.129	0.270
-463.113	-124.305	-0.096	0.015
-462.099	-200.000	-0.025	0.305
-461.084	-200.000	0.013	0.099
-460.070	-91.925	-0.236	-0.068
-459.055	-105.738	-0.161	0.037
-458.040	221.524	-0.154	0.250
-457.026	30.581	-0.311	0.269
-456.011	100.599	-0.112	0.131
-454.997	-200.000	-0.004	0.096
-453.982	-136.573	0.135	0.016
-452.968	-7.112	-0.143	0.099
-451.953	-85.890	0.275	0.086
-450.938	146.976	0.196	0.266
-449.924	-74.252	0.149	0.055
-448.909	119.453	0.105	0.132
-447.895	-200.000	0.047	-0.267
-446.880	-123.209	-0.202	0.033
-445.865	-20.591	-0.222	0.138
-444.851	-31.069	0.393	-0.224
-443.836	-10.980	0.241	-0.161
-442.822	-200.000	0.005	-0.153
-441.807	-75.642	0.294	-0.106
-440.792	-94.422	-0.273	0.075
-439.778	-122.001	-0.182	0.030
-438.763	-13.882	-0.172	0.112
-437.749	-170.302	0.122	-0.004
-436.734	-21.821	0.165	0.102
-435.719	-98.582	-0.273	0.070
-434.705	-71.058	0.131	0.050
-433.690	-8.594	0.101	-0.069
-432.676	562.594	-0.090	0.221
-431.661	95.336	-0.222	0.256
-430.646	100.120	0.070	0.083
-429.632	800.000	0.054	0.198
-428.617	-99.810	0.123	-0.031
-427.603	-170.508	0.153	-0.005
-426.588	-20.065	0.147	-0.092
-425.573	800.000	0.075	-0.214
-424.559	800.000	-0.063	0.194
-423.544	-200.000	0.003	0.191
-422.530	800.000	-0.044	-0.188
-421.515	-200.000	0.033	-0.266
-420.500	-122.927	-0.358	0.058
-419.486	35.040	0.004	-0.004
-418.471	-155.861	-0.282	-0.018
-417.457	799.464	-0.024	0.068
-416.442	-110.854	0.277	-0.058
-415.428	-156.560	0.218	-0.014
-414.413	-200.000	-0.004	0.289
-413.398	-200.000	0.024	0.222
-412.384	69.922	-0.077	-0.080
-411.369	-92.541	-0.183	-0.052
-410.355	-12.392	0.350	0.231
-409.340	85.980	0.121	0.134
-408.325	-74.943	-0.335	-0.121
-407.311	276.721	-0.160	0.288
-406.296	-200.000	0.038	0.280
-405.282	41.607	-0.089	-0.082
-404.267	-110.711	0.297	0.062
-403.252	88.177	0.114	-0.127
-402.238	349.089	0.100	0.200
-401.223	-42.556	-0.197	0.101
-400.209	-86.231	0.125	0.039
-399.194	-33.947	0.181	0.101
-398.179	135.057	-0.268	0.352
-397.165	116.510	-0.126	0.156
-396.150	120.839	0.163	0.205
-395.136	-55.371	-0.212	0.096
-394.121	615.510	-0.096	0.243
-393.106	589.553	-0.117	-0.292
-392.092	-98.036	0.336	-0.087
-391.077	-133.587	0.094	-0.012
-390.063	800.000	0.039	0.114
-389.048	58.896	0.213	-0.211
-388.033	-142.021	0.118	0.012
-387.019	-149.143	-0.166	0.013
-386.004	38.957	0.183	-0.165
-384.990	-186.879	0.102	0.001
-383.975	-96.516	0.027	0.007
-382.960	-83.032	-0.162	0.053
-381.946	-200.000	-0.065	-0.319
-380.931	-7.434	0.167	0.114
-379.917	-48.210	-0.351	-0.171
-378.902	30.139	0.085	-0.073
-377.888	-154.007	-0.233	0.016
-376.873	-127.794	-0.235	-0.034
-375.858	-200.000	-0.002	0.114
-374.844	45.389	0.065	0.060
-373.829	-132.647	-0.253	0.033
-372.815	132.844	0.088	-0.114
-371.800	-9.447	-0.250	0.168
-370.785	119.988	-0.121	0.152
-369.771	-122.878	-0.368	-0.060
-368.756	-176.624	-0.036	-0.001
-367.742	800.000	0.075	0.241
-366.727	128.414	0.027	0.035
-365.712	800.000	0.039	-0.129
-364.698	-67.419	0.032	0.013
-363.683	-200.000	-0.056	-0.268
-362.669	-18.956	-0.437	-0.274
-361.654	177.044	-0.209	0.307
-360.639	-200.000	-0.031	0.308
-359.625	800.000	0.079	0.283
-358.610	-93.748	0.063	-0.018
-357.596	134.654	0.006	0.008
-356.581	254.386	0.205	-0.353
-355.566	324.202	0.039	-0.074
-354.552	-84.375	-0.273	0.087
-353.537	-200.000	-0.014	0.346
-352.523	-200.000	-0.005	-0.042
-351.508	-69.895	-0.104	-0.040
-350.493	432.043	-0.099	0.216
-349.479	-102.510	0.084	0.020
-348.464	148.688	0.074	0.100
-347.450	-40.810	0.161	-0.084
-346.435	49.724	0.214	0.203
-345.420	-200.000	-0.007	0.210
-344.406	-109.918	0.174	-0.037
-343.391	-24.126	0.424	-0.255
-342.377	193.368	0.031	0.048
-341.362	-200.000	0.026	-0.145
-340.348	-62.890	-0.310	0.129
-339.333	-127.835	-0.286	0.042
-338.318	281.375	0.035	0.064
-337.304	8.749	-0.068	0.051
-336.289	-149.715	0.243	0.019
-335.275	19.006	-0.293	-0.237
-334.260	516.972	0.123	-0.289
-333.245	-154.283	0.241	-0.016
-332.231	-118.474	0.116	-0.021
-331.216	-103.316	0.174	-0.041
-330.202	-89.424	-0.314	0.093
-329.187	-200.000	0.035	-0.178
-328.172	-200.000	0.047	-0.259
-327.158	109.094	0.016	0.019
-326.143	-200.000	-0.052	0.362
-325.129	800.000	-0.044	-0.165
-324.114	310.172	0.121	-0.229
-323.099	192.264	-0.124	0.189
-322.085	59.324	0.043	-0.043
-321.070	800.000	0.027	-0.087
-320.056	-165.082	0.323	-0.014
-319.041	-200.000	0.008	-0.182
-318.026	-200.000	-0.018	0.102
-317.012	279.778	0.094	0.168
-315.997	-98.760	-0.170	0.044
-314.983	154.878	0.259	-0.359
-313.968	-5.455	0.042	0.029
-312.953	13.319	0.433	0.338
-311.939	608.054	-0.052	0.131
-310.924	800.000	0.076	-0.238
-309.910	53.945	0.101	0.097
-308.895	193.935	-0.202	-0.309
-307.880	105.580	-0.089	-0.106
-306.866	800.000	0.023	0.092
-305.851	800.000	-0.063	0.176
-304.837	-133.091	-0.206	0.026
-303.822	189.995	-0.103	-0.155
-302.807	800.000	0.025	0.071
-301.793	652.308	0.073	-0.189
-300.778	16.610	0.070	0.056
-299.764	800.000	-0.118	-0.328
-298.749	-81.270	0.261	0.087
-297.735	-52.696	0.019	0.009
-296.720	158.734	0.059	0.082
-295.705	470.247	-0.016	-0.037
-294.691	166.379	-0.076	0.108
-293.676	99.998	-0.074	0.087
-292.662	-74.971	-0.155	0.056
-291.647	-90.712	-0.058	0.017
-290.632	-124.757	0.242	0.038
-289.618	324.388	0.082	0.158
-288.603	90.350	-0.104	-0.117
-287.589	-200.000	-0.010	-0.136
-286.574	151.007	0.231	-0.316
-285.559	-200.000	0.034	-0.225
-284.545	17.231	-0.189	0.151
-283.530	-48.887	0.236	-0.114
-282.516	243.049	0.094	-0.158
-281.501	-41.669	-0.103	0.053
-280.486	-200.000	-0.040	0.330
-279.472	235.384	-0.193	-0.320
-278.457	800.000	-0.081	0.283
-277.443	-200.000	0.064	0.351
-276.428	-200.000	-0.029	-0.253
-275.413	800.000	-0.032	0.113
-274.399	-200.000	0.027	-0.281
-273.384	-200.000	0.049	-0.274
-272.370	211.002	0.091	-0.145
-271.355	-200.000	0.002	-0.069
-270.340	-200.000	0.017	-0.114
-269.326	509.979	-0.031	0.073
-268.311	-28.847	0.084	0.048
-267.297	-200.000	-0.062	0.365
-266.282	-17.884	0.147	-0.093
-265.267	57.168	-0.149	0.146
-264.253	-102.803	0.119	-0.028
-263.238	493.640	0.043	0.099
-262.224	-87.746	0.308	-0.093
-261.209	-122.644	-0.140	0.023
-260.195	-200.000	-0.024	-0.120
-259.180	83.333	-0.030	0.033
-258.165	-166.407	-0.274	0.012
-257.151	3.342	-0.122	0.089
-256.136	129.386	0.019	-0.025
-255.122	53.379	0.142	-0.136
-254.107	322.171	-0.060	-0.114
-253.092	545.207	0.204	-0.490
-252.078	-200.000	0.056	-0.279
-251.063	518.533	0.135	0.318
-250.049	388.779	-0.010	0.021
-249.034	108.430	-0.158	-0.190
-248.019	-98.390	0.170	0.044
-247.005	-65.587	0.112	0.045
-245.990	-73.910	0.345	-0.126
-244.976	433.598	-0.069	0.151
-243.961	153.107	-0.173	0.237
-242.946	-200.000	-0.001	0.010
-241.932	-200.000	0.021	-0.513
-240.917	800.000	0.068	-0.209
-239.903	-115.614	0.234	-0.044
-238.888	-200.000	-0.003	-0.089
-237.873	222.219	-0.179	0.290
-236.859	22.155	-0.155	0.127
-235.844	406.660	0.127	0.268
-234.830	-120.134	0.153	-0.026
-233.815	43.709	0.133	0.122
-232.800	-141.098	-0.069	-0.007
-231.786	-100.714	0.186	0.046
-230.771	105.697	0.068	0.081
-229.757	-35.058	0.118	-0.064
-228.742	-152.066	-0.218	-0.016
-227.727	-21.293	0.039	0.024
-226.713	709.699	0.170	0.450
-225.698	76.103	0.163	0.173
-224.684	-78.681	-0.077	0.026
-223.669	-200.000	-0.006	0.200
-222.655	460.674	0.126	0.282
-221.640	-119.448	0.140	0.024
-220.625	81.038	-0.263	-0.285
-219.611	-15.935	0.216	-0.138
-218.596	-16.195	-0.050	-0.032
-217.582	-147.627	0.212	-0.018
-216.567	-200.000	0.042	-0.482
-215.552	-141.831	0.447	-0.045
-214.538	-106.633	-0.399	0.089
-213.523	-200.000	-0.042	-0.429
-212.509	-75.022	0.108	-0.039
-211.494	-115.065	-0.163	-0.031
-210.479	198.184	-0.182	-0.279
-209.465	-21.100	0.140	-0.086
-208.450	-200.000	-0.061	-0.334
-207.436	470.758	0.068	-0.153
-206.421	-136.346	-0.271	-0.032
-205.406	-58.511	-0.271	-0.118
-204.392	-149.766	0.189	-0.015
-203.377	-200.000	-0.012	-0.101
-202.363	-116.017	0.345	-0.064
-201.348	-170.046	0.311	0.011
-200.333	414.356	0.134	-0.286
-199.319	-200.000	0.158	-0.001
-198.304	-184.933	-0.100	0.002
-197.290	34.576	0.093	0.082
-196.275	-200.000	-0.001	0.634
-195.260	-45.360	0.036	0.018
-194.246	-7.076	-0.089	0.060
-193.231	-22.939	-0.199	0.121
-192.217	-200.000	0.001	0.081
-191.202	144.709	-0.244	-0.326
-190.187	-26.405	-0.218	0.128
-189.173	20.237	-0.151	0.122
-188.158	800.000	-0.110	0.383
-187.144	-49.347	0.239	0.114
-186.129	800.000	0.038	0.151
-185.114	-67.914	-0.196	-0.077
-184.100	-200.000	0.001	-0.142
-183.085	25.326	-0.124	-0.103
-182.071	178.956	-0.093	-0.136
-181.056	745.315	-0.118	0.319
-180.042	135.262	0.179	-0.233
-179.027	-146.313	-0.317	-0.028
-178.012	494.566	-0.021	0.049
-176.998	-168.808	-0.203	0.008
-175.983	-12.981	0.066	0.043
-174.969	421.754	-0.057	0.123
-173.954	92.427	0.140	-0.158
-172.939	-66.678	0.074	-0.029
-171.925	455.083	0.047	-0.104
-170.910	252.800	0.042	-0.071
-169.896	-200.000	-0.063	-0.289
-168.881	24.304	0.222	-0.184
-167.866	-160.641	0.091	0.005
-166.852	102.476	0.291	0.340
-165.837	-110.088	0.115	0.024
-164.823	-200.000	-0.069	0.372
-163.808	-47.853	0.435	0.211
-162.793	61.151	-0.161	0.160
-161.779	-200.000	-0.026	0.125
-160.764	281.330	-0.136	-0.243
-159.750	83.816	-0.135	-0.148
-158.735	426.543	0.057	-0.123
-157.720	-200.000	0.016	0.112
-156.706	800.000	0.028	0.094
-155.691	-78.738	-0.282	-0.096
-154.677	19.772	0.141	0.114
-153.662	800.000	-0.021	0.076
-152.647	505.416	-0.032	0.075
-151.633	800.000	0.060	0.204
-150.618	800.000	-0.053	-0.192
-149.604	-66.784	0.240	-0.095
-148.589	-200.000	-0.029	-0.336
-147.574	-200.000	-0.028	-0.293
-146.560	445.010	0.020	-0.044
-145.545	-8.053	-0.289	-0.195
-144.531	-28.680	0.033	-0.019
-143.516	-200.000	-0.011	0.087
-142.502	-52.930	0.092	0.043
-141.487	-176.306	0.169	0.004
-140.472	58.219	-0.026	0.025
-139.458	425.366	-0.050	-0.108
-138.443	-13.555	0.093	0.060
-137.429	87.460	-0.106	0.118
-136.414	-57.411	0.107	-0.047
-135.399	-55.992	0.309	0.138
-134.385	37.442	-0.192	0.170
-133.370	-82.018	0.071	0.023
-132.356	-193.705	-0.100	0.001
-131.341	-112.770	-0.042	0.008
-130.326	-133.305	0.170	-0.021
-129.312	-101.421	-0.516	0.126
-128.297	1.198	0.143	0.103
-127.283	800.000	0.070	-0.224
-126.268	-105.024	-0.260	-0.060
-125.253	149.001	-0.119	0.161
-124.239	-186.103	0.175	-0.003
-123.224	172.692	-0.169	-0.243
-122.210	259.823	0.081	-0.140
-121.195	-200.000	-0.015	-0.142
-120.180	800.000	-0.028	-0.116
-119.166	800.000	0.098	-0.280
-118.151	444.430	-0.034	0.075
-117.137	238.238	0.027	0.045
-116.122	-2.962	0.069	-0.048
-115.107	-118.897	-0.326	-0.057
-114.093	-200.000	0.009	-0.162
-113.078	800.000	0.169	-0.511
-112.064	348.534	-0.136	-0.267
-111.049	-45.483	-0.128	-0.063
-110.034	800.000	-0.021	-0.058
-109.020	548.420	0.021	0.049
-108.005	-107.016	-0.192	-0.042
-106.991	-104.654	0.189	0.044
-105.976	-54.958	-0.149	-0.067
-104.962	-47.431	0.219	0.106
-103.947	-3.071	-0.035	-0.025
-102.932	195.605	0.053	-0.080
-101.918	203.598	-0.113	0.175
-100.903	-148.874	0.332	-0.027
-99.889	204.308	-0.086	0.133
-98.874	325.610	0.171	0.327
-97.859	3.679	-0.162	0.118
-96.845	-88.405	-0.237	0.071
-95.830	88.943	0.239	0.266
-94.816	-200.000	0.059	0.333
-93.801	40.152	-0.332	0.298
-92.786	704.875	-0.074	0.196
-91.772	800.000	0.055	-0.183
-90.757	-23.032	0.078	-0.047
-89.743	-110.149	0.336	0.070
-88.728	-79.877	0.186	0.062
-87.713	-200.000	0.070	-0.337
-86.699	-62.966	0.206	0.085
-85.684	-81.837	-0.434	-0.142
-84.670	800.000	-0.106	-0.331
-83.655	45.468	0.054	-0.049
-82.640	-72.873	0.273	0.100
-81.626	-200.000	-0.064	0.366
-80.611	351.130	-0.140	0.276
-79.597	800.000	-0.068	-0.231
-78.582	800.000	-0.054	-0.158
-77.567	800.000	-0.130	0.365
-76.553	800.000	0.016	0.064
-75.538	-30.234	-0.404	-0.229
-74.524	-55.844	0.200	-0.089
-73.509	800.000	-0.049	-0.179
-72.494	598.230	0.095	0.236
-71.480	-126.803	-0.136	0.020
-70.465	-25.985	-0.189	-0.111
-69.451	-79.544	-0.095	-0.032
-68.436	123.694	-0.227	-0.285
-67.422	88.495	0.197	0.218
-66.407	-200.000	-0.024	-0.210
-65.392	181.486	0.212	0.312
-64.378	262.084	0.189	-0.326
-63.363	-78.034	0.108	-0.037
-62.349	36.072	0.258	-0.226
-61.334	125.093	-0.590	-0.741
-60.319	221.028	0.186	0.298
-59.305	-200.000	-0.143	-0.692
-58.290	142.835	0.513	0.680
-57.276	517.530	0.705	1.643
-56.261	-200.000	76.172	513.544
-55.246	498.592	1349.682	3098.876
-54.232	140.049	2606.870	3425.838
-53.217	115.549	2260.406	2753.867
-52.203	51.982	1694.562	1608.422
-51.188	43.692	1414.834	1290.293
-50.173	40.143	1369.154	1226.627
-49.159	58.641	1404.464	1374.373
-48.144	65.081	1422.843	1432.517
-47.130	44.242	1385.357	1266.643
-46.115	40.217	1368.919	1226.682
-45.100	39.871	1364.564	1220.594
-44.086	39.765	1362.225	1217.797
-43.071	39.774	1359.440	1215.314
-42.057	39.729	1357.409	1213.175
-41.042	39.811	1355.672	1212.078
-40.027	39.907	1354.468	1211.540
-39.013	39.953	1351.998	1209.565
-37.998	39.993	1350.128	1208.088
-36.984	39.997	1348.483	1206.595
-35.969	40.063	1346.392	1205.078
-34.954	40.030	1345.167	1203.731
-33.940	40.082	1343.697	1202.684
-32.925	40.081	1342.344	1201.418
-31.911	40.232	1340.655	1200.778
-30.896	40.271	1338.723	1199.235
-29.881	40.131	1337.992	1197.686
-28.867	40.105	1336.449	1196.099
-27.852	40.121	1334.845	1194.711
-26.838	40.034	1333.637	1193.059
-25.823	40.127	1332.221	1192.306
-24.809	40.049	1330.962	1190.661
-23.794	40.072	1329.283	1189.249
-22.779	40.163	1327.374	1188.040
-21.765	40.109	1326.540	1186.926
-20.750	40.050	1325.001	1185.147
-19.736	40.044	1323.749	1183.943
-18.721	39.949	1322.187	1181.933
-17.706	39.920	1321.599	1181.188
-16.692	40.016	1320.336	1180.581
-15.677	40.064	1318.829	1179.474
-14.663	40.041	1318.207	1178.736
-13.648	40.007	1316.837	1177.263
-12.633	40.003	1316.019	1176.459
-11.619	40.019	1314.799	1175.418
-10.604	39.953	1314.318	1174.548
-9.590	39.913	1313.261	1173.321
-8.575	39.972	1312.009	1172.506
-7.560	39.902	1311.251	1171.367
-6.546	39.952	1310.431	1170.886
-5.531	39.888	1309.380	1169.519
-4.517	40.006	1308.627	1169.499
-3.502	40.007	1307.481	1168.432
-2.487	40.108	1305.853	1167.527
-1.473	40.198	1303.068	1165.523
-0.458	39.874	1289.602	1151.545
0.556	34.963	1271.323	1113.707
1.571	30.328	1274.033	1088.870
2.586	28.018	1287.710	1086.748
3.600	26.128	1275.204	1064.955
4.615	18.598	1196.006	956.887
5.629	6.751	1110.500	826.691
6.644	0.861	1085.481	777.784
7.659	0.295	1082.988	773.027
8.673	0.279	1081.669	771.933
9.688	0.088	1080.167	769.816
10.702	0.411	1078.898	770.496
11.717	6.245	1087.141	806.279
12.731	15.500	1099.664	863.284
13.746	18.320	1102.517	879.962
14.761	17.144	1099.981	871.825
15.775	16.102	1097.705	864.604
16.790	15.190	1095.545	858.160
17.804	14.478	1094.242	853.419
18.819	14.070	1092.866	850.185
19.834	13.719	1091.765	847.458
20.848	13.402	1091.158	845.294
21.863	13.219	1090.027	843.409
22.877	13.095	1089.075	841.966
23.892	12.995	1088.561	840.985
24.907	13.060	1087.871	840.704
25.921	13.023	1086.922	839.713
26.936	13.129	1086.075	839.518
27.950	13.208	1085.092	839.085
28.965	13.164	1084.054	837.989
29.980	13.248	1082.479	837.121
30.994	13.287	1081.518	836.502
32.009	13.337	1080.439	835.847
33.023	13.248	1079.490	834.586
34.038	13.205	1078.887	833.833
35.053	13.154	1078.296	833.041
36.067	13.339	1076.639	832.619
37.082	13.211	1075.754	831.221
38.096	13.259	1075.087	830.872
39.111	13.142	1074.763	829.959
40.126	13.267	1073.346	829.417
41.140	13.154	1072.002	827.743
42.155	13.025	1071.185	826.393
43.169	13.158	1069.896	825.990
44.184	13.017	1068.942	824.475
45.199	12.987	1068.024	823.541
46.213	13.026	1067.063	822.925
47.228	13.038	1065.555	821.746
48.242	13.117	1064.612	821.340
49.257	13.067	1063.942	820.503
50.271	13.201	1062.483	819.969
51.286	13.099	1062.060	819.064
52.301	13.185	1061.037	818.628
53.315	13.156	1059.932	817.563
54.330	13.056	1058.684	816.030
55.344	13.067	1057.877	815.395
56.359	13.042	1057.306	814.755
57.374	13.067	1056.257	813.999
58.388	13.096	1054.858	812.992
59.403	12.963	1054.594	812.062
60.417	12.990	1053.719	811.450
61.432	13.085	1052.630	811.005
62.447	13.067	1051.944	810.316
63.461	12.958	1051.332	809.241
64.476	12.901	1050.336	808.124
65.490	12.985	1049.311	807.675
66.505	12.968	1048.734	807.073
67.520	12.961	1048.238	806.587
68.534	13.034	1047.478	806.287
69.549	13.018	1046.551	805.424
70.563	13.009	1045.617	804.593
71.578	12.973	1045.008	803.876
72.593	12.952	1044.353	803.199
73.607	12.880	1043.538	802.150
74.622	12.926	1042.793	801.729
75.636	12.875	1042.292	801.026
76.651	12.921	1041.064	800.235
77.666	12.975	1040.723	800.162
78.680	12.944	1040.001	799.386
79.695	12.906	1039.338	798.624
80.709	12.895	1038.952	798.201
81.724	13.036	1037.936	798.035
82.739	13.159	1036.858	797.726
83.753	13.100	1036.301	796.941
84.768	13.073	1035.489	796.117
85.782	13.206	1034.319	795.790
86.797	13.224	1033.376	795.081
87.812	13.139	1032.752	794.120
88.826	13.100	1031.596	792.974
89.841	13.175	1030.750	792.615
90.855	13.297	1029.216	791.947
91.870	13.106	1029.398	791.102
92.884	13.188	1028.136	790.454
93.899	13.164	1027.375	789.686
94.914	13.353	1026.311	789.699
95.928	13.316	1025.527	788.850
96.943	13.361	1024.552	788.246
97.957	13.278	1023.828	787.225
98.972	13.311	1022.899	786.599
99.987	13.315	1021.951	785.818
101.001	13.374	1020.975	785.276
102.016	13.256	1020.389	784.197
103.030	13.280	1019.117	783.262
104.045	13.394	1018.351	783.148
105.060	13.209	1018.063	781.980
106.074	13.187	1017.352	781.259
107.089	13.109	1016.146	779.895
108.103	13.089	1015.548	779.273
109.118	13.081	1014.170	778.111
110.133	13.224	1013.094	777.890
111.147	13.110	1012.227	776.619
112.162	13.117	1011.485	776.011
113.176	13.280	1010.747	776.145
114.191	13.202	1010.134	775.239
115.206	13.204	1009.315	774.549
116.220	13.162	1008.361	773.556
117.235	13.276	1007.007	772.978
118.249	13.239	1006.150	772.080
119.264	13.180	1005.520	771.252
120.279	13.155	1005.046	770.702
121.293	13.137	1004.007	769.754
122.308	13.059	1003.234	768.731
123.322	13.165	1002.217	768.376
124.337	13.114	1001.286	767.359
125.352	13.255	999.744	766.762
126.366	13.215	999.141	766.048
127.381	13.247	997.872	765.156
128.395	13.159	997.248	764.200
129.410	13.203	996.101	763.460
130.424	13.230	995.299	762.903
131.439	13.193	994.381	761.959
132.454	13.347	993.740	762.112
133.468	13.397	992.990	761.698
134.483	13.356	991.808	760.537
135.497	13.365	991.013	759.898
136.512	13.291	989.835	758.588
137.527	13.238	989.381	757.932
138.541	13.367	988.643	757.890
139.556	13.371	988.157	757.466
140.570	13.431	986.966	756.765
141.585	13.519	985.890	756.271
142.600	13.433	985.417	755.449
143.614	13.442	984.702	754.877
144.629	13.546	983.709	754.525
145.643	13.445	982.818	753.311
146.658	13.429	981.765	752.369
147.673	13.342	981.108	751.400
148.687	13.356	980.017	750.561
149.702	13.209	979.385	749.347
150.716	13.341	978.416	749.135
151.731	13.412	977.498	748.686
152.746	13.356	976.810	747.841
153.760	13.438	975.994	747.522
154.775	13.441	975.407	747.019
155.789	13.426	975.233	746.753
156.804	13.460	974.101	745.970
157.819	13.416	973.631	745.350
158.833	13.499	972.599	744.867
159.848	13.540	972.061	744.572
160.862	13.499	971.100	743.585
161.877	13.353	970.401	742.328
162.892	13.420	968.945	741.451
163.906	13.292	968.215	740.252
164.921	13.419	967.683	740.348
165.935	13.618	966.650	740.382
166.950	13.418	965.810	738.783
167.964	13.472	964.767	738.160
168.979	13.622	963.437	737.742
169.994	13.525	963.043	736.944
171.008	13.580	961.925	736.269
172.023	13.620	961.270	735.880
173.037	13.612	960.857	735.462
174.052	13.588	959.912	734.566
175.067	13.419	959.750	733.629
176.081	13.538	958.930	733.464
177.096	13.473	958.671	732.917
178.110	13.493	957.941	732.380
179.125	13.656	956.856	732.205
180.140	13.603	956.347	731.517
181.154	13.723	955.527	731.357
182.169	13.659	955.353	730.875
183.183	13.700	955.075	730.777
184.198	13.719	953.687	729.734
185.213	13.628	953.527	729.148
186.227	13.759	952.550	728.912
187.242	13.820	951.799	728.540
188.256	13.943	951.516	728.800
189.271	13.828	950.691	727.600
190.286	13.771	949.568	726.427
191.300	13.550	949.165	725.087
192.315	13.478	948.725	724.371
193.329	13.636	947.958	724.411
194.344	13.759	946.943	724.110
195.359	13.699	946.636	723.548
196.373	13.648	946.255	722.968
197.388	13.877	945.620	723.421
198.402	13.925	944.913	723.023
199.417	13.978	944.434	722.823
200.432	14.001	943.731	722.323
201.446	13.962	943.448	721.871
202.461	14.095	942.429	721.604
203.475	13.976	942.167	720.825
204.490	13.960	941.602	720.258
205.504	14.022	940.430	719.566
206.519	13.915	939.659	718.452
207.534	14.006	938.979	718.260
208.548	14.029	938.400	717.854
209.563	13.996	937.976	717.322
210.577	14.024	937.369	716.916
211.592	14.076	936.442	716.367
212.607	14.172	935.391	715.914
213.621	14.336	934.540	715.903
214.636	14.249	933.982	715.037
215.650	14.216	933.366	714.363
216.665	14.213	932.599	713.697
217.680	14.299	931.937	713.498
218.694	14.300	931.424	713.045
219.709	14.308	930.548	712.345
220.723	14.373	929.866	712.040
221.738	14.341	929.267	711.382
222.753	14.302	928.413	710.496
223.767	14.396	927.597	710.210
224.782	14.439	927.055	709.917
225.796	14.335	926.503	708.989
226.811	14.409	925.996	708.854
227.826	14.325	925.775	708.265
228.840	14.397	924.611	707.618
229.855	14.317	923.918	706.686
230.869	14.504	922.488	706.320
231.884	14.332	922.198	705.308
232.899	14.427	921.218	704.897
233.913	14.404	921.145	704.682
234.928	14.404	920.271	703.951
235.942	14.331	919.611	703.073
236.957	14.282	919.568	702.772
237.972	14.295	918.612	702.036
238.986	14.482	917.518	701.923
240.001	14.501	917.100	701.623
241.015	14.416	916.544	700.776
242.030	14.445	915.763	700.239
243.045	14.581	915.021	700.182
244.059	14.480	914.997	699.675
245.074	14.504	914.523	699.354
246.088	14.523	913.553	698.628
247.103	14.629	912.779	698.421
248.117	14.653	912.162	697.987
249.132	14.642	911.810	697.607
250.147	14.793	911.131	697.658
251.161	14.648	910.375	696.413
252.176	14.796	909.804	696.530
253.190	14.759	909.172	695.833
254.205	14.860	908.319	695.537
255.220	14.930	907.537	695.167
256.234	14.833	907.016	694.304
257.249	14.839	906.582	693.934
258.263	14.935	905.298	693.289
259.278	14.960	904.829	692.971
260.293	15.068	904.390	693.021
261.307	15.016	903.819	692.309
262.322	15.064	903.089	691.886
263.336	15.062	902.257	691.180
264.351	15.108	901.649	690.841
265.366	15.010	900.818	689.743
266.380	15.131	900.242	689.738
267.395	15.160	899.299	689.073
268.409	15.127	898.914	688.580
269.424	14.978	898.065	687.259
270.439	15.011	897.271	686.723
271.453	15.164	896.828	686.951
272.468	15.061	896.590	686.289
273.482	15.139	895.818	685.953
274.497	15.157	894.959	685.312
275.512	15.133	894.535	684.825
276.526	15.120	894.090	684.374
277.541	15.060	893.617	683.702
278.555	15.222	892.629	683.549
279.570	15.309	891.761	683.179
280.585	15.290	891.022	682.476
281.599	15.392	890.291	682.268
282.614	15.333	889.769	681.570
283.628	15.340	889.076	681.006
284.643	15.326	888.314	680.307
285.657	15.297	887.643	679.616
286.672	15.361	887.019	679.335
287.687	15.318	886.721	678.874
288.701	15.374	886.146	678.600
289.716	15.288	885.724	677.870
290.730	15.427	884.893	677.732
291.745	15.466	884.156	677.268
292.760	15.433	883.333	676.444
293.774	15.486	883.090	676.411
294.789	15.451	882.545	675.794
295.803	15.477	881.665	675.164
296.818	15.356	881.508	674.496
297.833	15.421	880.436	673.878
298.847	15.631	879.505	673.948
299.862	15.509	878.886	672.923
300.876	15.654	878.539	673.179
301.891	15.550	877.865	672.187
302.906	15.636	877.636	672.299
303.920	15.648	877.487	672.174
304.935	15.668	876.397	671.356
305.949	15.674	875.887	670.931
306.964	15.730	875.122	670.511
307.979	15.744	874.351	669.914
308.993	15.754	873.643	669.354
310.008	15.833	872.964	669.089
311.022	15.756	872.968	668.723
312.037	15.770	871.846	667.861
313.052	15.609	871.776	667.111
314.066	15.591	871.361	666.661
315.081	15.708	870.557	666.452
316.095	15.739	869.614	665.795
317.110	15.739	869.067	665.318
318.125	15.713	868.678	664.856
319.139	15.846	867.929	664.752
320.154	15.781	867.985	664.479
321.168	15.781	867.224	663.835
322.183	15.771	866.808	663.419
323.197	15.827	866.133	663.063
324.212	15.856	865.827	662.888
325.227	15.923	864.854	662.346
326.241	15.917	864.268	661.814
327.256	15.782	863.776	660.850
328.270	15.891	862.939	660.580
329.285	15.879	862.443	660.093
330.300	15.936	862.025	659.938
331.314	15.798	861.604	659.018
332.329	15.956	860.804	658.965
333.343	16.001	860.559	658.896
334.358	15.990	859.980	658.352
335.373	16.106	859.286	658.216
336.387	16.072	859.259	658.002
337.402	16.047	859.298	657.877
338.416	16.063	858.714	657.434
339.431	16.146	858.515	657.548
340.446	16.111	857.764	656.776
341.460	16.228	857.156	656.710
342.475	16.231	856.966	656.518
343.489	16.230	856.734	656.277
344.504	16.242	856.126	655.798
345.519	16.278	855.760	655.600
346.533	16.235	855.364	655.073
347.548	16.281	854.703	654.685
348.562	16.184	854.028	653.737
349.577	16.200	853.636	653.440
350.592	16.336	852.447	652.997
351.606	16.236	852.280	652.426
352.621	16.157	851.375	651.370
353.635	16.180	850.941	651.069
354.650	16.230	850.131	650.584
355.665	16.298	849.394	650.225
356.679	16.344	848.986	650.034
357.694	16.358	848.233	649.452
358.708	16.435	847.530	649.153
359.723	16.508	846.848	648.852
360.738	16.530	846.258	648.428
361.752	16.402	846.066	647.733
362.767	16.592	845.251	647.777
363.781	16.567	844.522	647.066
364.796	16.570	844.204	646.778
365.810	16.671	843.952	646.913
366.825	16.703	843.046	646.281
367.840	16.636	843.002	645.938
368.854	16.631	842.438	645.429
369.869	16.678	841.630	644.932
370.883	16.701	841.333	644.734
371.898	16.710	841.231	644.633
372.913	16.782	840.764	644.491
373.927	16.770	840.054	643.846
374.942	16.803	839.684	643.629
375.956	16.766	839.524	643.311
376.971	16.876	838.387	642.798
377.986	16.906	838.074	642.615
379.000	16.820	837.751	641.985
380.015	16.847	837.454	641.804
381.029	16.910	836.996	641.633
382.044	17.041	836.052	641.348
383.059	16.954	835.396	640.458
384.073	16.936	835.024	640.050
385.088	16.810	834.677	639.251
386.102	16.679	834.173	638.314
387.117	16.844	833.406	638.295
388.132	16.813	832.632	637.529
389.146	16.955	832.310	637.758
390.161	16.924	831.859	637.240
391.175	16.875	831.329	636.596
392.190	17.161	830.244	636.779
393.205	16.944	830.086	635.787
394.219	16.872	830.378	635.688
395.234	16.842	829.929	635.175
396.248	16.848	829.280	634.645
397.263	17.007	828.608	634.667
398.278	17.000	828.353	634.391
399.292	17.164	827.561	634.342
400.307	16.852	827.412	633.003
401.321	16.864	827.208	632.838
402.336	16.870	826.749	632.452
403.350	16.929	826.030	632.064
404.365	17.082	825.521	632.191
405.380	17.149	824.669	631.732
406.394	17.187	824.559	631.732
407.409	17.217	824.010	631.369
408.423	17.290	823.607	631.274
409.438	17.367	823.192	631.186
410.453	17.218	822.611	630.131
411.467	17.284	822.355	630.126
412.482	17.269	822.056	629.786
413.496	17.428	821.428	629.837
414.511	17.379	821.316	629.514
415.526	17.486	820.722	629.397
416.540	17.452	820.470	629.022
417.555	17.401	819.751	628.229
418.569	17.443	819.347	628.016
419.584	17.418	818.993	627.600
420.599	17.393	818.666	627.201
421.613	92.203	1267.772	1377.780
422.628	79.189	1333.231	1377.903
