DTS Sentinel unit serial number:	SN413079Multiplexer serial number:	ORYXHardware model number:	OX4-SRSoftware version number:	ORYX F/W v4.00 Oryx Data Collector v3.7.2.0data status	okinstallation	princeton_trtdifferential loss correction	single-endedforward channel	channel 1reverse channel	N/Adate	2019/09/16time	16:26:35forward acquisition time	60.00reverse acquisition time	0.00gamma	496.2192k internal	0.2294k external	0.2294temperature offset calibration	0.9960default loss term (dB/km)	0.3790temperature slope calibration	1.0000multiplexer offset coefficient	1.0000multiplexer slope coefficient	1.0000fibre end	0.00T internal ref (°C)	40.31T ext. ref 1 (°C)	15.06T ext. ref 2 (°C)	34.13length (m)	temperature (°C)	Stokes	anti-Stokes-747.200	-200.000	0.021	-0.230
-746.185	-57.789	-0.129	0.058
-745.171	-69.348	-0.185	0.073
-744.156	-15.040	0.053	0.035
-743.142	107.595	0.104	-0.126
-742.127	-137.465	0.356	0.041
-741.112	-102.312	0.103	0.025
-740.098	-48.244	-0.469	-0.231
-739.083	-94.596	-0.273	0.076
-738.069	269.807	-0.077	-0.137
-737.054	779.174	-0.109	-0.304
-736.039	-1.564	0.267	0.192
-735.025	-119.701	0.297	0.053
-734.010	800.000	-0.040	0.155
-732.996	-200.000	0.014	0.126
-731.981	800.000	-0.071	-0.229
-730.966	-200.000	-0.005	0.167
-729.952	-200.000	-0.002	0.146
-728.937	-27.654	-0.282	-0.167
-727.923	-200.000	0.016	-0.154
-726.908	-126.515	0.181	-0.028
-725.894	-68.919	0.048	0.019
-724.879	162.492	0.101	-0.145
-723.864	38.585	0.316	-0.288
-722.850	-200.000	0.047	-0.343
-721.835	800.000	-0.042	-0.151
-720.821	-22.875	-0.324	-0.200
-719.806	29.426	0.223	0.193
-718.791	800.000	-0.087	0.313
-717.777	800.000	0.091	0.323
-716.762	-10.150	0.345	-0.234
-715.748	93.413	-0.201	0.232
-714.733	-200.000	0.026	0.164
-713.718	191.764	0.062	0.095
-712.704	-72.994	-0.384	0.144
-711.689	-42.363	-0.125	0.065
-710.675	-5.318	-0.142	-0.100
-709.660	24.697	-0.127	-0.107
-708.645	-76.538	-0.128	0.046
-707.631	-169.497	0.269	-0.010
-706.616	-200.000	-0.015	0.164
-705.602	-170.945	0.164	-0.006
-704.587	800.000	0.096	-0.335
-703.572	-112.293	0.338	-0.069
-702.558	-133.688	-0.276	0.035
-701.543	-91.161	-0.190	0.056
-700.529	-111.139	0.390	-0.082
-699.514	67.616	0.054	0.057
-698.499	-87.764	0.269	-0.083
-697.485	-136.493	-0.075	-0.009
-696.470	-40.266	0.136	0.072
-695.456	800.000	0.091	-0.284
-694.441	54.412	-0.197	-0.194
-693.426	-108.090	-0.189	0.042
-692.412	20.378	-0.326	-0.269
-691.397	800.000	-0.104	0.368
-690.383	-200.000	-0.046	-0.404
-689.368	15.686	-0.276	-0.222
-688.354	124.721	-0.087	-0.112
-687.339	800.000	0.082	-0.357
-686.324	-63.241	-0.194	0.082
-685.310	87.027	0.031	-0.035
-684.295	141.598	0.182	0.246
-683.281	69.250	0.227	0.239
-682.266	-200.000	0.043	0.413
-681.251	-103.923	0.435	0.104
-680.237	-92.216	-0.112	0.032
-679.222	27.562	-0.185	-0.159
-678.208	-154.082	-0.044	0.003
-677.193	-13.034	-0.089	0.059
-676.178	-41.029	-0.120	0.063
-675.164	-99.032	-0.138	0.036
-674.149	-200.000	-0.021	0.204
-673.135	800.000	-0.077	-0.263
-672.120	800.000	-0.113	0.326
-671.105	-82.633	-0.229	0.076
-670.091	117.480	-0.103	-0.129
-669.076	189.744	0.150	0.229
-668.062	-186.482	-0.319	-0.005
-667.047	31.931	-0.095	0.083
-666.032	-60.972	-0.068	-0.029
-665.018	45.966	-0.083	0.079
-664.003	268.737	0.076	-0.136
-662.989	131.728	-0.179	0.235
-661.974	-182.465	0.290	0.005
-660.959	-123.668	-0.436	-0.070
-659.945	-37.769	0.027	-0.014
-658.930	-82.791	-0.151	-0.050
-657.916	800.000	-0.100	0.430
-656.901	8.370	-0.058	0.044
-655.886	-31.415	0.258	0.148
-654.872	-30.962	-0.320	0.184
-653.857	-200.000	0.038	0.213
-652.843	164.339	-0.102	-0.147
-651.828	-150.323	-0.222	0.017
-650.814	-200.000	0.045	0.243
-649.799	257.312	0.073	0.127
-648.784	506.753	-0.102	-0.241
-647.770	110.721	-0.156	-0.192
-646.755	19.726	0.271	0.222
-645.741	-4.899	-0.264	-0.186
-644.726	123.707	0.051	0.065
-643.711	-58.953	-0.189	0.083
-642.697	-59.212	-0.212	0.093
-641.682	-123.820	0.177	0.028
-640.668	32.914	-0.064	-0.056
-639.653	-45.801	-0.375	-0.189
-638.638	265.773	-0.079	-0.140
-637.624	430.191	-0.083	0.182
-636.609	800.000	0.032	-0.113
-635.595	-186.156	0.223	-0.003
-634.580	-200.000	-0.036	-0.241
-633.565	-128.002	0.263	-0.039
-632.551	282.226	-0.048	0.087
-631.536	-141.867	-0.174	-0.018
-630.522	216.218	-0.090	0.145
-629.507	-132.170	-0.302	-0.040
-628.492	165.813	0.048	-0.069
-627.478	116.601	-0.234	-0.292
-626.463	-24.167	0.173	-0.105
-625.449	-73.465	-0.046	-0.017
-624.434	-200.000	-0.004	0.209
-623.419	83.810	-0.052	-0.058
-622.405	-200.000	-0.013	-0.149
-621.390	-200.000	-0.021	-0.275
-620.376	-7.109	0.120	0.083
-619.361	-200.000	0.007	-0.211
-618.346	96.698	-0.162	-0.188
-617.332	-4.310	-0.258	-0.181
-616.317	164.872	-0.319	0.458
-615.303	-71.370	0.203	0.077
-614.288	77.946	-0.081	0.088
-613.273	-135.211	-0.201	-0.025
-612.259	420.877	0.080	0.174
-611.244	-200.000	-0.049	-0.324
-610.230	-51.637	-0.129	0.061
-609.215	244.467	0.177	-0.303
-608.201	619.284	0.082	0.209
-607.186	35.075	0.153	-0.136
-606.171	551.528	0.194	-0.474
-605.157	82.661	0.105	0.116
-604.142	-97.503	0.258	0.068
-603.128	142.336	0.040	0.054
-602.113	10.927	0.113	-0.088
-601.098	-95.125	0.192	0.053
-600.084	141.012	-0.173	0.233
-599.069	74.228	0.264	-0.282
-598.055	66.086	-0.336	0.347
-597.040	-31.834	-0.360	0.205
-596.025	41.509	0.021	-0.019
-595.011	-104.626	0.275	-0.064
-593.996	176.858	0.149	-0.221
-592.982	69.859	0.071	0.075
-591.967	800.000	0.060	-0.197
-590.952	32.401	-0.244	-0.214
-589.938	-121.240	-0.145	0.025
-588.923	-79.291	-0.136	-0.047
-587.909	-14.893	-0.095	-0.062
-586.894	9.483	-0.081	-0.062
-585.879	800.000	-0.048	-0.195
-584.865	-197.013	0.263	0.002
-583.850	264.191	-0.141	-0.250
-582.836	800.000	0.036	-0.160
-581.821	171.499	0.136	0.198
-580.806	-41.975	0.058	0.030
-579.792	-47.219	-0.372	0.184
-578.777	374.547	-0.114	0.237
-577.763	157.660	0.208	0.293
-576.748	224.382	-0.034	0.056
-575.733	-200.000	0.033	0.161
-574.719	84.611	0.199	-0.221
-573.704	-108.914	0.275	-0.060
-572.690	800.000	0.069	-0.241
-571.675	-122.842	-0.211	0.035
-570.661	-36.810	0.205	0.112
-569.646	266.726	0.104	-0.184
-568.631	-200.000	0.026	0.161
-567.617	33.402	0.164	0.144
-566.602	-82.783	0.143	-0.047
-565.588	398.494	0.261	-0.555
-564.573	-80.008	0.340	0.116
-563.558	32.041	-0.170	0.149
-562.544	-15.845	0.029	0.019
-561.529	-200.000	0.027	0.304
-560.515	15.462	-0.236	0.188
-559.500	7.813	-0.067	-0.051
-558.485	-200.000	0.006	0.091
-557.471	713.201	-0.191	-0.514
-556.456	189.543	-0.114	-0.173
-555.442	-109.898	0.175	0.037
-554.427	-134.902	-0.019	0.002
-553.412	-20.915	-0.062	-0.039
-552.398	800.000	-0.063	0.242
-551.383	-200.000	0.021	-0.174
-550.369	800.000	0.072	0.230
-549.354	328.061	-0.172	0.335
-548.339	-175.715	0.080	0.002
-547.325	-74.077	-0.121	-0.045
-546.310	-61.491	-0.051	0.022
-545.296	-180.961	0.425	-0.009
-544.281	411.229	0.182	0.392
-543.266	-200.000	0.004	-0.456
-542.252	-200.000	-0.014	-0.178
-541.237	54.410	-0.037	0.037
-540.223	-156.946	0.161	-0.010
-539.208	-140.842	-0.386	-0.040
-538.193	-200.000	0.012	-0.213
-537.179	-17.920	0.049	0.031
-536.164	-200.000	-0.002	0.169
-535.150	184.689	0.156	0.235
-534.135	-31.659	0.172	-0.098
-533.121	96.654	-0.198	-0.230
-532.106	4.444	-0.369	-0.274
-531.091	-93.057	0.359	-0.101
-530.077	75.539	-0.166	0.178
-529.062	-24.044	-0.033	-0.020
-528.048	-96.433	-0.082	-0.022
-527.033	314.232	-0.033	-0.062
-526.018	-200.000	0.005	-0.272
-525.004	-40.213	-0.237	0.125
-523.989	-91.470	0.089	-0.026
-522.975	147.626	0.203	0.277
-521.960	800.000	0.051	0.186
-520.945	-36.391	-0.160	-0.088
-519.931	310.697	-0.093	0.177
-518.916	-70.938	0.103	0.039
-517.902	120.643	-0.202	-0.255
-516.887	-138.656	0.262	-0.029
-515.872	412.588	-0.127	0.273
-514.858	615.868	-0.095	0.240
-513.843	-71.293	-0.032	-0.012
-512.829	-112.551	0.151	0.031
-511.814	198.415	0.092	-0.143
-510.799	772.281	-0.091	0.252
-509.785	-92.657	-0.071	0.020
-508.770	47.825	-0.226	0.213
-507.756	-90.070	0.055	0.016
-506.741	-88.120	-0.271	0.082
-505.726	-53.581	-0.138	0.064
-504.712	-170.271	-0.056	-0.002
-503.697	-89.247	-0.463	-0.138
-502.683	-63.583	0.247	0.103
-501.668	110.689	-0.211	0.258
-500.653	-106.804	0.097	-0.022
-499.639	65.252	0.091	-0.094
-498.624	-200.000	-0.016	-0.123
-497.610	800.000	0.045	0.185
-496.595	12.781	0.108	-0.085
-495.581	-100.963	0.212	0.053
-494.566	800.000	-0.007	-0.023
-493.551	69.392	-0.017	-0.017
-492.537	-149.850	-0.145	0.012
-491.522	323.873	0.127	-0.245
-490.508	-200.000	-0.018	-0.363
-489.493	800.000	0.131	-0.417
-488.478	-184.196	-0.146	-0.002
-487.464	-173.619	0.251	-0.008
-486.449	176.112	0.080	0.118
-485.435	-76.440	-0.245	-0.087
-484.420	800.000	-0.053	-0.167
-483.405	800.000	0.056	0.214
-482.391	44.533	-0.053	0.049
-481.376	21.377	-0.246	-0.203
-480.362	-200.000	-0.046	0.300
-479.347	-89.859	-0.257	0.076
-478.332	-93.051	0.288	-0.081
-477.318	800.000	-0.010	-0.030
-476.303	-60.258	0.111	0.048
-475.289	-142.575	0.191	0.019
-474.274	45.941	0.215	-0.202
-473.259	64.203	-0.150	-0.153
-472.245	-74.664	-0.161	-0.058
-471.230	67.609	-0.222	0.229
-470.216	205.307	0.183	0.288
-469.201	-151.897	0.070	0.005
-468.186	17.436	-0.199	-0.160
-467.172	-200.000	0.025	-0.157
-466.157	-181.824	-0.127	0.002
-465.143	800.000	-0.077	0.313
-464.128	214.642	-0.053	0.085
-463.113	-92.461	-0.072	0.021
-462.099	-165.215	0.281	-0.013
-461.084	-77.186	-0.480	0.169
-460.070	-61.690	0.037	0.016
-459.055	-70.168	-0.166	0.064
-458.040	-177.243	0.050	0.001
-457.026	356.245	-0.105	-0.212
-456.011	-12.888	-0.393	-0.259
-454.997	800.000	-0.054	0.205
-453.982	-115.769	-0.146	0.028
-452.968	58.803	0.017	0.017
-451.953	-10.785	-0.288	-0.192
-450.938	8.127	-0.111	0.084
-449.924	-93.095	0.380	0.107
-448.909	44.151	-0.188	0.174
-447.895	-118.770	-0.085	-0.015
-446.880	-134.497	-0.121	-0.015
-445.865	257.822	0.080	0.140
-444.851	-200.000	-0.007	0.232
-443.836	-29.554	0.160	-0.092
-442.822	-44.602	-0.114	0.057
-441.807	385.626	0.094	-0.196
-440.792	-97.116	0.207	0.055
-439.778	388.455	0.063	0.132
-438.763	75.282	0.091	0.097
-437.749	751.377	0.095	-0.260
-436.734	-200.000	0.010	0.122
-435.719	17.772	-0.193	0.155
-434.705	15.269	0.149	0.118
-433.690	223.555	-0.171	0.278
-432.676	-194.261	-0.066	0.001
-431.661	63.839	0.124	-0.126
-430.646	641.051	0.024	-0.062
-429.632	668.913	0.110	-0.286
-428.617	434.306	0.035	0.077
-427.603	207.407	0.078	-0.123
-426.588	262.081	0.244	-0.427
-425.573	-99.572	-0.175	0.044
-424.559	-28.741	-0.104	0.061
-423.544	-33.697	-0.109	-0.061
-422.530	70.917	0.232	-0.242
-421.515	20.852	0.061	0.050
-420.500	92.035	-0.120	0.137
-419.486	-58.797	-0.108	0.047
-418.471	142.383	-0.039	0.053
-417.457	-200.000	0.242	-0.001
-416.442	148.584	-0.178	0.243
-415.428	-142.051	-0.156	0.016
-414.413	-116.488	-0.173	-0.032
-413.398	631.336	0.056	-0.143
-412.384	-93.034	0.191	0.054
-411.369	59.111	-0.220	-0.218
-410.355	-54.996	-0.019	0.008
-409.340	295.324	-0.166	0.306
-408.325	-200.000	0.010	-0.164
-407.311	-151.565	-0.100	0.007
-406.296	-112.880	0.120	0.024
-405.282	-26.378	-0.097	0.058
-404.267	-81.070	0.298	0.100
-403.252	-200.000	0.062	0.000
-402.238	-200.000	0.007	-0.304
-401.223	-31.512	-0.226	-0.128
-400.209	-28.763	0.185	0.107
-399.194	-200.000	0.089	0.470
-398.179	-41.301	-0.032	0.017
-397.165	800.000	0.040	-0.143
-396.150	-75.658	0.239	-0.086
-395.136	-86.864	-0.279	0.086
-394.121	247.282	0.060	-0.103
-393.106	800.000	0.053	-0.161
-392.092	-80.382	0.261	0.088
-391.077	84.518	0.097	0.107
-390.063	-200.000	-0.037	0.286
-389.048	397.105	-0.149	-0.314
-388.033	126.874	-0.130	0.166
-387.019	35.706	-0.154	-0.136
-386.004	-27.558	0.151	-0.088
-384.990	-200.000	-0.010	-0.134
-383.975	36.955	0.269	-0.240
-382.960	51.436	0.297	-0.285
-381.946	529.086	0.129	-0.307
-380.931	17.368	0.114	0.091
-379.917	-108.663	0.044	-0.010
-378.902	33.763	0.160	-0.140
-377.888	-106.420	-0.185	-0.042
-376.873	-60.237	0.228	-0.098
-375.858	-51.393	0.285	0.134
-374.844	193.509	-0.154	0.236
-373.829	-161.980	-0.167	-0.009
-372.815	459.961	0.143	-0.320
-371.800	172.896	-0.060	-0.088
-370.785	-51.378	0.160	0.075
-369.771	-200.000	0.006	0.037
-368.756	-137.780	-0.231	-0.026
-367.742	-200.000	0.033	-0.235
-366.727	800.000	0.094	0.268
-365.712	-200.000	-0.009	-0.280
-364.698	800.000	-0.071	0.262
-363.683	151.504	0.026	-0.036
-362.669	226.568	-0.088	0.145
-361.654	-200.000	-0.006	-0.420
-360.639	-200.000	0.011	-0.058
-359.625	-173.010	-0.102	-0.003
-358.610	185.568	-0.096	-0.143
-357.596	-147.251	-0.292	-0.025
-356.581	-200.000	0.019	-0.396
-355.566	221.575	0.163	0.264
-354.552	-21.460	0.170	-0.104
-353.537	-200.000	-0.012	0.121
-352.523	15.911	0.190	0.151
-351.508	104.624	0.131	-0.156
-350.493	-23.476	-0.175	0.106
-349.479	264.311	0.034	-0.059
-348.464	82.407	0.091	0.099
-347.450	-200.000	0.045	0.243
-346.435	-26.933	-0.131	-0.077
-345.420	-15.110	0.154	0.099
-344.406	-200.000	-0.165	-0.001
-343.391	-144.025	0.108	0.010
-342.377	-105.654	0.103	0.023
-341.362	-91.013	-0.246	0.071
-340.348	-97.772	0.143	0.037
-339.333	-74.930	0.314	0.113
-338.318	111.427	-0.173	-0.210
-337.304	529.970	0.055	0.131
-336.289	-77.780	0.050	0.017
-335.275	252.422	-0.051	-0.087
-334.260	-18.064	0.180	0.114
-333.245	-30.322	-0.072	-0.041
-332.231	-122.699	0.197	0.032
-331.216	135.680	-0.132	-0.173
-330.202	800.000	0.016	-0.052
-329.187	-165.408	0.416	-0.018
-328.172	341.851	-0.224	0.440
-327.158	-200.000	-0.008	0.041
-326.143	106.646	0.229	-0.273
-325.129	80.966	-0.058	-0.063
-324.114	800.000	-0.008	-0.026
-323.099	94.503	-0.142	-0.162
-322.085	417.920	-0.063	0.134
-321.070	155.344	0.203	0.281
-320.056	242.184	-0.069	-0.116
-319.041	-13.937	0.223	-0.145
-318.026	-72.254	0.227	-0.085
-317.012	22.150	-0.087	-0.071
-315.997	800.000	0.081	-0.277
-314.983	687.859	0.077	-0.203
-313.968	-200.000	-0.002	0.169
-312.953	-154.075	0.453	-0.031
-311.939	408.493	0.048	0.101
-310.924	-22.122	0.338	0.206
-309.910	800.000	-0.073	0.207
-308.895	-67.487	0.112	0.044
-307.880	-41.219	-0.175	0.091
-306.866	-200.000	0.075	0.474
-305.851	12.546	0.309	-0.239
-304.837	-53.282	-0.231	-0.106
-303.822	-148.878	-0.326	-0.027
-302.807	-147.155	0.385	0.033
-301.793	-159.740	0.468	0.026
-300.778	64.214	-0.102	0.103
-299.764	-200.000	0.017	0.323
-298.749	-111.221	-0.059	-0.012
-297.735	800.000	0.006	-0.019
-296.720	-200.000	0.063	0.336
-295.705	60.456	-0.050	-0.050
-294.691	33.684	-0.224	-0.196
-293.676	-66.360	-0.273	0.109
-292.662	-123.335	-0.197	-0.032
-291.647	23.867	-0.281	-0.232
-290.632	-106.227	-0.431	-0.097
-289.618	-1.216	-0.089	-0.063
-288.603	-70.871	-0.332	-0.126
-287.589	-200.000	0.003	0.159
-286.574	-200.000	-0.032	-0.190
-285.559	-74.728	-0.258	-0.093
-284.545	-200.000	0.095	-0.433
-283.530	-53.042	0.072	0.033
-282.516	41.123	-0.252	0.228
-281.501	567.715	0.058	-0.143
-280.486	-68.619	0.090	0.035
-279.472	-163.144	-0.137	0.007
-278.457	-16.103	-0.207	0.132
-277.443	226.008	0.141	-0.230
-276.428	391.351	-0.069	0.144
-275.413	800.000	0.033	0.112
-274.399	-75.577	0.097	-0.035
-273.384	-30.279	-0.170	-0.097
-272.370	-157.956	-0.167	0.010
-271.355	503.142	-0.083	0.193
-270.340	446.653	0.031	0.068
-269.326	-200.000	0.002	-0.026
-268.311	-87.598	0.231	0.070
-267.297	-128.800	-0.153	-0.022
-266.282	-61.854	-0.123	0.052
-265.267	29.421	0.328	0.280
-264.253	-10.623	-0.274	-0.182
-263.238	-134.394	-0.346	-0.043
-262.224	800.000	0.065	0.220
-261.209	-113.409	-0.213	-0.042
-260.195	88.530	-0.111	0.124
-259.180	800.000	0.064	0.263
-258.165	-32.821	0.159	-0.088
-257.151	-51.847	0.297	0.138
-256.136	-200.000	0.018	0.100
-255.122	158.288	0.210	-0.293
-254.107	-45.371	-0.190	-0.095
-253.092	305.311	0.124	-0.231
-252.078	-83.448	-0.151	0.049
-251.063	800.000	0.083	0.270
-250.049	93.144	-0.084	-0.095
-249.034	77.671	-0.248	-0.265
-248.019	-35.872	-0.186	0.101
-247.005	-111.924	-0.284	-0.058
-245.990	-69.342	0.476	0.183
-244.976	386.989	-0.138	0.285
-243.961	800.000	0.026	0.074
-242.946	50.994	0.395	0.376
-241.932	-200.000	0.016	-0.135
-240.917	-200.000	-0.014	-0.135
-239.903	-200.000	0.007	0.279
-238.888	-200.000	-0.015	0.183
-237.873	7.318	0.263	-0.197
-236.859	116.266	0.050	-0.061
-235.844	-23.716	0.109	0.065
-234.830	-200.000	0.030	-0.251
-233.815	-200.000	-0.005	-0.072
-232.800	79.294	0.326	-0.350
-231.786	27.689	0.130	0.110
-230.771	20.490	0.094	-0.076
-229.757	17.123	-0.198	0.158
-228.742	135.761	-0.116	0.151
-227.727	60.677	-0.072	-0.072
-226.713	-18.460	0.137	-0.086
-225.698	-68.903	0.281	-0.109
-224.684	10.486	0.231	0.176
-223.669	291.673	-0.041	0.075
-222.655	265.957	0.054	0.094
-221.640	50.866	0.292	0.277
-220.625	-47.972	0.052	0.025
-219.611	-200.000	-0.020	-0.281
-218.596	-131.338	-0.181	-0.024
-217.582	212.555	0.007	-0.011
-216.567	52.447	0.116	0.111
-215.552	800.000	0.120	0.373
-214.538	340.398	0.136	-0.265
-213.523	800.000	-0.089	-0.354
-212.509	-52.864	-0.060	0.028
-211.494	-106.111	0.399	0.090
-210.479	-43.986	0.700	0.352
-209.465	-72.405	0.035	-0.013
-208.450	-122.804	-0.314	-0.051
-207.436	393.850	0.062	0.130
-206.421	800.000	0.125	0.364
-205.406	-200.000	-0.014	-0.161
-204.392	247.286	0.125	0.212
-203.377	55.861	-0.160	-0.155
-202.363	-33.864	-0.240	0.133
-201.348	-63.731	-0.154	-0.063
-200.333	-104.309	-0.543	0.126
-199.319	155.064	-0.091	0.125
-198.304	-56.242	-0.265	-0.118
-197.290	563.487	-0.114	-0.275
-196.275	-25.548	0.151	-0.089
-195.260	301.192	-0.036	-0.067
-194.246	-129.052	-0.285	0.040
-193.231	-200.000	0.018	0.220
-192.217	113.612	-0.211	0.256
-191.202	-200.000	0.054	-0.371
-190.187	-132.379	-0.026	0.003
-189.173	133.740	-0.178	0.231
-188.158	-107.720	0.138	0.030
-187.144	399.559	0.175	0.366
-186.129	800.000	0.066	0.184
-185.114	355.781	0.074	0.148
-184.100	34.544	0.115	0.100
-183.085	-200.000	-0.020	-0.107
-182.071	-75.482	-0.011	-0.004
-181.056	51.917	-0.045	-0.043
-180.042	34.421	0.196	-0.171
-179.027	770.811	0.044	0.120
-178.012	-118.944	-0.412	-0.072
-176.998	-30.358	-0.033	0.019
-175.983	800.000	-0.071	-0.238
-174.969	310.348	0.045	-0.084
-173.954	14.301	0.057	0.044
-172.939	-93.536	-0.403	-0.111
-171.925	208.884	0.035	-0.055
-170.910	-200.000	-0.013	-0.073
-169.896	231.910	0.166	0.273
-168.881	-102.156	-0.071	0.017
-167.866	59.394	0.265	-0.261
-166.852	-107.666	0.339	-0.074
-165.837	48.642	-0.092	0.086
-164.823	17.584	-0.221	0.175
-163.808	-200.000	-0.011	-0.068
-162.793	-149.290	0.407	-0.032
-161.779	66.030	0.258	-0.262
-160.764	-19.724	-0.200	0.124
-159.750	280.123	0.027	0.048
-158.735	99.913	-0.147	0.170
-157.720	327.336	-0.052	0.099
-156.706	-180.483	0.220	0.005
-155.691	-68.966	-0.173	0.067
-154.677	530.824	-0.051	0.121
-153.662	800.000	-0.036	-0.121
-152.647	-200.000	-0.039	0.333
-151.633	48.416	0.229	-0.215
-150.618	499.384	-0.051	-0.119
-149.604	800.000	-0.029	0.095
-148.589	-200.000	-0.010	-0.223
-147.574	140.538	0.086	0.114
-146.560	-22.703	-0.251	0.152
-145.545	-200.000	-0.013	0.103
-144.531	-37.093	-0.070	-0.038
-143.516	-200.000	0.007	-0.046
-142.502	-200.000	0.001	0.087
-141.487	-200.000	-0.005	0.266
-140.472	-30.961	-0.128	0.072
-139.458	203.711	-0.077	0.118
-138.443	-137.745	0.332	-0.037
-137.429	-200.000	-0.019	0.221
-136.414	-12.408	0.278	0.181
-135.399	-125.228	-0.088	0.013
-134.385	-52.764	-0.244	-0.112
-133.370	299.679	0.223	0.410
-132.356	71.556	0.269	0.279
-131.341	229.659	0.051	-0.084
-130.326	10.270	0.097	-0.074
-129.312	-63.816	0.285	-0.116
-128.297	800.000	-0.064	-0.178
-127.283	-135.258	-0.270	-0.032
-126.268	-80.265	-0.124	0.041
-125.253	-200.000	0.002	-0.380
-124.239	800.000	0.033	-0.140
-123.224	22.926	-0.090	-0.073
-122.210	800.000	0.030	0.125
-121.195	-106.082	-0.149	0.033
-120.180	570.366	0.089	0.215
-119.166	43.219	-0.127	-0.115
-118.151	800.000	0.025	0.102
-117.137	800.000	-0.082	-0.312
-116.122	-57.356	0.140	-0.061
-115.107	72.417	0.125	-0.130
-114.093	-103.361	0.280	0.066
-113.078	-87.484	0.217	-0.065
-112.064	-200.000	0.015	0.086
-111.049	-200.000	-0.060	0.453
-110.034	-134.396	0.117	0.014
-109.020	181.482	-0.091	-0.133
-108.005	-200.000	-0.004	-0.064
-106.991	-67.824	0.328	0.128
-105.976	-88.230	-0.126	-0.038
-104.962	64.717	0.280	0.282
-103.947	45.581	0.150	0.138
-102.932	800.000	0.074	0.234
-101.918	7.208	-0.096	-0.071
-100.903	634.573	0.096	0.242
-99.889	800.000	0.034	0.125
-98.874	800.000	0.029	0.119
-97.859	-99.140	-0.306	0.077
-96.845	9.110	-0.414	0.312
-95.830	40.662	-0.157	-0.141
-94.816	404.256	-0.166	-0.349
-93.801	42.565	-0.170	0.154
-92.786	73.348	0.078	0.081
-91.772	-95.998	0.215	-0.057
-90.757	-136.498	0.071	0.008
-89.743	64.926	-0.153	-0.154
-88.728	582.019	-0.067	-0.165
-87.713	-72.727	0.167	-0.061
-86.699	800.000	0.050	-0.183
-85.684	-1.776	0.319	0.224
-84.670	-200.000	0.017	-0.139
-83.655	-22.393	-0.130	-0.079
-82.640	-200.000	0.028	-0.158
-81.626	60.856	0.052	-0.051
-80.611	310.661	0.174	-0.326
-79.597	-17.272	-0.042	-0.027
-78.582	-161.642	-0.307	-0.016
-77.567	138.918	0.165	0.216
-76.553	-200.000	-0.021	0.314
-75.538	484.769	0.177	0.402
-74.524	-70.517	0.197	0.074
-73.509	-104.946	0.361	0.083
-72.494	-123.941	-0.041	-0.006
-71.480	-147.152	-0.113	0.010
-70.465	-200.000	-0.035	0.165
-69.451	149.653	-0.166	0.224
-68.436	-63.131	-0.214	0.088
-67.422	-200.000	0.059	0.266
-66.407	108.971	-0.223	0.266
-65.392	154.406	-0.036	0.049
-64.378	-200.000	0.024	0.348
-63.363	421.718	-0.195	0.417
-62.349	-200.000	-0.015	-0.170
-61.334	136.063	-0.565	-0.733
-60.319	253.658	-0.158	0.269
-59.305	-200.000	0.058	-0.748
-58.290	800.000	0.198	0.803
-57.276	800.000	0.448	1.858
-56.261	-200.000	78.230	515.208
-55.246	523.518	1313.528	3073.393
-54.232	151.148	2534.819	3433.257
-53.217	114.547	2221.483	2694.233
-52.203	51.331	1679.288	1587.108
-51.188	43.841	1409.459	1284.765
-50.173	40.516	1364.500	1223.266
-49.159	58.708	1401.458	1370.168
-48.144	64.585	1420.893	1425.731
-47.130	44.296	1382.365	1262.696
-46.115	40.373	1365.578	1223.157
-45.100	40.330	1360.630	1218.411
-44.086	40.161	1358.347	1215.279
-43.071	40.120	1356.151	1213.014
-42.057	40.149	1353.976	1211.199
-41.042	40.230	1352.063	1209.932
-40.027	40.161	1350.626	1208.180
-39.013	40.147	1348.925	1206.526
-37.998	40.196	1346.873	1204.941
-36.984	40.222	1345.391	1203.724
-35.969	40.272	1343.479	1202.272
-34.954	40.339	1341.259	1200.644
-33.940	40.375	1339.888	1199.587
-32.925	40.377	1338.907	1198.671
-31.911	40.383	1337.024	1196.973
-30.896	40.477	1335.900	1196.488
-29.881	40.415	1334.472	1194.786
-28.867	40.454	1332.702	1193.389
-27.852	40.394	1331.532	1191.933
-26.838	40.466	1329.995	1190.941
-25.823	40.368	1328.506	1188.974
-24.809	40.444	1327.347	1188.344
-23.794	40.473	1325.346	1186.680
-22.779	40.482	1324.090	1185.564
-21.765	40.453	1323.061	1184.422
-20.750	40.457	1321.261	1182.784
-19.736	40.297	1319.927	1180.593
-18.721	40.267	1319.093	1179.618
-17.706	40.179	1318.426	1178.454
-16.692	40.279	1316.835	1177.581
-15.677	40.236	1316.025	1176.551
-14.663	40.209	1314.714	1175.174
-13.648	40.340	1313.463	1174.788
-12.633	40.271	1312.472	1173.442
-11.619	40.182	1311.896	1172.354
-10.604	40.307	1310.709	1171.984
-9.590	40.234	1310.190	1171.047
-8.575	40.247	1308.979	1169.991
-7.560	40.252	1308.110	1169.199
-6.546	40.187	1307.349	1168.089
-5.531	40.179	1306.539	1167.274
-4.517	40.244	1305.467	1166.649
-3.502	40.198	1304.579	1165.538
-2.487	40.315	1303.139	1164.892
-1.473	40.387	1298.700	1161.302
-0.458	38.644	1282.982	1137.099
0.556	32.456	1262.400	1089.368
1.571	27.852	1265.608	1065.250
2.586	26.315	1280.587	1068.684
3.600	25.365	1271.562	1055.475
4.615	22.771	1203.001	984.035
5.629	17.936	1130.003	898.854
6.644	15.261	1108.852	868.114
7.659	15.115	1106.151	865.172
8.673	14.919	1104.968	863.157
9.688	14.966	1103.464	862.148
10.702	15.307	1102.253	862.882
11.717	18.257	1105.709	880.714
12.731	21.251	1109.575	899.153
13.746	20.005	1106.486	890.170
14.761	17.792	1102.814	875.789
15.775	16.591	1099.959	867.293
16.790	15.348	1098.763	859.902
17.804	14.605	1096.557	854.298
18.819	14.258	1095.340	851.497
19.834	13.913	1094.065	848.672
20.848	13.537	1093.339	846.113
21.863	13.352	1092.311	844.295
22.877	13.311	1091.614	843.472
23.892	13.117	1091.286	842.158
24.907	13.231	1090.248	841.864
25.921	13.317	1089.136	841.368
26.936	13.241	1087.570	839.696
27.950	13.315	1086.292	839.010
28.965	13.394	1085.030	838.363
29.980	13.465	1083.472	837.443
30.994	13.457	1081.897	836.109
32.009	13.500	1080.977	835.545
33.023	13.405	1079.890	834.149
34.038	13.526	1078.345	833.494
35.053	13.233	1078.069	831.729
36.067	13.328	1077.086	831.378
37.082	13.385	1076.228	830.926
38.096	13.401	1075.532	830.397
39.111	13.399	1075.019	829.915
40.126	13.393	1073.618	828.733
41.140	13.241	1072.120	826.742
42.155	13.182	1071.010	825.517
43.169	13.151	1070.189	824.657
44.184	13.123	1069.031	823.553
45.199	13.118	1068.391	822.961
46.213	13.208	1066.993	822.259
47.228	13.367	1065.241	821.629
48.242	13.295	1064.706	820.784
49.257	13.195	1063.943	819.626
50.271	13.273	1063.160	819.340
51.286	13.211	1062.162	818.188
52.301	13.283	1060.752	817.386
53.315	13.401	1059.787	817.157
54.330	13.255	1058.345	815.252
55.344	13.218	1057.580	814.407
56.359	13.261	1056.751	813.910
57.374	13.329	1055.709	813.367
58.388	13.155	1055.126	811.990
59.403	13.170	1054.074	811.181
60.417	13.245	1053.545	811.074
61.432	13.345	1052.405	810.611
62.447	13.110	1051.947	809.037
63.461	13.049	1051.160	808.061
64.476	12.993	1050.089	806.895
65.490	13.084	1049.063	806.476
66.505	13.108	1048.410	806.022
67.520	13.184	1047.561	805.670
68.534	13.198	1046.529	804.870
69.549	13.259	1046.150	804.808
70.563	13.141	1045.269	803.481
71.578	13.156	1044.499	802.891
72.593	12.994	1043.986	801.643
73.607	12.901	1043.458	800.711
74.622	13.082	1042.509	800.794
75.636	13.196	1041.523	800.514
76.651	13.029	1040.942	799.190
77.666	13.150	1040.195	799.129
78.680	12.997	1039.852	798.057
79.695	13.056	1039.277	797.829
80.709	13.169	1037.927	797.270
81.724	13.216	1037.469	797.073
82.739	13.192	1037.155	796.646
83.753	13.435	1036.050	796.897
84.768	13.356	1035.356	795.911
85.782	13.370	1034.510	795.256
86.797	13.397	1033.478	794.526
87.812	13.401	1032.216	793.501
88.826	13.340	1031.474	792.570
89.841	13.410	1030.276	791.914
90.855	13.260	1030.106	790.997
91.870	13.333	1029.141	790.534
92.884	13.398	1028.036	789.925
93.899	13.475	1026.524	789.062
94.914	13.586	1025.743	788.920
95.928	13.571	1025.204	788.363
96.943	13.439	1024.131	786.842
97.957	13.368	1023.810	786.188
98.972	13.510	1022.305	785.638
99.987	13.449	1021.829	784.909
101.001	13.352	1020.902	783.673
102.016	13.394	1019.954	783.070
103.030	13.375	1019.371	782.465
104.045	13.563	1018.188	782.378
105.060	13.286	1017.599	780.545
106.074	13.320	1016.386	779.709
107.089	13.292	1015.673	778.961
108.103	13.143	1014.560	777.336
109.118	13.223	1013.636	776.938
110.133	13.180	1012.970	776.154
111.147	13.068	1012.115	774.905
112.162	13.211	1011.170	774.781
113.176	13.256	1010.473	774.389
114.191	13.317	1009.860	774.140
115.206	13.405	1008.728	773.613
116.220	13.344	1007.645	772.432
117.235	13.294	1007.008	771.640
118.249	13.205	1006.489	770.759
119.264	13.274	1005.446	770.213
120.279	13.385	1004.031	769.575
121.293	13.280	1003.737	768.798
122.308	13.243	1002.875	767.898
123.322	13.100	1002.246	766.682
124.337	13.235	1001.159	766.409
125.352	13.171	1000.148	765.269
126.366	13.312	998.758	764.791
127.381	13.397	997.781	764.370
128.395	13.156	997.145	762.702
129.410	13.228	996.440	762.427
130.424	13.392	995.383	762.307
131.439	13.256	994.546	760.973
132.454	13.552	993.260	761.282
133.468	13.416	993.079	760.450
134.483	13.445	992.196	759.839
135.497	13.458	991.071	758.969
136.512	13.539	989.997	758.453
137.527	13.521	989.466	757.898
138.541	13.454	988.789	757.002
139.556	13.415	988.105	756.232
140.570	13.503	987.226	755.898
141.585	13.591	986.333	755.547
142.600	13.555	985.686	754.823
143.614	13.558	984.980	754.227
144.629	13.637	984.463	754.122
145.643	13.616	983.255	753.038
146.658	13.498	982.572	751.912
147.673	13.541	980.962	750.809
148.687	13.581	980.402	750.494
149.702	13.433	979.283	748.902
150.716	13.420	978.931	748.507
151.731	13.462	977.792	747.760
152.746	13.514	977.536	747.733
153.760	13.510	976.604	746.933
154.775	13.554	975.772	746.431
155.789	13.545	975.546	746.152
156.804	13.634	974.573	745.741
157.819	13.705	973.842	745.437
158.833	13.695	973.632	745.165
159.848	13.624	972.599	743.987
160.862	13.564	971.724	742.985
161.877	13.593	970.211	741.891
162.892	13.482	969.659	740.907
163.906	13.633	968.333	740.505
164.921	13.615	967.637	739.827
165.935	13.578	966.927	739.052
166.950	13.710	965.389	738.401
167.964	13.581	964.923	737.403
168.979	13.625	964.145	736.938
169.994	13.492	963.735	735.968
171.008	13.542	962.729	735.356
172.023	13.599	962.141	735.097
173.037	13.679	961.351	734.781
174.052	13.771	960.206	734.249
175.067	13.626	959.858	733.276
176.081	13.491	959.546	732.375
177.096	13.688	958.786	732.602
178.110	13.665	957.862	731.730
179.125	13.583	957.635	731.131
180.140	13.813	956.982	731.580
181.154	13.742	956.533	730.859
182.169	13.877	955.701	730.755
183.183	13.845	955.490	730.387
184.198	13.898	954.343	729.677
185.213	13.838	954.055	729.131
186.227	13.949	952.821	728.610
187.242	13.884	952.301	727.861
188.256	14.011	951.764	727.945
189.271	13.897	950.992	726.789
190.286	13.860	950.069	725.858
191.300	13.745	949.356	724.748
192.315	13.775	948.808	724.395
193.329	13.773	948.544	724.121
194.344	13.748	947.732	723.329
195.359	13.817	946.867	722.906
196.373	13.946	946.324	722.989
197.388	13.931	946.238	722.791
198.402	13.969	945.445	722.289
199.417	14.045	944.954	722.178
200.432	14.012	944.391	721.544
201.446	14.227	943.678	721.867
202.461	14.269	943.101	721.545
203.475	14.175	942.589	720.678
204.490	14.104	941.942	719.816
205.504	14.153	941.350	719.510
206.519	14.129	940.044	718.343
207.534	14.030	939.835	717.696
208.548	14.036	939.210	717.177
209.563	14.092	938.548	716.849
210.577	14.255	937.324	716.555
211.592	14.186	936.793	715.791
212.607	14.206	935.905	715.132
213.621	14.278	935.075	714.743
214.636	14.273	934.746	714.407
215.650	14.256	933.931	713.649
216.665	14.206	933.346	712.927
217.680	14.410	932.650	713.204
218.694	14.366	931.904	712.383
219.709	14.430	931.149	712.017
220.723	14.403	930.588	711.409
221.738	14.456	929.681	710.879
222.753	14.453	929.222	710.450
223.767	14.394	929.016	709.980
224.782	14.508	927.971	709.603
225.796	14.605	927.613	709.678
226.811	14.579	926.769	708.862
227.826	14.520	925.907	707.887
228.840	14.343	925.295	706.607
229.855	14.565	924.121	706.589
230.869	14.563	923.513	706.052
231.884	14.410	922.931	704.899
232.899	14.369	922.269	704.158
233.913	14.461	921.742	704.080
234.928	14.483	921.008	703.548
235.942	14.406	920.364	702.671
236.957	14.433	919.589	702.133
237.972	14.562	919.269	702.366
238.986	14.483	918.599	701.462
240.001	14.457	918.199	700.984
241.015	14.503	917.203	700.357
242.030	14.626	916.261	700.089
243.045	14.530	916.380	699.714
244.059	14.529	915.625	699.072
245.074	14.669	914.811	698.978
246.088	14.676	914.346	698.589
247.103	14.730	913.582	698.168
248.117	14.736	913.312	697.926
249.132	14.664	912.699	697.094
250.147	14.935	911.863	697.525
251.161	14.948	910.991	696.849
252.176	15.037	910.592	696.856
253.190	14.992	909.728	695.945
254.205	14.960	909.511	695.583
255.220	15.032	908.484	695.035
256.234	15.096	907.868	694.768
257.249	14.978	907.320	693.799
258.263	14.971	906.632	693.183
259.278	14.985	905.661	692.435
260.293	15.134	905.187	692.627
261.307	15.107	904.826	692.181
262.322	15.223	903.966	691.937
263.336	15.140	903.211	690.958
264.351	15.156	902.498	690.418
265.366	15.197	901.739	689.944
266.380	15.254	901.213	689.716
267.395	15.110	900.775	688.726
268.409	15.202	899.720	688.235
269.424	15.201	898.832	687.494
270.439	15.309	897.566	686.908
271.453	15.160	897.765	686.385
272.468	15.147	897.153	685.807
273.482	15.078	896.493	684.958
274.497	15.165	895.692	684.640
275.512	15.190	895.148	684.267
276.526	15.207	894.871	684.065
277.541	15.194	894.393	683.584
278.555	15.327	893.454	683.349
279.570	15.391	893.017	683.213
280.585	15.326	892.182	682.251
281.599	15.327	891.170	681.419
282.614	15.354	890.722	681.126
283.628	15.403	890.127	680.810
284.643	15.413	889.548	680.348
285.657	15.468	888.539	679.740
286.672	15.403	888.070	679.056
287.687	15.459	887.359	678.681
288.701	15.478	886.707	678.197
289.716	15.573	886.125	678.077
290.730	15.331	886.113	677.031
291.745	15.573	885.300	677.323
292.760	15.486	884.701	676.458
293.774	15.655	884.152	676.658
294.789	15.472	883.585	675.425
295.803	15.609	882.280	674.920
296.818	15.576	881.710	674.294
297.833	15.597	881.191	673.919
298.847	15.379	880.659	672.580
299.862	15.601	880.426	673.230
300.876	15.650	879.535	672.685
301.891	15.716	879.028	672.502
302.906	15.600	878.297	671.421
303.920	15.799	877.556	671.590
304.935	15.833	877.113	671.325
305.949	15.825	876.457	670.732
306.964	15.891	875.677	670.339
307.979	15.840	875.364	669.837
308.993	15.827	874.544	669.097
310.008	15.828	873.962	668.598
311.022	15.759	873.744	668.098
312.037	15.867	872.641	667.626
313.052	15.847	872.408	667.307
314.066	15.756	871.740	666.376
315.081	15.750	871.304	665.962
316.095	15.713	870.887	665.438
317.110	15.896	869.705	665.197
318.125	15.741	869.400	664.292
319.139	15.838	868.943	664.269
320.154	15.897	868.471	664.083
321.168	15.866	867.921	663.482
322.183	15.971	867.302	663.362
323.197	15.915	866.787	662.690
324.212	15.867	866.330	662.092
325.227	16.081	865.492	662.236
326.241	15.735	865.434	660.771
327.256	15.966	864.348	660.790
328.270	15.828	863.899	659.847
329.285	16.003	863.215	659.951
330.300	15.896	862.646	659.040
331.314	16.009	862.182	659.067
332.329	15.992	861.813	658.664
333.343	15.948	860.981	657.798
334.358	16.139	860.762	658.316
335.373	16.017	860.487	657.573
336.387	16.223	860.251	658.138
337.402	16.158	860.162	657.758
338.416	16.154	859.630	657.275
339.431	16.077	859.261	656.636
340.446	16.236	858.728	656.788
341.460	16.201	858.408	656.351
342.475	16.211	858.016	656.030
343.489	16.304	857.355	655.829
344.504	16.363	857.117	655.819
345.519	16.292	856.650	655.127
346.533	16.418	855.787	654.899
347.548	16.299	855.247	653.967
348.562	16.345	854.512	653.525
349.577	16.279	853.977	652.803
350.592	16.258	853.477	652.282
351.606	16.270	852.841	651.784
352.621	16.357	852.147	651.532
353.635	16.417	851.230	651.005
354.650	16.436	850.376	650.367
355.665	16.396	850.088	649.936
356.679	16.440	849.542	649.630
357.694	16.437	848.881	649.055
358.708	16.444	848.575	648.789
359.723	16.369	847.922	647.944
360.738	16.490	847.139	647.752
361.752	16.426	846.878	647.252
362.767	16.503	845.852	646.705
363.781	16.548	845.599	646.627
364.796	16.690	845.098	646.729
365.810	16.681	844.742	646.364
366.825	16.736	844.332	646.201
367.840	16.806	843.311	645.629
368.854	16.598	843.107	644.624
369.869	16.882	842.512	645.195
370.883	16.636	842.305	644.044
371.898	16.791	841.621	644.051
372.913	16.811	841.532	644.002
373.927	16.700	841.218	643.283
374.942	16.765	840.489	642.915
375.956	16.843	840.148	642.893
376.971	16.815	839.788	642.454
377.986	17.002	839.587	642.954
379.000	16.869	838.703	641.715
380.015	16.995	838.068	641.652
381.029	16.975	837.926	641.410
382.044	16.955	837.227	640.742
383.059	17.071	836.207	640.341
384.073	17.053	835.799	639.904
385.088	17.017	835.036	639.130
386.102	16.999	834.769	638.799
387.117	16.995	833.926	638.086
388.132	17.062	833.167	637.700
389.146	16.926	832.959	636.971
390.161	16.961	832.400	636.620
391.175	17.172	831.730	636.841
392.190	17.133	831.188	636.225
393.205	17.033	831.081	635.712
394.219	17.076	830.562	635.420
395.234	17.069	830.434	635.240
396.248	16.974	829.970	634.470
397.263	17.150	828.959	634.300
398.278	17.054	828.778	633.748
399.292	17.073	828.603	633.630
400.307	17.082	828.087	633.210
401.321	17.113	827.400	632.744
402.336	17.111	826.837	632.251
403.350	17.173	826.472	632.149
404.365	17.164	826.078	631.756
405.380	17.260	825.332	631.486
406.394	17.362	824.810	631.411
407.409	17.327	824.617	631.077
408.423	17.349	824.534	631.041
409.438	17.350	824.095	630.651
410.453	17.391	823.965	630.649
411.467	17.351	823.169	629.833
412.482	17.454	822.616	629.736
413.496	17.477	822.530	629.700
414.511	17.480	821.797	629.093
415.526	17.454	821.596	628.787
416.540	17.535	821.064	628.624
417.555	17.547	820.425	628.126
418.569	17.551	820.014	627.771
419.584	17.498	819.654	627.244
420.599	17.494	819.155	626.790
421.613	93.514	1270.783	1385.218
422.628	80.370	1336.598	1385.341
