DTS Sentinel unit serial number:	SN413079Multiplexer serial number:	ORYXHardware model number:	OX4-SRSoftware version number:	ORYX F/W v4.00 Oryx Data Collector v3.7.2.0data status	okinstallation	princeton_trtdifferential loss correction	single-endedforward channel	channel 1reverse channel	N/Adate	2019/09/16time	20:34:35forward acquisition time	60.00reverse acquisition time	0.00gamma	496.2192k internal	0.2323k external	0.2323temperature offset calibration	0.9952default loss term (dB/km)	0.3790temperature slope calibration	1.0000multiplexer offset coefficient	1.0000multiplexer slope coefficient	1.0000fibre end	0.00T internal ref (°C)	32.56T ext. ref 1 (°C)	0.02T ext. ref 2 (°C)	26.47length (m)	temperature (°C)	Stokes	anti-Stokes-747.200	800.000	0.098	0.308
-746.185	9.372	0.298	0.228
-745.171	194.917	0.234	-0.358
-744.156	-22.202	-0.152	0.093
-743.142	-200.000	-0.036	0.298
-742.127	150.189	-0.075	0.103
-741.112	-200.000	0.005	-0.060
-740.098	800.000	0.066	0.232
-739.083	-153.776	-0.340	-0.024
-738.069	-2.390	-0.245	-0.173
-737.054	-115.839	0.150	0.028
-736.039	56.042	-0.135	-0.132
-735.025	800.000	-0.086	0.266
-734.010	413.853	0.040	-0.087
-732.996	800.000	-0.045	0.158
-731.981	320.989	0.143	0.275
-730.966	-65.955	0.026	0.010
-729.952	506.764	-0.209	0.490
-728.937	96.859	0.143	0.166
-727.923	168.881	-0.082	-0.119
-726.908	444.140	0.031	-0.068
-725.894	32.367	0.130	0.113
-724.879	290.280	-0.142	-0.260
-723.864	800.000	0.042	0.122
-722.850	-200.000	0.022	-0.144
-721.835	-107.498	-0.410	-0.091
-720.821	-200.000	0.007	-0.130
-719.806	233.059	0.142	-0.235
-718.791	-200.000	-0.021	-0.257
-717.777	-34.655	-0.357	-0.197
-716.762	-200.000	0.020	-0.257
-715.748	103.481	-0.121	-0.143
-714.733	-86.903	-0.049	0.015
-713.718	-95.443	-0.277	-0.075
-712.704	-200.000	0.011	0.093
-711.689	800.000	-0.032	0.116
-710.675	146.078	-0.098	-0.133
-709.660	4.474	0.120	-0.089
-708.645	-70.489	0.076	0.029
-707.631	208.405	-0.279	-0.441
-706.616	-159.988	-0.355	-0.020
-705.602	800.000	-0.045	-0.144
-704.587	162.921	0.094	0.134
-703.572	111.510	-0.190	-0.231
-702.558	-156.856	-0.289	0.018
-701.543	-60.906	-0.311	-0.132
-700.529	-165.778	-0.491	-0.021
-699.514	127.402	0.101	-0.129
-698.499	229.324	-0.126	-0.208
-697.485	-66.764	-0.121	-0.048
-696.470	13.402	0.096	-0.075
-695.456	-77.451	0.049	-0.017
-694.441	-54.578	-0.294	0.134
-693.426	-200.000	-0.009	0.135
-692.412	228.476	0.088	-0.145
-691.397	152.737	0.052	0.072
-690.383	-200.000	0.017	-0.110
-689.368	412.699	0.055	-0.117
-688.354	137.993	0.069	-0.091
-687.339	10.145	0.167	-0.128
-686.324	54.116	0.283	-0.274
-685.310	-83.343	0.150	-0.049
-684.295	90.729	0.118	0.133
-683.281	-65.875	-0.237	-0.095
-682.266	-98.399	-0.025	-0.006
-681.251	-103.665	-0.422	-0.100
-680.237	12.214	-0.154	-0.120
-679.222	-200.000	0.034	-0.277
-678.208	-189.151	0.167	0.002
-677.193	5.673	-0.257	0.191
-676.178	-4.265	-0.318	0.222
-675.164	-63.105	0.189	-0.078
-674.149	738.422	-0.079	0.213
-673.135	274.850	-0.111	-0.198
-672.120	-90.663	-0.034	-0.010
-671.105	179.819	0.151	0.223
-670.091	-200.000	-0.024	0.155
-669.076	253.067	-0.099	0.171
-668.062	-49.931	0.228	0.109
-667.047	-200.000	0.015	-0.239
-666.032	277.693	0.127	0.227
-665.018	-60.458	0.238	-0.102
-664.003	-68.358	-0.367	-0.143
-662.989	-23.342	-0.233	-0.141
-661.974	43.775	0.179	-0.165
-660.959	545.338	0.007	0.016
-659.945	-23.694	-0.156	0.094
-658.930	-189.956	0.230	0.003
-657.916	-71.349	0.098	-0.037
-656.901	7.501	0.262	0.197
-655.886	199.230	-0.123	-0.190
-654.872	704.951	-0.048	0.127
-653.857	-30.757	0.139	-0.079
-652.843	-83.040	-0.234	0.076
-651.828	-200.000	-0.012	0.124
-650.814	-43.538	-0.352	-0.179
-649.799	306.247	-0.140	-0.263
-648.784	-90.047	-0.223	-0.065
-647.770	271.982	-0.110	-0.194
-646.755	-200.000	0.009	-0.439
-645.741	-49.760	-0.297	-0.142
-644.726	34.278	-0.099	-0.087
-643.711	-46.371	-0.252	0.124
-642.697	2.278	-0.142	-0.103
-641.682	-79.468	0.196	-0.066
-640.668	-74.024	-0.064	-0.023
-639.653	254.205	0.062	0.106
-638.638	-200.000	-0.036	-0.227
-637.624	74.757	0.051	-0.054
-636.609	15.240	0.182	0.144
-635.595	-111.485	-0.209	0.043
-634.580	-37.633	-0.289	-0.155
-633.565	-64.533	-0.108	0.044
-632.551	-109.024	-0.293	-0.063
-631.536	-109.853	-0.192	-0.040
-630.522	-58.105	0.065	-0.029
-629.507	225.259	0.066	-0.107
-628.492	-69.772	0.342	0.131
-627.478	57.677	-0.270	-0.265
-626.463	-85.960	-0.226	0.070
-625.449	81.637	0.026	0.028
-624.434	800.000	0.072	-0.291
-623.419	-200.000	-0.002	0.138
-622.405	-200.000	0.002	0.045
-621.390	174.289	-0.016	-0.023
-620.376	212.230	-0.174	0.276
-619.361	2.130	0.179	-0.130
-618.346	-167.975	0.285	-0.011
-617.332	111.743	0.205	0.248
-616.317	-75.629	-0.458	-0.163
-615.303	243.868	0.135	0.228
-614.288	-91.463	0.506	-0.145
-613.273	76.189	0.012	0.013
-612.259	580.186	0.067	0.166
-611.244	-36.241	0.249	0.135
-610.230	-200.000	0.029	-0.145
-609.215	-93.486	-0.328	-0.091
-608.201	-180.171	0.017	-0.000
-607.186	615.442	0.056	0.141
-606.171	235.888	0.116	0.192
-605.157	-96.085	0.164	-0.044
-604.142	29.334	-0.111	0.094
-603.128	-95.431	0.143	-0.039
-602.113	163.493	-0.122	0.173
-601.098	-47.411	-0.261	0.127
-600.084	-180.650	-0.429	-0.009
-599.069	34.019	-0.180	-0.158
-598.055	792.161	-0.060	-0.167
-597.040	-162.875	0.150	0.007
-596.025	158.229	0.214	0.298
-595.011	-200.000	0.027	-0.139
-593.996	12.997	0.230	-0.179
-592.982	224.764	0.053	-0.086
-591.967	-44.294	0.483	0.243
-590.952	-176.032	-0.271	-0.007
-589.938	-39.670	0.340	-0.179
-588.923	-66.510	-0.145	-0.058
-587.909	800.000	0.056	0.208
-586.894	298.940	0.146	0.270
-585.879	-43.721	0.155	-0.078
-584.865	-200.000	-0.015	-0.357
-583.850	303.078	-0.227	0.422
-582.836	-139.715	0.257	0.027
-581.821	-99.859	-0.207	-0.052
-580.806	-43.608	-0.272	-0.138
-579.792	28.276	-0.096	0.081
-578.777	-6.631	-0.124	-0.085
-577.763	68.937	-0.198	0.204
-576.748	211.297	-0.257	0.406
-575.733	17.985	0.216	-0.173
-574.719	3.572	-0.105	0.077
-573.704	-200.000	-0.047	0.287
-572.690	-200.000	0.073	-0.363
-571.675	-19.145	-0.138	-0.086
-570.661	304.500	0.082	-0.152
-569.646	301.477	-0.072	-0.134
-568.631	35.410	0.157	-0.138
-567.617	268.657	-0.022	0.038
-566.602	-198.767	-0.120	0.001
-565.588	202.966	-0.049	0.075
-564.573	-34.985	0.454	-0.248
-563.558	-143.609	-0.534	-0.051
-562.544	-28.766	0.113	0.065
-561.529	362.310	-0.083	-0.167
-560.515	-200.000	0.017	0.298
-559.500	184.185	-0.074	-0.110
-558.485	-200.000	-0.002	-0.102
-557.471	164.029	-0.123	0.173
-556.456	292.637	-0.058	-0.107
-555.442	-99.579	-0.289	-0.073
-554.427	-168.159	-0.292	0.011
-553.412	-145.236	0.336	-0.031
-552.398	-4.675	0.168	-0.116
-551.383	-19.468	0.115	-0.071
-550.369	-6.149	0.132	-0.091
-549.354	220.999	0.022	-0.036
-548.339	732.969	-0.112	-0.299
-547.325	-141.380	-0.398	-0.040
-546.310	-104.347	0.268	0.062
-545.296	-200.000	-0.042	0.222
-544.281	-63.649	0.070	-0.029
-543.266	-137.833	-0.148	-0.017
-542.252	-117.937	0.318	0.057
-541.237	61.201	0.233	-0.231
-540.223	99.656	0.157	0.183
-539.208	-57.684	-0.168	-0.074
-538.193	199.872	0.131	-0.202
-537.179	236.719	-0.233	-0.387
-536.164	117.679	0.271	-0.334
-535.150	477.228	-0.114	-0.258
-534.135	800.000	0.037	-0.148
-533.121	-104.130	0.199	-0.046
-532.106	144.951	0.053	0.071
-531.091	27.592	0.171	0.144
-530.077	46.817	-0.231	0.215
-529.062	7.840	0.077	0.057
-528.048	-66.680	-0.179	0.071
-527.033	800.000	-0.063	0.186
-526.018	699.531	0.063	-0.167
-525.004	291.383	-0.141	-0.257
-523.989	0.696	0.209	-0.150
-522.975	-120.889	0.312	-0.053
-521.960	82.093	-0.181	-0.197
-520.945	257.705	0.134	-0.231
-519.931	-0.282	0.132	0.094
-518.916	-72.864	0.444	0.164
-517.902	627.730	-0.120	-0.304
-516.887	29.220	0.017	0.015
-515.872	28.450	-0.279	-0.236
-514.858	-161.491	-0.301	0.016
-513.843	-120.573	-0.252	0.043
-512.829	-200.000	0.042	-0.268
-511.814	800.000	0.067	-0.288
-510.799	-200.000	0.010	0.211
-509.785	100.082	0.227	0.263
-508.770	-105.217	-0.278	0.063
-507.756	259.877	-0.030	-0.052
-506.741	-37.490	-0.128	0.068
-505.726	800.000	-0.040	0.117
-504.712	800.000	0.012	0.047
-503.697	85.731	-0.198	-0.218
-502.683	800.000	0.112	-0.352
-501.668	-43.542	0.225	-0.114
-500.653	-154.081	-0.423	-0.029
-499.639	-130.320	-0.245	0.033
-498.624	475.719	-0.074	-0.167
-497.610	-175.249	-0.019	-0.001
-496.595	-77.806	-0.393	0.136
-495.581	-200.000	0.009	-0.051
-494.566	-158.648	-0.265	-0.015
-493.551	-31.418	-0.241	0.135
-492.537	109.574	-0.172	0.206
-491.522	-67.404	0.395	-0.155
-490.508	347.230	-0.044	-0.087
-489.493	-118.703	-0.183	0.032
-488.478	-115.498	0.165	0.031
-487.464	-58.774	0.141	-0.061
-486.449	55.089	-0.028	-0.027
-485.435	26.732	-0.144	-0.121
-484.420	-106.918	0.388	-0.086
-483.405	201.711	0.254	-0.392
-482.391	290.479	-0.070	-0.128
-481.376	-200.000	0.015	-0.087
-480.362	-200.000	0.036	-0.158
-479.347	-200.000	-0.034	0.445
-478.332	297.036	0.105	0.193
-477.318	-84.700	-0.141	-0.044
-476.303	-44.269	0.239	0.120
-475.289	334.354	0.062	0.119
-474.274	-200.000	-0.009	0.270
-473.259	-114.939	-0.243	0.046
-472.245	-136.424	0.155	0.018
-471.230	47.559	0.043	0.040
-470.216	-49.622	0.367	-0.174
-469.201	111.363	0.245	0.295
-468.186	207.079	-0.238	-0.371
-467.172	-128.872	-0.035	-0.005
-466.157	-10.276	-0.255	0.169
-465.143	39.890	-0.121	-0.109
-464.128	800.000	-0.032	0.128
-463.113	-161.562	0.248	0.013
-462.099	-28.023	0.191	0.111
-461.084	44.616	0.406	-0.373
-460.070	-200.000	-0.079	-0.497
-459.055	7.513	0.113	-0.084
-458.040	196.988	-0.079	-0.121
-457.026	388.942	-0.086	-0.177
-456.011	4.903	0.253	-0.186
-454.997	798.315	0.089	0.244
-453.982	84.519	-0.122	0.133
-452.968	185.233	0.163	-0.241
-451.953	800.000	-0.033	-0.125
-450.938	800.000	-0.060	-0.253
-449.924	-152.082	-0.320	-0.023
-448.909	189.504	0.102	-0.152
-447.895	534.863	0.087	-0.206
-446.880	-200.000	0.028	-0.168
-445.865	-37.596	-0.158	0.084
-444.851	-64.364	-0.147	0.060
-443.836	-200.000	0.017	0.200
-442.822	-95.788	-0.172	-0.046
-441.807	30.420	0.243	0.207
-440.792	270.862	0.070	0.123
-439.778	150.903	0.118	-0.161
-438.763	23.313	-0.126	0.104
-437.749	-153.434	0.048	0.003
-436.734	550.385	-0.072	-0.172
-435.719	93.388	-0.137	0.154
-434.705	381.032	-0.038	-0.078
-433.690	321.742	-0.105	-0.200
-432.676	-200.000	-0.028	0.155
-431.661	194.612	0.089	-0.135
-430.646	-171.822	0.171	0.006
-429.632	-200.000	-0.009	-0.209
-428.617	-97.653	0.325	-0.084
-427.603	-135.411	-0.241	0.029
-426.588	-194.147	0.118	0.001
-425.573	-154.547	-0.146	0.010
-424.559	-99.172	-0.274	0.069
-423.544	-85.900	0.301	0.093
-422.530	49.764	0.120	-0.113
-421.515	122.956	-0.078	-0.097
-420.500	-161.176	-0.259	-0.013
-419.486	565.803	0.070	-0.170
-418.471	104.273	-0.063	-0.073
-417.457	59.546	0.014	0.014
-416.442	62.131	0.285	0.284
-415.428	-49.548	-0.250	-0.119
-414.413	45.576	0.116	-0.107
-413.398	632.982	0.056	0.141
-412.384	-75.106	0.131	0.047
-411.369	221.298	-0.149	0.239
-410.355	-200.000	-0.006	0.296
-409.340	-58.560	0.369	-0.159
-408.325	-62.606	-0.151	-0.062
-407.311	173.353	-0.190	-0.273
-406.296	-200.000	-0.042	0.247
-405.282	47.184	-0.352	0.326
-404.267	-200.000	0.014	0.085
-403.252	39.018	-0.170	0.152
-402.238	20.177	0.221	-0.178
-401.223	115.693	-0.108	-0.131
-400.209	-52.759	-0.104	-0.048
-399.194	89.879	-0.102	0.114
-398.179	800.000	-0.142	-0.520
-397.165	-104.005	0.086	-0.020
-396.150	98.849	-0.213	-0.245
-395.136	249.719	-0.087	0.147
-394.121	-100.998	-0.389	0.095
-393.106	-91.017	-0.243	-0.070
-392.092	-44.497	-0.231	-0.115
-391.077	800.000	-0.073	0.295
-390.063	800.000	0.069	0.270
-389.048	-3.009	0.367	0.255
-388.033	-30.741	-0.180	-0.101
-387.019	-72.673	0.178	0.065
-386.004	157.409	0.090	-0.124
-384.990	-79.354	0.243	0.082
-383.975	180.439	-0.145	-0.211
-382.960	-64.976	-0.126	-0.051
-381.946	-171.890	0.126	0.004
-380.931	-2.989	0.083	0.057
-379.917	38.455	0.325	-0.289
-378.902	-15.885	0.213	-0.135
-377.888	353.850	-0.114	0.225
-376.873	-31.688	-0.354	-0.198
-375.858	645.599	-0.082	-0.209
-374.844	-66.254	0.436	-0.173
-373.829	800.000	-0.095	-0.293
-372.815	-117.983	-0.428	-0.076
-371.800	262.740	-0.108	0.187
-370.785	33.366	-0.020	0.017
-369.771	318.890	0.108	0.204
-368.756	-200.000	-0.017	-0.190
-367.742	180.008	-0.117	0.170
-366.727	-74.019	-0.317	-0.114
-365.712	-35.727	-0.291	-0.157
-364.698	214.817	-0.216	0.341
-363.683	152.757	-0.158	0.214
-362.669	246.363	0.066	0.111
-361.654	113.450	0.085	-0.102
-360.639	-200.000	0.059	-0.295
-359.625	-200.000	0.023	-0.389
-358.610	-140.841	-0.275	0.028
-357.596	-58.765	-0.181	0.078
-356.581	382.941	-0.260	0.532
-355.566	-200.000	0.024	-0.273
-354.552	-200.000	0.017	-0.303
-353.537	-9.044	0.157	0.105
-352.523	-123.828	-0.041	-0.006
-351.508	-200.000	-0.028	-0.289
-350.493	-73.320	0.182	-0.066
-349.479	256.271	-0.070	-0.119
-348.464	123.661	0.068	0.085
-347.450	-200.000	-0.030	0.362
-346.435	175.387	-0.089	0.128
-345.420	-136.380	-0.361	-0.042
-344.406	8.126	0.103	0.077
-343.391	-90.393	0.294	-0.085
-342.377	800.000	-0.072	-0.277
-341.362	-200.000	-0.014	-0.180
-340.348	499.666	0.028	0.063
-339.333	-126.223	-0.065	-0.010
-338.318	2.256	-0.125	0.090
-337.304	-200.000	-0.034	-0.175
-336.289	307.239	-0.111	-0.205
-335.275	198.407	-0.069	0.105
-334.260	128.820	0.184	0.234
-333.245	-200.000	0.010	0.116
-332.231	-97.887	0.101	0.026
-331.216	164.679	-0.101	0.141
-330.202	196.965	-0.086	0.130
-329.187	-114.587	-0.196	0.037
-328.172	323.192	0.105	0.199
-327.158	-200.000	-0.020	0.098
-326.143	-200.000	0.029	-0.183
-325.129	111.302	0.047	-0.056
-324.114	-154.602	-0.086	0.006
-323.099	-6.957	0.214	0.144
-322.085	191.583	0.240	-0.360
-321.070	33.952	0.087	0.075
-320.056	-143.733	-0.345	0.032
-319.041	-119.036	0.116	-0.020
-318.026	82.734	0.126	-0.136
-317.012	-103.834	0.328	0.076
-315.997	-70.618	0.318	-0.119
-314.983	-94.512	-0.127	0.034
-313.968	-39.453	0.130	0.068
-312.953	800.000	-0.034	0.118
-311.939	132.981	0.221	0.283
-310.924	-126.076	0.500	0.075
-309.910	-200.000	0.036	-0.307
-308.895	-126.008	-0.209	0.031
-307.880	-200.000	0.019	-0.164
-306.866	-68.201	0.198	-0.076
-305.851	-109.469	0.114	0.024
-304.837	800.000	0.054	0.225
-303.822	-72.494	0.267	-0.098
-302.807	800.000	0.040	0.144
-301.793	-3.120	0.242	-0.168
-300.778	800.000	-0.036	0.142
-299.764	-100.256	0.045	-0.011
-298.749	-108.990	0.064	0.014
-297.735	-58.515	-0.292	0.126
-296.720	-162.700	-0.447	0.022
-295.705	194.402	0.221	0.332
-294.691	10.276	0.213	0.161
-293.676	584.189	0.057	0.139
-292.662	-200.000	-0.083	0.381
-291.647	-200.000	0.048	0.357
-290.632	149.556	-0.126	0.169
-289.618	48.895	-0.162	0.151
-288.603	439.919	0.175	-0.379
-287.589	-4.177	-0.146	0.101
-286.574	-200.000	-0.046	0.308
-285.559	117.033	0.173	-0.211
-284.545	11.319	-0.043	0.032
-283.530	-200.000	-0.005	0.156
-282.516	40.926	-0.070	-0.062
-281.501	45.534	-0.181	0.165
-280.486	104.300	-0.105	0.122
-279.472	-105.507	0.248	-0.056
-278.457	218.559	-0.102	-0.162
-277.443	244.774	0.102	0.171
-276.428	-200.000	0.023	-0.123
-275.413	-200.000	-0.052	0.368
-274.399	22.574	-0.039	0.031
-273.384	290.047	0.098	-0.176
-272.370	144.500	0.083	0.110
-271.355	800.000	-0.018	0.057
-270.340	-200.000	0.033	0.145
-269.326	-200.000	-0.029	0.216
-268.311	-66.236	0.090	-0.035
-267.297	290.105	-0.085	0.154
-266.282	-200.000	0.027	-0.172
-265.267	800.000	0.109	0.387
-264.253	474.854	0.095	0.212
-263.238	-117.119	0.359	0.065
-262.224	-140.806	0.168	0.017
-261.209	800.000	0.070	0.278
-260.195	-162.102	-0.369	-0.018
-259.180	-16.400	0.154	0.097
-258.165	-115.774	0.129	0.024
-257.151	547.094	0.031	-0.074
-256.136	224.396	0.103	-0.165
-255.122	-200.000	0.032	0.153
-254.107	-66.899	-0.351	0.137
-253.092	-86.449	0.057	-0.017
-252.078	526.102	0.068	0.158
-251.063	-200.000	-0.044	-0.397
-250.049	-200.000	-0.008	0.066
-249.034	21.279	-0.139	-0.112
-248.019	158.241	-0.158	-0.217
-247.005	-15.524	0.085	-0.054
-245.990	800.000	0.133	0.412
-244.976	-200.000	0.032	-0.328
-243.961	-112.781	0.235	0.046
-242.946	800.000	-0.021	0.062
-241.932	-181.652	-0.322	0.006
-240.917	103.270	-0.259	0.301
-239.903	54.512	-0.256	0.245
-238.888	3.169	-0.210	0.151
-237.873	-108.145	0.174	0.037
-236.859	-12.858	-0.052	-0.034
-235.844	663.046	-0.085	0.217
-234.830	711.188	0.106	0.278
-233.815	326.492	-0.141	0.268
-232.800	-135.027	-0.103	-0.012
-231.786	-83.147	0.112	-0.036
-230.771	-132.361	0.074	0.009
-229.757	-148.566	0.260	0.021
-228.742	122.017	-0.102	-0.126
-227.727	33.653	-0.134	0.116
-226.713	683.392	-0.097	-0.250
-225.698	38.428	0.176	-0.155
-224.684	-126.952	0.176	-0.026
-223.669	-200.000	-0.061	0.632
-222.655	-200.000	0.065	-0.305
-221.640	-63.817	0.122	0.050
-220.625	379.109	-0.039	0.079
-219.611	17.093	-0.191	-0.150
-218.596	-31.502	0.250	-0.139
-217.582	-200.000	0.026	-0.246
-216.567	766.808	0.151	0.405
-215.552	-200.000	-0.017	0.549
-214.538	-151.949	0.034	-0.002
-213.523	-200.000	-0.020	-0.512
-212.509	258.294	0.070	0.119
-211.494	-50.520	0.300	0.140
-210.479	-31.913	-0.175	-0.097
-209.465	14.640	0.146	0.113
-208.450	-55.089	-0.149	0.066
-207.436	171.871	0.066	0.094
-206.421	800.000	-0.071	0.270
-205.406	-166.225	0.187	0.008
-204.392	-46.230	0.044	0.021
-203.377	-40.066	0.207	-0.107
-202.363	374.231	0.109	0.219
-201.348	126.849	-0.139	0.174
-200.333	199.091	-0.017	-0.026
-199.319	-83.699	0.061	0.019
-198.304	-200.000	0.004	-0.082
-197.290	-118.102	-0.191	-0.034
-196.275	-80.224	-0.221	-0.073
-195.260	-89.086	-0.085	0.025
-194.246	-37.899	0.263	-0.138
-193.231	-200.000	-0.017	0.080
-192.217	-150.719	-0.021	0.002
-191.202	174.689	-0.080	0.115
-190.187	-62.388	-0.119	-0.049
-189.173	185.976	0.046	0.067
-188.158	155.616	0.214	-0.292
-187.144	764.134	-0.141	-0.379
-186.129	641.558	-0.066	0.166
-185.114	800.000	0.024	0.092
-184.100	99.486	0.333	-0.381
-183.085	-200.000	-0.018	0.241
-182.071	-70.375	0.052	0.020
-181.056	-28.865	-0.285	-0.162
-180.042	4.360	-0.314	-0.227
-179.027	-32.873	-0.130	-0.071
-178.012	279.897	0.086	0.152
-176.998	-200.000	-0.039	-0.340
-175.983	304.935	-0.078	0.143
-174.969	-200.000	0.027	0.143
-173.954	-154.312	0.271	-0.018
-172.939	13.952	-0.284	0.218
-171.925	312.660	0.105	-0.195
-170.910	-66.233	0.137	0.054
-169.896	506.758	-0.123	0.283
-168.881	-94.936	0.177	-0.047
-167.866	-34.876	0.325	0.175
-166.852	529.288	0.110	0.257
-165.837	-50.281	0.166	-0.077
-164.823	1.930	0.225	0.160
-163.808	393.599	0.147	-0.302
-162.793	101.646	0.125	0.144
-161.779	172.976	0.188	-0.268
-160.764	-44.242	-0.098	0.048
-159.750	-185.964	0.107	-0.002
-158.735	-160.057	0.209	0.011
-157.720	-149.609	-0.157	-0.012
-156.706	143.004	0.193	0.253
-155.691	79.591	0.167	0.177
-154.677	473.147	-0.125	0.278
-153.662	-108.649	0.042	0.009
-152.647	-16.946	0.200	0.125
-151.633	-200.000	-0.018	0.342
-150.618	54.293	0.133	0.126
-149.604	800.000	0.094	-0.346
-148.589	125.176	0.282	0.350
-147.574	-39.896	-0.243	-0.125
-146.560	-85.656	-0.166	0.051
-145.545	-120.126	0.044	-0.007
-144.531	-200.000	-0.036	0.291
-143.516	800.000	-0.004	0.013
-142.502	-200.000	-0.032	0.248
-141.487	-200.000	0.020	0.119
-140.472	-41.224	0.187	-0.095
-139.458	800.000	0.024	-0.092
-138.443	-82.731	0.058	0.019
-137.429	23.717	0.198	-0.161
-136.414	-95.729	0.218	-0.058
-135.399	69.162	0.079	-0.080
-134.385	-200.000	0.009	0.110
-133.370	47.520	-0.141	0.129
-132.356	-101.583	0.203	-0.049
-131.341	-71.031	-0.471	0.175
-130.326	-200.000	0.029	-0.252
-129.312	-200.000	0.044	0.231
-128.297	358.884	0.114	-0.224
-127.283	-200.000	0.012	0.140
-126.268	-39.722	0.080	0.041
-125.253	-14.850	-0.333	0.211
-124.239	-113.446	-0.367	0.071
-123.224	-166.246	-0.070	-0.003
-122.210	-69.867	0.167	0.063
-121.195	800.000	-0.094	-0.389
-120.180	462.905	-0.104	-0.229
-119.166	-94.681	-0.253	-0.068
-118.151	-133.337	-0.412	-0.051
-117.137	-7.748	0.224	-0.149
-116.122	-100.548	-0.374	0.091
-115.107	800.000	-0.015	0.060
-114.093	-200.000	0.006	-0.371
-113.078	20.370	0.098	-0.078
-112.064	130.679	-0.069	-0.088
-111.049	-55.378	0.339	-0.150
-110.034	260.286	0.178	0.303
-109.020	800.000	0.083	0.333
-108.005	-200.000	-0.021	-0.209
-106.991	-68.981	0.364	-0.138
-105.976	800.000	-0.079	-0.283
-104.962	190.726	0.078	-0.116
-103.947	800.000	-0.049	0.149
-102.932	-24.865	0.076	-0.045
-101.918	213.587	-0.200	0.312
-100.903	182.963	0.098	-0.143
-99.889	32.095	0.097	-0.083
-98.874	-200.000	0.062	-0.439
-97.859	-200.000	-0.008	-0.054
-96.845	-111.222	0.314	0.063
-95.830	153.667	-0.012	0.016
-94.816	294.058	0.107	-0.193
-93.801	302.793	0.080	0.147
-92.786	-9.934	-0.042	0.028
-91.772	-200.000	0.016	0.145
-90.757	190.410	-0.232	-0.344
-89.743	-94.024	-0.251	-0.068
-88.728	800.000	-0.042	-0.127
-87.713	75.664	-0.172	-0.179
-86.699	306.630	0.171	0.313
-85.684	8.575	-0.216	0.160
-84.670	-137.049	0.275	0.031
-83.655	-171.106	0.488	0.016
-82.640	-200.000	-0.004	0.161
-81.626	-127.121	0.213	0.031
-80.611	800.000	0.097	0.291
-79.597	104.975	0.118	0.137
-78.582	-1.613	0.226	-0.156
-77.567	216.803	-0.111	0.173
-76.553	-84.718	-0.022	-0.007
-75.538	-25.794	0.143	-0.083
-74.524	-200.000	-0.019	0.093
-73.509	-67.427	0.011	0.004
-72.494	568.890	-0.121	0.290
-71.480	5.726	-0.074	0.054
-70.465	-35.053	-0.095	-0.051
-69.451	-200.000	-0.001	0.248
-68.436	-200.000	0.017	0.134
-67.422	-94.099	0.433	-0.117
-66.407	38.629	-0.268	0.235
-65.392	-47.365	0.253	0.121
-64.378	-2.872	-0.104	0.072
-63.363	123.202	0.028	-0.034
-62.349	72.573	0.119	0.122
-61.334	177.989	-1.031	-1.479
-60.319	-94.405	0.364	0.098
-59.305	800.000	-0.284	-0.992
-58.290	332.331	0.659	1.251
-57.276	160.421	1.042	1.430
-56.261	-200.000	93.603	572.185
-55.246	568.066	1361.888	3251.775
-54.232	164.839	2526.855	3505.029
-53.217	114.378	2135.981	2556.366
-52.203	44.377	1603.094	1446.672
-51.188	36.122	1341.588	1161.174
-50.173	32.935	1299.860	1106.374
-49.159	55.095	1345.736	1277.849
-48.144	57.445	1362.532	1307.725
-47.130	36.261	1322.709	1145.476
-46.115	32.848	1304.959	1110.028
-45.100	32.529	1300.129	1104.007
-44.086	32.433	1297.869	1101.478
-43.071	32.405	1294.982	1098.824
-42.057	32.436	1293.275	1097.510
-41.042	32.421	1291.329	1095.727
-40.027	32.480	1290.060	1094.953
-39.013	32.490	1287.984	1093.203
-37.998	32.513	1286.004	1091.613
-36.984	32.455	1284.431	1089.897
-35.969	32.506	1282.535	1088.539
-34.954	32.555	1280.762	1087.277
-33.940	32.546	1279.944	1086.489
-32.925	32.661	1278.334	1085.742
-31.911	32.707	1276.505	1084.411
-30.896	32.734	1275.342	1083.536
-29.881	32.679	1274.331	1082.317
-28.867	32.635	1272.437	1080.409
-27.852	32.659	1271.438	1079.657
-26.838	32.821	1269.409	1078.816
-25.823	32.718	1268.235	1077.192
-24.809	32.578	1267.222	1075.487
-23.794	32.604	1265.909	1074.477
-22.779	32.579	1265.096	1073.601
-21.765	32.712	1263.063	1072.592
-20.750	32.672	1262.172	1071.563
-19.736	32.551	1261.458	1070.230
-18.721	32.497	1259.627	1068.326
-17.706	32.501	1258.321	1067.201
-16.692	32.473	1257.194	1066.041
-15.677	32.525	1256.115	1065.382
-14.663	32.548	1254.871	1064.414
-13.648	32.458	1253.906	1063.044
-12.633	32.469	1253.111	1062.389
-11.619	32.494	1252.229	1061.740
-10.604	32.462	1251.105	1060.564
-9.590	32.524	1250.333	1060.217
-8.575	32.493	1249.226	1059.060
-7.560	32.520	1248.472	1058.535
-6.546	32.500	1247.739	1057.756
-5.531	32.511	1246.814	1056.993
-4.517	32.395	1246.220	1055.798
-3.502	32.498	1245.317	1055.566
-2.487	32.408	1244.711	1054.505
-1.473	32.500	1239.763	1050.785
-0.458	30.881	1225.180	1029.449
0.556	25.197	1207.653	989.865
1.571	21.309	1212.670	972.303
2.586	20.223	1227.123	977.687
3.600	19.918	1216.146	967.151
4.615	14.684	1143.062	881.388
5.629	5.187	1066.054	774.984
6.644	0.478	1045.034	736.681
7.659	-0.030	1043.597	733.128
8.673	-0.190	1042.531	731.535
9.688	-0.176	1040.811	730.329
10.702	0.188	1038.997	730.758
11.717	5.722	1046.637	763.066
12.731	14.452	1058.391	814.392
13.746	17.851	1061.183	833.085
14.761	16.973	1059.698	827.566
15.775	15.930	1057.477	820.677
16.790	14.911	1055.849	814.380
17.804	14.177	1053.944	809.270
18.819	13.877	1052.754	806.830
19.834	13.661	1051.962	805.100
20.848	13.441	1050.805	803.077
21.863	13.143	1050.351	801.215
22.877	12.966	1049.181	799.392
23.892	12.991	1048.915	799.240
24.907	13.031	1047.821	798.528
25.921	13.090	1047.112	798.204
26.936	13.260	1046.452	798.454
27.950	13.203	1045.278	797.209
28.965	13.207	1044.542	796.600
29.980	13.332	1042.809	795.804
30.994	13.273	1042.211	794.997
32.009	13.276	1041.143	794.124
33.023	13.272	1040.199	793.318
34.038	13.207	1039.033	792.047
35.053	13.028	1038.542	790.745
36.067	13.107	1037.749	790.447
37.082	13.230	1036.339	789.893
38.096	13.227	1035.714	789.330
39.111	13.246	1034.878	788.715
40.126	13.073	1033.941	787.107
41.140	12.998	1032.652	785.698
42.155	13.035	1031.630	785.025
43.169	13.022	1030.842	784.296
44.184	12.927	1029.915	783.073
45.199	12.843	1028.898	781.831
46.213	13.071	1027.414	781.714
47.228	13.073	1026.816	781.196
48.242	13.128	1025.533	780.412
49.257	13.058	1024.811	779.465
50.271	13.100	1023.881	778.885
51.286	13.227	1022.832	778.615
52.301	13.184	1022.041	777.745
53.315	13.063	1020.937	776.264
54.330	12.968	1020.279	775.252
55.344	13.141	1018.995	775.017
56.359	13.239	1018.183	774.790
57.374	13.102	1017.407	773.491
58.388	12.955	1016.654	772.163
59.403	13.006	1016.073	771.889
60.417	12.873	1015.556	770.809
61.432	12.949	1013.867	769.814
62.447	12.944	1013.181	769.202
63.461	12.877	1012.334	768.178
64.476	12.876	1011.744	767.658
65.490	12.998	1010.591	767.282
66.505	12.998	1009.945	766.723
67.520	12.844	1009.695	765.750
68.534	13.045	1008.685	765.850
69.549	12.962	1008.156	764.995
70.563	12.904	1007.560	764.203
71.578	12.973	1006.530	763.677
72.593	12.961	1005.663	762.894
73.607	12.951	1005.226	762.450
74.622	12.902	1004.776	761.814
75.636	13.007	1003.621	761.358
76.651	12.983	1003.191	760.852
77.666	12.977	1002.509	760.242
78.680	12.870	1002.050	759.329
79.695	12.876	1001.411	758.807
80.709	12.853	1000.762	758.143
81.724	12.981	1000.317	758.330
82.739	12.961	999.526	757.570
83.753	13.193	998.394	757.708
84.768	13.232	997.435	757.091
85.782	13.254	996.865	756.695
86.797	13.091	996.279	755.434
87.812	13.254	994.623	754.857
88.826	13.070	994.140	753.583
89.841	13.182	993.234	753.341
90.855	13.160	992.373	752.520
91.870	13.104	991.717	751.703
92.884	13.195	990.758	751.322
93.899	13.318	989.637	750.967
94.914	13.326	989.234	750.628
95.928	13.290	988.181	749.598
96.943	13.266	987.567	748.957
97.957	13.218	986.744	748.052
98.972	13.116	985.858	746.854
99.987	13.181	985.018	746.446
101.001	13.243	984.037	745.915
102.016	13.333	982.993	745.461
103.030	13.193	982.539	744.423
104.045	13.208	981.867	743.916
105.060	13.182	980.778	742.905
106.074	13.053	980.366	741.950
107.089	13.087	978.678	740.759
108.103	12.957	978.243	739.779
109.118	13.073	977.078	739.354
110.133	13.106	975.983	738.606
111.147	13.030	975.110	737.540
112.162	13.018	974.723	737.129
113.176	13.151	973.361	736.630
114.191	13.132	973.162	736.326
115.206	13.055	972.503	735.421
116.220	13.205	971.297	735.109
117.235	13.033	970.618	733.769
118.249	13.157	969.734	733.586
119.264	13.139	968.817	732.746
120.279	13.091	968.244	732.037
121.293	12.978	967.586	730.971
122.308	13.157	966.231	730.676
123.322	12.968	965.512	729.230
124.337	13.099	964.371	728.884
125.352	12.954	963.722	727.690
126.366	13.172	962.355	727.554
127.381	13.124	961.335	726.507
128.395	13.046	960.929	725.794
129.410	13.061	960.121	725.183
130.424	13.110	959.178	724.623
131.439	13.165	957.680	723.670
132.454	13.189	957.613	723.660
133.468	13.226	956.892	723.211
134.483	13.140	956.069	722.148
135.497	13.157	954.789	721.192
136.512	13.140	954.167	720.583
137.527	13.299	953.523	720.730
138.541	13.256	952.664	719.828
139.556	13.259	951.899	719.197
140.570	13.220	951.068	718.337
141.585	13.328	950.508	718.320
142.600	13.347	949.465	717.551
143.614	13.399	948.474	716.963
144.629	13.328	947.797	716.080
145.643	13.288	947.062	715.291
146.658	13.348	946.168	714.813
147.673	13.156	945.220	713.203
148.687	13.371	943.513	712.778
149.702	13.359	942.980	712.259
150.716	13.243	942.626	711.433
151.731	13.299	942.165	711.260
152.746	13.293	941.498	710.669
153.760	13.283	940.502	709.810
154.775	13.467	940.145	710.269
155.789	13.405	939.669	709.580
156.804	13.420	938.519	708.713
157.819	13.438	938.289	708.553
158.833	13.408	937.369	707.667
159.848	13.625	936.286	707.713
160.862	13.433	935.846	706.500
161.877	13.420	934.674	705.496
162.892	13.383	933.847	704.654
163.906	13.336	932.657	703.494
164.921	13.367	932.029	703.089
165.935	13.377	931.249	702.482
166.950	13.473	930.428	702.208
167.964	13.446	929.607	701.411
168.979	13.415	928.802	700.609
169.994	13.384	927.898	699.734
171.008	13.412	927.201	699.264
172.023	13.600	926.689	699.610
173.037	13.627	925.711	698.923
174.052	13.521	925.329	698.126
175.067	13.400	924.603	697.009
176.081	13.490	923.909	696.800
177.096	13.517	923.165	696.294
178.110	13.477	922.777	695.771
179.125	13.568	921.793	695.349
180.140	13.536	921.756	695.124
181.154	13.659	921.024	695.027
182.169	13.527	921.010	694.400
183.183	13.597	920.380	694.160
184.198	13.574	919.575	693.393
185.213	13.690	918.600	693.082
186.227	13.717	917.599	692.378
187.242	13.759	917.186	692.182
188.256	13.809	916.330	691.680
189.271	13.746	915.524	690.750
190.286	13.673	914.982	689.978
191.300	13.594	914.412	689.159
192.315	13.469	913.893	688.186
193.329	13.601	913.187	688.140
194.344	13.623	912.429	687.602
195.359	13.655	911.678	687.107
196.373	13.819	910.775	687.045
197.388	13.868	910.715	687.140
198.402	13.887	910.337	686.874
199.417	13.902	909.625	686.336
200.432	14.098	909.209	686.771
201.446	14.022	908.837	686.117
202.461	13.995	908.008	685.320
203.475	13.934	907.448	684.584
204.490	13.928	906.870	684.064
205.504	13.869	906.101	683.178
206.519	13.817	905.493	682.447
207.534	13.822	904.700	681.809
208.548	13.916	904.234	681.784
209.563	13.840	903.431	680.807
210.577	14.050	902.589	680.970
211.592	14.073	902.171	680.688
212.607	14.142	901.531	680.429
213.621	14.163	900.687	679.820
214.636	14.151	899.832	679.064
215.650	14.083	899.270	678.303
216.665	14.146	898.428	677.863
217.680	14.215	898.143	677.869
218.694	14.268	897.026	677.183
219.709	14.289	896.327	676.679
220.723	14.188	895.981	675.949
221.738	14.297	894.908	675.522
222.753	14.206	894.384	674.697
223.767	14.229	894.247	674.627
224.782	14.356	893.349	674.405
225.796	14.339	892.774	673.840
226.811	14.336	891.924	673.127
227.826	14.307	891.438	672.586
228.840	14.206	890.504	671.414
229.855	14.455	889.513	671.611
230.869	14.215	889.051	670.237
231.884	14.181	888.762	669.820
232.899	14.169	887.799	668.990
233.913	14.270	887.370	669.012
234.928	14.267	886.672	668.416
235.942	14.243	886.078	667.813
236.957	14.382	885.511	667.883
237.972	14.231	884.761	666.651
238.986	14.323	884.034	666.413
240.001	14.330	883.480	665.963
241.015	14.305	882.975	665.424
242.030	14.298	882.470	664.959
243.045	14.352	882.094	664.831
244.059	14.393	881.487	664.480
245.074	14.432	880.549	663.869
246.088	14.580	879.878	663.894
247.103	14.644	879.058	663.471
248.117	14.576	878.674	662.851
249.132	14.555	878.578	662.636
250.147	14.756	877.534	662.589
251.161	14.737	876.706	661.828
252.176	14.788	876.444	661.775
253.190	14.855	875.669	661.396
254.205	14.826	875.163	660.838
255.220	14.812	874.477	660.210
256.234	14.751	874.032	659.572
257.249	14.783	873.186	659.003
258.263	14.782	872.553	658.461
259.278	14.815	872.073	658.172
260.293	14.854	871.305	657.688
261.307	15.024	870.428	657.635
262.322	15.076	869.819	657.322
263.336	15.007	869.270	656.578
264.351	14.871	868.920	655.723
265.366	14.941	868.130	655.342
266.380	14.999	867.608	655.117
267.395	15.058	866.905	654.758
268.409	14.882	865.917	653.267
269.424	15.106	864.989	653.383
270.439	14.980	864.464	652.437
271.453	15.001	864.009	652.119
272.468	14.897	863.117	650.982
273.482	14.977	862.983	651.136
274.497	15.005	862.420	650.761
275.512	15.015	861.947	650.387
276.526	15.143	861.184	650.249
277.541	15.124	860.602	649.678
278.555	15.107	860.208	649.259
279.570	15.260	859.150	648.995
280.585	15.201	858.669	648.345
281.599	15.283	857.695	647.871
282.614	15.117	857.299	646.874
283.628	15.124	856.771	646.442
284.643	15.280	856.085	646.469
285.657	15.205	855.406	645.613
286.672	15.156	854.733	644.856
287.687	15.244	854.096	644.657
288.701	15.233	853.665	644.232
289.716	15.376	853.133	644.326
290.730	15.372	852.224	643.568
291.745	15.283	851.782	642.833
292.760	15.366	851.311	642.741
293.774	15.369	850.944	642.416
294.789	15.500	849.787	641.988
295.803	15.307	849.588	641.042
296.818	15.357	848.689	640.501
297.833	15.334	848.237	640.014
298.847	15.421	847.527	639.754
299.862	15.472	846.872	639.396
300.876	15.440	846.401	638.862
301.891	15.329	846.206	638.235
302.906	15.444	845.428	638.028
303.920	15.453	844.954	637.651
304.935	15.538	844.191	637.341
305.949	15.640	843.566	637.199
306.964	15.567	842.933	636.387
307.979	15.643	842.167	636.040
308.993	15.690	841.501	635.659
310.008	15.654	841.489	635.458
311.022	15.641	840.271	634.433
312.037	15.822	839.923	634.795
313.052	15.662	839.418	633.756
314.066	15.670	838.878	633.323
315.081	15.574	838.739	632.800
316.095	15.587	837.856	632.125
317.110	15.624	837.212	631.721
318.125	15.751	836.595	631.680
319.139	15.591	836.683	631.087
320.154	15.755	835.773	630.961
321.168	15.764	835.565	630.783
322.183	15.751	834.988	630.241
323.197	15.805	834.352	629.909
324.212	15.768	833.896	629.371
325.227	15.823	833.169	628.972
326.241	15.670	832.953	628.181
327.256	15.905	832.003	628.285
328.270	15.824	831.517	627.562
329.285	15.715	831.233	626.885
330.300	15.752	830.386	626.329
331.314	15.844	830.000	626.324
332.329	15.823	829.523	625.830
333.343	15.823	829.190	625.526
334.358	15.739	829.008	625.019
335.373	15.856	828.245	624.823
336.387	16.000	827.965	625.091
337.402	15.930	828.102	624.880
338.416	16.023	827.344	624.598
339.431	15.966	827.085	624.135
340.446	16.052	826.422	623.898
341.460	16.101	826.353	623.972
342.475	16.046	826.084	623.511
343.489	16.198	825.456	623.542
344.504	16.199	824.981	623.133
345.519	16.299	824.158	622.824
346.533	16.245	823.673	622.203
347.548	16.205	823.138	621.597
348.562	16.150	822.615	620.946
349.577	16.181	822.081	620.600
350.592	16.071	821.622	619.794
351.606	16.158	820.665	619.338
352.621	16.206	819.892	618.876
353.635	16.209	819.749	618.725
354.650	16.176	818.992	617.978
355.665	16.252	818.309	617.685
356.679	16.276	818.108	617.565
357.694	16.241	817.502	616.927
358.708	16.399	816.441	616.647
359.723	16.235	816.063	615.709
360.738	16.347	815.640	615.743
361.752	16.232	814.942	614.743
362.767	16.314	814.798	614.880
363.781	16.524	813.653	614.725
364.796	16.365	813.567	614.028
365.810	16.589	813.194	614.505
366.825	16.653	812.923	614.479
367.840	16.559	812.329	613.633
368.854	16.439	811.985	612.883
369.869	16.596	811.526	613.052
370.883	16.573	810.762	612.337
371.898	16.544	810.547	612.016
372.913	16.634	810.049	611.913
373.927	16.746	809.488	611.839
374.942	16.646	809.402	611.357
375.956	16.679	808.889	611.037
376.971	16.825	808.390	611.132
377.986	16.844	807.926	610.795
379.000	16.930	807.214	610.512
380.015	16.817	806.709	609.668
381.029	16.871	806.234	609.451
382.044	16.756	805.879	608.716
383.059	16.848	805.272	608.532
384.073	16.897	804.464	608.046
385.088	16.897	803.971	607.618
386.102	16.739	803.646	606.751
387.117	16.864	802.699	606.432
388.132	16.678	802.567	605.612
389.146	16.896	801.746	605.719
390.161	16.813	801.541	605.213
391.175	16.977	801.000	605.339
392.190	17.019	800.442	605.011
393.205	16.940	799.747	604.151
394.219	16.894	799.574	603.804
395.234	16.788	799.297	603.163
396.248	16.798	798.975	602.901
397.263	16.959	798.547	603.099
398.278	16.905	798.082	602.503
399.292	16.846	797.630	601.897
400.307	16.810	797.478	601.601
401.321	16.829	796.994	601.252
402.336	16.958	796.012	600.916
403.350	16.920	795.713	600.500
404.365	16.887	795.422	600.110
405.380	17.128	794.684	600.352
406.394	17.143	794.148	599.947
407.409	17.114	794.161	599.803
408.423	17.221	793.553	599.669
409.438	17.150	793.411	599.258
410.453	17.144	792.795	598.719
411.467	17.130	792.510	598.401
412.482	17.378	791.875	598.739
413.496	17.372	791.692	598.528
414.511	17.492	791.081	598.436
415.526	17.339	791.021	597.799
416.540	17.273	790.515	597.131
417.555	17.530	789.815	597.453
418.569	17.362	789.311	596.430
419.584	17.358	789.126	596.224
420.599	17.333	788.851	595.875
421.613	107.275	1288.112	1457.052
422.628	91.947	1360.827	1457.144
