DTS Sentinel unit serial number:	SN413079Multiplexer serial number:	ORYXHardware model number:	OX4-SRSoftware version number:	ORYX F/W v4.00 Oryx Data Collector v3.7.2.0data status	okinstallation	princeton_trtdifferential loss correction	single-endedforward channel	channel 1reverse channel	N/Adate	2019/09/17time	10:34:35forward acquisition time	60.00reverse acquisition time	0.00gamma	496.2192k internal	0.2323k external	0.2323temperature offset calibration	0.9962default loss term (dB/km)	0.3790temperature slope calibration	1.0000multiplexer offset coefficient	1.0000multiplexer slope coefficient	1.0000fibre end	0.00T internal ref (°C)	30.02T ext. ref 1 (°C)	0.17T ext. ref 2 (°C)	25.62length (m)	temperature (°C)	Stokes	anti-Stokes-747.200	205.808	0.202	0.317
-746.185	136.160	-0.153	0.201
-745.171	75.096	0.285	-0.303
-744.156	209.816	0.095	0.150
-743.142	203.176	-0.146	-0.229
-742.127	493.890	-0.033	-0.076
-741.112	117.677	-0.064	0.079
-740.098	19.417	-0.151	0.123
-739.083	-64.347	-0.137	-0.056
-738.069	126.433	0.193	0.247
-737.054	-105.303	-0.038	-0.009
-736.039	35.484	-0.054	-0.048
-735.025	-53.159	0.314	-0.146
-734.010	724.418	-0.119	-0.320
-732.996	800.000	0.057	-0.250
-731.981	-14.756	-0.053	-0.034
-730.966	-93.372	-0.231	0.065
-729.952	-200.000	-0.037	-0.238
-728.937	-200.000	-0.014	0.107
-727.923	2.060	-0.091	0.066
-726.908	1.608	0.078	0.056
-725.894	-200.000	0.024	0.122
-724.879	607.990	-0.083	-0.209
-723.864	-143.178	-0.681	-0.066
-722.850	187.100	0.048	0.072
-721.835	-73.615	-0.227	0.084
-720.821	59.148	-0.258	0.257
-719.806	128.445	-0.094	-0.121
-718.791	-200.000	-0.025	-0.255
-717.777	10.521	-0.021	-0.016
-716.762	-200.000	-0.001	0.227
-715.748	800.000	0.052	-0.149
-714.733	640.149	-0.084	-0.215
-713.718	114.506	-0.248	-0.305
-712.704	-138.791	0.234	0.026
-711.689	155.047	-0.142	-0.198
-710.675	177.586	-0.108	-0.159
-709.660	120.845	-0.154	0.193
-708.645	-120.443	-0.401	-0.069
-707.631	46.512	0.132	-0.124
-706.616	12.218	-0.097	0.075
-705.602	-200.000	0.038	0.316
-704.587	-52.083	-0.264	-0.123
-703.572	22.501	0.111	0.092
-702.558	-94.809	-0.035	0.010
-701.543	-200.000	0.014	0.085
-700.529	62.745	0.056	0.057
-699.514	368.604	0.065	-0.132
-698.499	-200.000	0.031	-0.234
-697.485	-74.190	-0.577	-0.210
-696.470	111.227	-0.178	-0.216
-695.456	800.000	0.103	0.313
-694.441	-114.489	-0.036	-0.007
-693.426	-148.917	0.335	0.027
-692.412	9.683	-0.029	0.023
-691.397	-153.101	-0.177	0.013
-690.383	85.721	-0.180	0.200
-689.368	-93.209	-0.094	-0.026
-688.354	27.110	0.205	0.173
-687.339	800.000	0.064	-0.268
-686.324	-74.522	-0.114	0.041
-685.310	-38.442	0.270	-0.144
-684.295	224.178	-0.044	0.072
-683.281	-200.000	-0.014	-0.105
-682.266	-94.048	-0.237	0.066
-681.251	-47.762	-0.160	-0.078
-680.237	-200.000	-0.040	-0.254
-679.222	14.149	-0.279	-0.219
-678.208	36.558	-0.100	0.089
-677.193	110.189	-0.230	-0.279
-676.178	282.701	0.192	-0.347
-675.164	358.957	0.090	-0.181
-674.149	782.037	0.059	0.164
-673.135	-6.356	-0.230	0.158
-672.120	-50.646	0.369	0.175
-671.105	-107.347	-0.234	0.052
-670.091	11.022	-0.106	0.081
-669.076	762.870	-0.044	-0.120
-668.062	-82.759	-0.171	0.056
-667.047	-41.151	0.310	-0.161
-666.032	-70.760	-0.062	0.024
-665.018	710.316	-0.234	-0.622
-664.003	23.250	-0.238	-0.197
-662.989	-42.401	0.061	-0.032
-661.974	-47.270	0.152	-0.075
-660.959	-200.000	0.013	0.096
-659.945	-200.000	-0.003	-0.118
-658.930	252.562	0.043	-0.075
-657.916	-158.464	-0.108	-0.006
-656.901	-200.000	0.039	0.201
-655.886	28.322	-0.168	0.142
-654.872	-127.140	-0.190	-0.028
-653.857	-9.363	-0.226	0.152
-652.843	255.119	-0.055	-0.095
-651.828	800.000	-0.012	-0.039
-650.814	345.385	0.136	0.268
-649.799	-200.000	-0.011	-0.062
-648.784	481.871	-0.030	0.068
-647.770	105.398	-0.095	0.113
-646.755	-153.628	-0.361	-0.025
-645.741	314.945	-0.149	0.282
-644.726	536.107	-0.019	0.046
-643.711	-65.948	-0.127	0.051
-642.697	-22.353	0.142	-0.086
-641.682	-129.621	0.060	-0.008
-640.668	-147.776	-0.290	0.024
-639.653	800.000	0.022	0.080
-638.638	-87.861	-0.080	-0.024
-637.624	-200.000	-0.010	-0.146
-636.609	177.620	-0.315	-0.462
-635.595	-25.208	0.223	0.133
-634.580	-200.000	0.005	-0.167
-633.565	800.000	-0.127	-0.472
-632.551	-132.949	0.139	0.018
-631.536	67.797	-0.208	0.214
-630.522	317.464	0.051	-0.098
-629.507	101.327	-0.078	0.092
-628.492	407.928	0.129	-0.275
-627.478	-138.291	0.164	0.018
-626.463	-10.944	-0.123	0.082
-625.449	-200.000	0.014	0.072
-624.434	8.652	-0.138	-0.104
-623.419	800.000	0.131	-0.427
-622.405	63.535	0.145	0.147
-621.390	800.000	-0.092	0.259
-620.376	-148.108	0.349	-0.029
-619.361	-200.000	0.056	0.309
-618.346	-1.767	-0.290	0.205
-617.332	800.000	-0.074	0.238
-616.317	-200.000	0.030	-0.227
-615.303	551.948	0.051	0.122
-614.288	32.571	0.098	-0.085
-613.273	611.191	-0.056	-0.140
-612.259	80.968	-0.064	0.069
-611.244	690.185	0.015	-0.039
-610.230	67.243	-0.212	0.218
-609.215	-111.340	0.254	-0.052
-608.201	-74.684	0.120	0.043
-607.186	-62.854	-0.022	-0.009
-606.171	167.212	0.119	-0.170
-605.157	-27.816	-0.271	0.158
-604.142	-69.879	0.191	0.073
-603.128	-142.057	0.145	0.014
-602.113	-85.820	-0.058	0.018
-601.098	800.000	0.040	-0.137
-600.084	-28.301	-0.119	0.069
-599.069	-41.566	-0.051	-0.026
-598.055	-130.622	0.330	0.045
-597.040	-200.000	0.025	0.211
-596.025	192.687	-0.096	0.146
-595.011	15.816	0.067	-0.053
-593.996	-106.567	-0.246	-0.055
-592.982	258.803	-0.123	-0.213
-591.967	-133.331	0.296	0.037
-590.952	-88.122	-0.180	-0.054
-589.938	-143.858	-0.225	0.021
-588.923	390.984	-0.255	0.531
-587.909	4.579	-0.210	0.155
-586.894	-21.836	-0.215	-0.132
-585.879	-200.000	0.014	-0.154
-584.865	-134.101	0.200	-0.025
-583.850	-127.595	0.061	0.009
-582.836	-37.818	-0.035	0.019
-581.821	-4.575	0.179	0.124
-580.806	-200.000	0.061	0.449
-579.792	-77.495	0.159	0.055
-578.777	44.324	-0.164	0.151
-577.763	531.364	0.111	-0.264
-576.748	-6.892	0.328	-0.223
-575.733	-106.951	-0.295	0.066
-574.719	-100.279	-0.443	-0.110
-573.704	-12.443	0.175	0.115
-572.690	-200.000	-0.013	0.624
-571.675	395.870	0.201	0.421
-570.661	338.963	-0.240	0.470
-569.646	-3.333	0.024	0.017
-568.631	-132.076	0.071	0.009
-567.617	-112.660	-0.408	-0.081
-566.602	-27.891	0.126	-0.073
-565.588	-45.419	0.463	0.230
-564.573	651.085	-0.118	0.304
-563.558	-16.583	-0.207	-0.132
-562.544	175.644	0.373	0.543
-561.529	253.918	-0.185	-0.317
-560.515	39.525	0.286	-0.257
-559.500	206.467	0.093	-0.145
-558.485	-49.385	-0.106	-0.051
-557.471	-140.792	0.199	0.021
-556.456	2.112	-0.218	-0.158
-555.442	16.158	0.087	0.069
-554.427	135.375	0.067	0.087
-553.412	61.829	0.142	0.142
-552.398	18.145	0.185	-0.148
-551.383	800.000	-0.018	0.066
-550.369	670.236	0.154	0.401
-549.354	-41.806	0.226	-0.116
-548.339	-60.501	0.067	0.029
-547.325	-43.289	-0.335	-0.170
-546.310	800.000	-0.071	0.211
-545.296	151.393	-0.003	-0.004
-544.281	19.436	0.271	0.219
-543.266	-78.894	-0.373	0.127
-542.252	261.882	-0.095	0.165
-541.237	756.090	-0.141	-0.382
-540.223	597.833	-0.014	0.036
-539.208	-200.000	-0.036	0.255
-538.193	-200.000	0.330	-0.001
-537.179	-200.000	0.036	-0.208
-536.164	140.444	-0.154	0.204
-535.150	530.746	0.092	0.217
-534.135	-49.623	-0.233	0.111
-533.121	-200.000	0.012	0.183
-532.106	-69.871	0.222	-0.085
-531.091	238.149	-0.225	-0.374
-530.077	-200.000	-0.073	0.335
-529.062	-200.000	0.024	0.360
-528.048	68.403	0.100	-0.103
-527.033	-200.000	0.019	-0.175
-526.018	-200.000	-0.024	-0.419
-525.004	800.000	-0.139	0.403
-523.989	-20.197	-0.124	-0.077
-522.975	11.710	-0.131	-0.101
-521.960	-200.000	-0.006	0.246
-520.945	286.641	-0.196	0.354
-519.931	334.271	-0.062	-0.119
-518.916	-130.152	-0.134	-0.018
-517.902	-42.209	0.327	-0.167
-516.887	14.331	0.263	-0.206
-515.872	-132.414	0.320	-0.041
-514.858	24.251	-0.091	-0.075
-513.843	-200.000	-0.011	-0.093
-512.829	800.000	0.046	-0.156
-511.814	-39.178	0.194	0.102
-510.799	42.391	0.106	0.097
-509.785	-7.681	0.122	0.083
-508.770	-173.168	-0.201	-0.006
-507.756	-200.000	-0.006	-0.322
-506.741	96.286	0.152	-0.174
-505.726	414.815	0.186	0.397
-504.712	-17.537	0.288	0.181
-503.697	800.000	-0.034	0.137
-502.683	-35.616	-0.140	0.076
-501.668	800.000	-0.122	0.442
-500.653	800.000	-0.046	-0.196
-499.639	25.397	0.188	-0.156
-498.624	-200.000	0.003	-0.176
-497.610	38.748	-0.162	-0.145
-496.595	-22.948	-0.054	0.032
-495.581	-200.000	-0.019	-0.293
-494.566	-26.989	0.103	0.060
-493.551	800.000	0.077	-0.282
-492.537	-109.092	0.422	-0.090
-491.522	-173.819	-0.192	-0.006
-490.508	-14.407	0.403	-0.259
-489.493	24.338	-0.106	-0.088
-488.478	800.000	-0.075	0.236
-487.464	-147.733	0.298	-0.025
-486.449	462.953	-0.119	0.267
-485.435	489.006	0.106	-0.242
-484.420	248.760	0.212	0.359
-483.405	-71.741	-0.259	-0.096
-482.391	-200.000	-0.045	0.253
-481.376	800.000	-0.036	0.108
-480.362	81.142	-0.141	0.152
-479.347	14.597	0.163	-0.127
-478.332	-200.000	0.011	0.193
-477.318	-73.340	-0.332	-0.121
-476.303	-172.054	0.361	-0.012
-475.289	-169.506	-0.294	-0.011
-474.274	109.101	-0.175	0.210
-473.259	29.268	0.091	0.077
-472.245	800.000	-0.012	-0.035
-471.230	325.038	0.091	0.175
-470.216	-200.000	0.001	0.155
-469.201	125.227	0.150	-0.188
-468.186	303.239	0.081	-0.149
-467.172	501.511	0.133	0.306
-466.157	77.892	0.024	0.026
-465.143	-200.000	0.016	-0.213
-464.128	596.366	0.142	0.351
-463.113	111.218	-0.067	0.081
-462.099	121.567	0.205	0.255
-461.084	-21.130	0.181	-0.111
-460.070	-29.463	0.366	0.209
-459.055	22.177	-0.293	0.239
-458.040	224.022	-0.023	-0.038
-457.026	-87.503	0.183	-0.055
-456.011	77.825	-0.061	-0.065
-454.997	226.568	-0.056	-0.091
-453.982	132.728	0.135	-0.174
-452.968	151.266	-0.077	-0.104
-451.953	800.000	0.074	0.274
-450.938	209.499	-0.190	0.297
-449.924	-200.000	-0.057	-0.319
-448.909	-33.548	-0.204	-0.112
-447.895	800.000	0.020	-0.080
-446.880	180.417	0.057	0.084
-445.865	-200.000	-0.052	-0.247
-444.851	74.545	0.020	-0.021
-443.836	88.663	-0.257	-0.286
-442.822	364.429	0.077	-0.155
-441.807	-200.000	-0.012	-0.099
-440.792	800.000	0.049	0.208
-439.778	292.710	-0.171	-0.311
-438.763	-97.881	0.320	-0.082
-437.749	316.105	0.102	0.193
-436.734	-200.000	-0.020	-0.213
-435.719	399.262	-0.033	-0.069
-434.705	44.433	0.169	-0.155
-433.690	800.000	0.074	-0.266
-432.676	-200.000	-0.048	-0.505
-431.661	-170.689	0.441	0.015
-430.646	-138.469	-0.377	0.041
-429.632	204.344	-0.013	0.021
-428.617	68.407	-0.094	0.096
-427.603	-104.087	-0.202	-0.047
-426.588	800.000	0.115	-0.353
-425.573	599.682	0.087	-0.216
-424.559	-33.930	0.150	-0.082
-423.544	-200.000	-0.044	0.264
-422.530	639.409	0.074	0.187
-421.515	-200.000	0.027	-0.130
-420.500	90.782	0.177	0.198
-419.486	-9.042	-0.171	0.114
-418.471	-114.247	0.179	-0.034
-417.457	-200.000	0.028	-0.206
-416.442	-16.971	0.165	-0.104
-415.428	-149.837	0.069	-0.005
-414.413	303.291	0.021	0.038
-413.398	369.626	0.063	-0.127
-412.384	-65.110	0.275	0.111
-411.369	-81.367	0.119	0.039
-410.355	769.717	0.030	-0.082
-409.340	-200.000	0.026	-0.236
-408.325	800.000	0.022	0.089
-407.311	-97.535	-0.329	0.085
-406.296	-143.168	0.223	-0.021
-405.282	492.554	-0.033	-0.075
-404.267	800.000	-0.087	-0.379
-403.252	-3.368	-0.274	-0.190
-402.238	77.184	0.221	0.234
-401.223	-200.000	0.008	0.046
-400.209	800.000	0.040	0.149
-399.194	-100.838	0.031	0.007
-398.179	74.513	-0.242	-0.254
-397.165	-200.000	0.013	-0.173
-396.150	198.485	-0.054	0.082
-395.136	-1.332	-0.150	0.105
-394.121	-105.372	0.055	-0.012
-393.106	791.905	0.130	0.356
-392.092	-164.618	0.185	-0.008
-391.077	222.034	0.111	0.177
-390.063	111.424	-0.120	0.144
-389.048	21.341	-0.073	-0.059
-388.033	-64.566	0.147	0.059
-387.019	-46.302	0.093	0.045
-386.004	215.531	-0.042	-0.067
-384.990	-116.062	-0.366	-0.068
-383.975	589.217	-0.178	0.436
-382.960	-200.000	-0.013	-0.293
-381.946	337.903	0.121	0.234
-380.931	-65.249	-0.177	-0.071
-379.917	275.966	0.129	0.228
-378.902	40.414	-0.167	0.150
-377.888	-200.000	0.054	-0.247
-376.873	-74.234	-0.253	0.091
-375.858	34.597	-0.183	-0.159
-374.844	800.000	0.095	0.311
-373.829	-200.000	-0.022	-0.150
-372.815	109.789	-0.269	-0.321
-371.800	800.000	-0.050	0.171
-370.785	-61.372	-0.251	-0.105
-369.771	-67.760	-0.129	-0.050
-368.756	164.769	-0.174	-0.245
-367.742	-163.852	0.352	-0.016
-366.727	351.458	0.065	-0.129
-365.712	410.719	0.044	0.093
-364.698	-71.562	-0.078	0.029
-363.683	-78.117	0.243	-0.083
-362.669	-200.000	0.017	-0.186
-361.654	1.382	0.212	-0.151
-360.639	-95.856	0.255	0.068
-359.625	800.000	-0.098	0.278
-358.610	-10.097	-0.266	-0.176
-357.596	68.329	0.124	0.127
-356.581	96.157	0.095	0.108
-355.566	204.632	0.125	-0.193
-354.552	738.676	0.065	-0.175
-353.537	94.205	-0.149	0.168
-352.523	-86.566	-0.130	-0.040
-351.508	78.800	-0.187	-0.199
-350.493	-124.955	0.250	-0.038
-349.479	-200.000	0.013	-0.387
-348.464	-58.781	-0.126	-0.054
-347.450	-200.000	-0.014	0.232
-346.435	141.338	0.131	0.173
-345.420	-70.144	0.144	-0.055
-344.406	800.000	0.020	0.065
-343.391	-200.000	0.026	-0.144
-342.377	71.067	0.149	0.154
-341.362	392.329	-0.059	-0.121
-340.348	-200.000	-0.008	0.074
-339.333	800.000	0.048	0.168
-338.318	10.143	-0.206	-0.156
-337.304	175.701	0.226	-0.325
-336.289	-185.887	0.206	-0.003
-335.275	57.133	0.087	0.084
-334.260	-75.330	-0.361	0.128
-333.245	-53.086	-0.153	-0.070
-332.231	800.000	-0.042	0.133
-331.216	47.754	-0.185	-0.172
-330.202	-200.000	-0.051	0.272
-329.187	68.060	0.264	0.268
-328.172	4.123	0.332	0.241
-327.158	-18.508	0.250	0.155
-326.143	14.809	0.133	0.104
-325.129	557.142	0.155	0.371
-324.114	-55.671	0.129	-0.058
-323.099	-165.079	0.029	0.001
-322.085	-200.000	0.057	0.324
-321.070	300.763	0.119	0.218
-320.056	374.282	-0.140	-0.282
-319.041	800.000	-0.105	-0.334
-318.026	-24.475	-0.064	-0.038
-317.012	-72.692	-0.207	0.076
-315.997	-11.542	-0.224	0.147
-314.983	89.428	0.173	-0.191
-313.968	-25.392	-0.139	-0.082
-312.953	-1.610	-0.197	-0.138
-311.939	-72.985	0.144	0.053
-310.924	123.965	-0.081	-0.101
-309.910	180.615	0.022	-0.032
-308.895	-8.955	0.122	0.081
-307.880	-76.983	-0.145	0.050
-306.866	3.762	0.152	0.110
-305.851	60.307	0.111	-0.109
-304.837	-72.579	-0.283	0.104
-303.822	719.736	-0.056	0.147
-302.807	-25.449	-0.391	-0.230
-301.793	10.153	0.093	-0.070
-300.778	139.561	-0.028	0.037
-299.764	48.017	0.120	-0.111
-298.749	-200.000	0.054	0.396
-297.735	-125.599	-0.167	0.025
-296.720	-127.961	0.513	0.073
-295.705	285.909	-0.042	-0.074
-294.691	800.000	0.146	0.459
-293.676	115.757	-0.073	0.089
-292.662	12.492	-0.131	0.101
-291.647	-141.935	0.116	-0.012
-290.632	-19.547	-0.100	0.062
-289.618	-95.461	-0.161	-0.043
-288.603	-49.563	-0.184	0.087
-287.589	-101.515	0.358	-0.086
-286.574	73.285	-0.177	0.184
-285.559	-93.619	0.172	-0.047
-284.545	800.000	0.020	-0.056
-283.530	28.734	-0.072	-0.060
-282.516	-136.371	-0.111	-0.013
-281.501	-146.092	-0.254	-0.022
-280.486	464.633	0.136	0.301
-279.472	-170.069	-0.179	-0.006
-278.457	-47.827	-0.287	-0.138
-277.443	31.708	0.384	0.328
-276.428	206.669	-0.212	0.327
-275.413	-164.283	-0.350	0.016
-274.399	417.158	0.036	-0.076
-273.384	800.000	0.064	0.267
-272.370	-138.448	0.081	-0.009
-271.355	-34.205	0.115	0.063
-270.340	108.053	-0.144	0.170
-269.326	-200.000	-0.022	0.145
-268.311	7.315	-0.113	-0.084
-267.297	-73.713	-0.224	-0.081
-266.282	86.439	-0.229	-0.250
-265.267	62.184	0.152	0.151
-264.253	-200.000	-0.034	-0.243
-263.238	-12.223	-0.106	0.069
-262.224	-74.436	-0.116	0.041
-261.209	102.789	-0.131	0.152
-260.195	-91.760	-0.076	-0.021
-259.180	30.142	-0.332	0.281
-258.165	-76.463	-0.212	-0.074
-257.151	-200.000	0.081	-0.374
-256.136	-137.363	-0.192	-0.022
-255.122	-200.000	0.045	-0.268
-254.107	230.758	0.100	-0.161
-253.092	23.742	0.093	-0.076
-252.078	90.844	0.147	0.163
-251.063	-115.234	-0.059	0.011
-250.049	189.859	0.153	0.227
-249.034	-81.900	-0.170	-0.055
-248.019	-68.155	-0.180	0.069
-247.005	-25.938	-0.172	-0.100
-245.990	123.611	0.240	0.298
-244.976	146.252	0.110	0.147
-243.961	4.689	-0.112	-0.082
-242.946	242.273	-0.070	0.115
-241.932	50.695	-0.288	-0.270
-240.917	-200.000	-0.007	0.227
-239.903	800.000	0.079	0.267
-238.888	-52.635	0.097	0.044
-237.873	92.701	0.321	0.358
-236.859	683.194	-0.060	0.156
-235.844	438.273	0.148	-0.320
-234.830	141.469	0.048	0.063
-233.815	172.461	-0.193	-0.274
-232.800	263.272	-0.170	-0.292
-231.786	141.347	-0.056	0.073
-230.771	493.872	0.191	0.434
-229.757	380.913	-0.102	-0.207
-228.742	-114.942	-0.359	-0.068
-227.727	-200.000	-0.004	-0.164
-226.713	393.032	0.143	0.294
-225.698	-88.265	-0.247	0.073
-224.684	92.775	-0.156	0.174
-223.669	-133.801	-0.145	0.018
-222.655	270.864	-0.036	-0.063
-221.640	-200.000	-0.008	0.036
-220.625	-41.016	0.166	-0.085
-219.611	254.526	-0.219	-0.371
-218.596	162.671	-0.040	-0.056
-217.582	42.686	-0.045	-0.041
-216.567	67.015	0.143	-0.145
-215.552	-52.972	0.184	0.084
-214.538	-79.419	-0.284	-0.095
-213.523	300.031	-0.084	-0.153
-212.509	-172.509	0.401	-0.013
-211.494	-65.663	0.250	-0.099
-210.479	-145.707	0.256	-0.023
-209.465	661.555	-0.023	-0.059
-208.450	23.556	-0.030	-0.024
-207.436	153.406	0.026	-0.036
-206.421	88.822	0.223	-0.246
-205.406	-65.986	-0.145	0.057
-204.392	-200.000	0.084	-0.390
-203.377	-37.679	0.261	0.137
-202.363	81.113	-0.161	-0.172
-201.348	-23.682	0.065	-0.038
-200.333	-200.000	-0.005	0.185
-199.319	-200.000	-0.002	-0.196
-198.304	-22.692	0.216	0.129
-197.290	240.548	-0.070	-0.116
-196.275	303.136	-0.223	-0.408
-195.260	269.017	0.019	-0.034
-194.246	-41.720	0.320	-0.162
-193.231	-14.749	0.183	-0.116
-192.217	332.901	0.185	0.353
-191.202	350.056	-0.193	-0.377
-190.187	355.699	-0.040	-0.079
-189.173	800.000	0.046	-0.144
-188.158	-88.370	0.125	0.037
-187.144	-82.088	-0.071	-0.023
-186.129	-144.550	0.098	0.009
-185.114	-94.648	-0.116	0.031
-184.100	117.598	-0.053	-0.065
-183.085	-81.493	-0.381	-0.124
-182.071	152.668	-0.229	-0.309
-181.056	800.000	-0.058	-0.213
-180.042	-80.625	0.237	0.078
-179.027	-200.000	0.055	-0.260
-178.012	-123.805	0.442	0.069
-176.998	800.000	-0.067	-0.286
-175.983	72.953	0.370	0.382
-174.969	571.410	-0.122	-0.293
-173.954	-200.000	0.005	0.184
-172.939	-39.764	-0.151	-0.078
-171.925	-19.828	-0.135	0.082
-170.910	-200.000	-0.026	-0.135
-169.896	258.567	-0.170	-0.290
-168.881	589.454	-0.019	0.047
-167.866	-105.205	0.203	-0.046
-166.852	-43.740	-0.405	-0.201
-165.837	192.868	0.138	-0.206
-164.823	57.083	0.188	-0.181
-163.808	-18.089	-0.421	-0.260
-162.793	800.000	0.066	0.255
-161.779	46.624	0.036	0.033
-160.764	800.000	-0.161	-0.654
-159.750	-15.405	-0.110	0.070
-158.735	131.910	0.130	-0.165
-157.720	-91.179	0.137	-0.039
-156.706	-93.138	0.182	-0.050
-155.691	-200.000	-0.023	-0.273
-154.677	-125.531	0.081	0.012
-153.662	-200.000	-0.022	-0.138
-152.647	-20.085	-0.231	0.141
-151.633	-200.000	0.035	0.242
-150.618	-200.000	-0.017	-0.154
-149.604	712.144	-0.068	0.178
-148.589	-77.173	0.226	-0.078
-147.574	290.755	-0.075	-0.135
-146.560	-40.261	-0.045	-0.023
-145.545	90.111	-0.299	-0.330
-144.531	-122.537	-0.045	-0.007
-143.516	800.000	0.022	-0.083
-142.502	38.713	-0.190	0.167
-141.487	-105.672	-0.337	0.075
-140.472	-106.475	-0.168	0.037
-139.458	-79.273	0.183	0.061
-138.443	121.670	0.149	-0.183
-137.429	-104.307	0.229	-0.052
-136.414	26.242	0.110	0.091
-135.399	355.770	0.089	0.175
-134.385	-37.844	0.242	0.127
-133.370	-3.677	0.061	0.041
-132.356	-77.000	0.292	-0.101
-131.341	-97.038	0.084	-0.022
-130.326	-200.000	-0.009	-0.076
-129.312	800.000	-0.062	-0.251
-128.297	9.847	0.096	0.072
-127.283	-86.528	0.275	-0.083
-126.268	249.044	-0.133	-0.222
-125.253	185.987	0.170	0.250
-124.239	379.701	-0.139	0.281
-123.224	800.000	0.025	0.073
-122.210	-124.392	-0.024	0.004
-121.195	602.949	0.123	-0.302
-120.180	-200.000	-0.034	-0.223
-119.166	-35.194	-0.034	0.018
-118.151	-106.358	-0.111	-0.024
-117.137	156.823	-0.042	-0.057
-116.122	-81.930	0.478	0.154
-115.107	-200.000	0.005	-0.136
-114.093	82.554	-0.138	0.148
-113.078	49.952	-0.206	0.191
-112.064	568.235	0.164	-0.393
-111.049	-200.000	0.012	-0.317
-110.034	-200.000	-0.017	-0.190
-109.020	383.177	-0.122	0.248
-108.005	-24.810	-0.156	0.091
-106.991	443.378	0.102	-0.221
-105.976	139.002	0.328	0.425
-104.962	569.805	0.108	0.260
-103.947	504.759	-0.209	0.476
-102.932	255.193	0.042	-0.071
-101.918	-200.000	-0.020	-0.198
-100.903	-84.810	0.215	-0.067
-99.889	143.826	0.233	0.306
-98.874	377.441	0.081	0.162
-97.859	552.206	0.066	-0.156
-96.845	-48.884	-0.269	0.127
-95.830	-200.000	-0.030	0.133
-94.816	-61.396	0.169	0.070
-93.801	94.591	0.111	0.124
-92.786	252.408	0.255	0.427
-91.772	611.769	-0.077	-0.188
-90.757	800.000	0.072	0.218
-89.743	-122.395	-0.308	-0.049
-88.728	163.794	0.209	-0.290
-87.713	-41.369	0.213	-0.108
-86.699	105.765	0.137	-0.160
-85.684	-36.050	-0.317	-0.168
-84.670	475.779	0.191	-0.424
-83.655	-63.700	-0.389	-0.157
-82.640	798.649	0.139	0.378
-81.626	-200.000	0.023	0.190
-80.611	111.260	0.366	-0.434
-79.597	490.172	-0.052	0.117
-78.582	232.545	-0.113	0.183
-77.567	452.142	-0.204	0.444
-76.553	800.000	-0.116	0.345
-75.538	108.346	-0.285	0.335
-74.524	93.207	0.121	0.134
-73.509	-103.087	-0.024	-0.006
-72.494	359.719	-0.032	0.063
-71.480	339.811	0.067	-0.128
-70.465	-200.000	-0.003	-0.169
-69.451	709.449	0.048	0.124
-68.436	65.021	-0.226	0.224
-67.422	-200.000	0.012	-0.191
-66.407	-87.905	-0.112	-0.033
-65.392	-200.000	-0.023	0.340
-64.378	76.791	0.206	0.215
-63.363	-137.694	0.096	0.011
-62.349	-108.215	0.034	0.007
-61.334	16.297	-0.971	-0.753
-60.319	84.776	0.352	0.379
-59.305	-200.000	-0.167	-1.120
-58.290	445.483	0.616	1.330
-57.276	324.900	0.873	1.641
-56.261	-200.000	102.881	565.914
-55.246	459.658	1454.598	3183.567
-54.232	148.678	2644.830	3513.569
-53.217	108.326	2167.765	2542.755
-52.203	41.977	1608.711	1434.860
-51.188	33.610	1342.799	1147.292
-50.173	30.347	1301.032	1092.396
-49.159	53.444	1352.223	1274.500
-48.144	54.397	1368.274	1295.293
-47.130	33.636	1325.199	1132.228
-46.115	30.178	1306.888	1096.141
-45.100	29.891	1302.332	1090.583
-44.086	29.970	1299.912	1088.982
-43.071	29.824	1297.812	1086.318
-42.057	29.921	1295.012	1084.502
-41.042	29.864	1293.935	1083.222
-40.027	29.928	1291.985	1081.919
-39.013	29.942	1290.186	1080.456
-37.998	30.045	1288.167	1079.318
-36.984	30.121	1286.801	1078.577
-35.969	30.016	1284.980	1076.397
-34.954	30.009	1283.451	1075.031
-33.940	29.980	1282.441	1073.972
-32.925	30.160	1280.834	1073.629
-31.911	30.119	1279.162	1071.949
-30.896	30.096	1277.854	1070.675
-29.881	30.207	1276.093	1069.798
-28.867	30.040	1275.425	1068.235
-27.852	30.173	1273.327	1067.200
-26.838	30.131	1272.196	1065.970
-25.823	30.128	1270.798	1064.735
-24.809	30.145	1269.445	1063.657
-23.794	30.124	1268.365	1062.593
-22.779	29.973	1267.295	1060.788
-21.765	30.085	1265.919	1060.236
-20.750	30.078	1264.379	1058.861
-19.736	29.951	1263.176	1057.088
-18.721	30.015	1261.987	1056.416
-17.706	29.950	1260.768	1054.982
-16.692	29.993	1260.020	1054.558
-15.677	29.922	1258.753	1053.056
-14.663	29.964	1257.371	1052.093
-13.648	29.881	1256.560	1050.906
-12.633	29.868	1255.771	1050.126
-11.619	29.926	1254.130	1049.043
-10.604	30.099	1253.297	1049.285
-9.590	29.830	1252.901	1047.390
-8.575	29.938	1251.536	1046.817
-7.560	29.936	1250.669	1046.035
-6.546	29.999	1249.536	1045.403
-5.531	29.913	1249.224	1044.618
-4.517	29.909	1248.367	1043.835
-3.502	29.877	1247.679	1043.041
-2.487	29.975	1246.623	1042.669
-1.473	29.960	1242.160	1038.806
-0.458	28.657	1227.980	1019.675
0.556	23.597	1210.975	982.927
1.571	20.079	1215.830	967.181
2.586	18.921	1231.185	972.761
3.600	18.759	1220.238	963.114
4.615	13.959	1147.390	880.164
5.629	4.923	1071.237	776.799
6.644	0.516	1051.159	740.583
7.659	0.085	1049.207	737.033
8.673	-0.011	1047.988	735.641
9.688	0.080	1046.552	735.011
10.702	0.307	1044.711	734.760
11.717	5.772	1051.736	766.402
12.731	14.195	1063.157	816.131
13.746	17.679	1065.895	835.261
14.761	17.025	1064.798	831.126
15.775	15.992	1063.220	824.765
16.790	14.978	1061.103	818.093
17.804	14.377	1059.404	813.775
18.819	13.817	1058.710	810.438
19.834	13.730	1057.484	809.004
20.848	13.444	1056.469	806.764
21.863	13.191	1055.661	804.841
22.877	13.143	1054.919	803.973
23.892	13.176	1053.914	803.294
24.907	13.050	1053.630	802.392
25.921	13.082	1052.950	801.959
26.936	13.056	1052.131	801.139
27.950	13.116	1051.033	800.523
28.965	13.236	1049.745	800.051
29.980	13.201	1048.847	799.128
30.994	13.299	1047.234	798.304
32.009	13.236	1047.217	797.916
33.023	13.379	1045.367	797.122
34.038	13.239	1044.653	795.833
35.053	13.221	1044.570	795.615
36.067	13.257	1043.010	794.527
37.082	13.223	1042.364	793.804
38.096	13.295	1041.939	793.753
39.111	13.117	1041.442	792.452
40.126	13.142	1039.590	791.091
41.140	13.125	1038.436	790.062
42.155	13.035	1037.455	788.818
43.169	13.028	1036.406	787.915
44.184	12.982	1035.136	786.663
45.199	13.043	1034.486	786.388
46.213	13.105	1033.918	786.183
47.228	13.230	1032.245	785.432
48.242	13.174	1031.289	784.372
49.257	13.117	1030.527	783.452
50.271	13.137	1029.871	782.978
51.286	13.083	1028.764	781.813
52.301	13.128	1027.547	781.029
53.315	13.112	1026.693	780.236
54.330	13.078	1025.794	779.323
55.344	13.166	1024.597	778.762
56.359	13.095	1023.904	777.831
57.374	13.045	1023.165	776.967
58.388	13.151	1021.852	776.396
59.403	12.968	1021.390	775.117
60.417	12.966	1020.510	774.372
61.432	12.923	1019.989	773.706
62.447	13.019	1019.043	773.371
63.461	12.951	1018.017	772.205
64.476	13.020	1017.079	771.747
65.490	12.994	1016.113	770.824
66.505	13.047	1015.517	770.551
67.520	13.080	1014.757	770.062
68.534	13.076	1014.330	769.651
69.549	12.987	1013.621	768.632
70.563	12.986	1012.693	767.853
71.578	12.881	1012.491	767.145
72.593	12.927	1011.262	766.358
73.607	12.871	1010.685	765.592
74.622	12.917	1010.161	765.341
75.636	12.810	1009.560	764.324
76.651	12.954	1008.551	764.157
77.666	12.964	1008.139	763.825
78.680	12.958	1007.610	763.329
79.695	12.942	1006.538	762.376
80.709	12.981	1005.926	762.027
81.724	13.090	1005.562	762.184
82.739	13.130	1004.665	761.621
83.753	13.027	1004.286	760.793
84.768	13.297	1002.796	760.837
85.782	13.266	1002.075	760.081
86.797	13.084	1001.521	758.759
87.812	13.091	1000.757	758.146
88.826	13.123	999.772	757.477
89.841	13.210	998.541	756.875
90.855	13.179	997.889	756.174
91.870	13.120	996.878	755.070
92.884	13.267	995.939	754.964
93.899	13.270	995.465	754.554
94.914	13.352	994.137	753.852
95.928	13.378	993.733	753.598
96.943	13.253	992.763	752.228
97.957	13.264	992.002	751.635
98.972	13.206	991.057	750.589
99.987	13.232	990.137	749.942
101.001	13.160	989.066	748.740
102.016	13.145	988.575	748.231
103.030	13.327	987.366	748.073
104.045	13.097	987.378	746.977
105.060	13.180	986.175	746.375
106.074	13.272	985.017	745.848
107.089	13.103	984.361	744.524
108.103	13.045	983.242	743.351
109.118	13.146	982.408	743.107
110.133	13.049	981.321	741.787
111.147	13.171	980.631	741.746
112.162	13.202	979.664	741.087
113.176	13.247	979.139	740.827
114.191	13.210	978.845	740.373
115.206	13.269	977.488	739.546
116.220	13.211	976.594	738.543
117.235	13.183	975.976	737.888
118.249	13.223	974.972	737.239
119.264	13.215	974.230	736.577
120.279	13.250	973.241	735.920
121.293	13.123	972.559	734.776
122.308	13.138	971.496	733.972
123.322	13.132	970.592	733.198
124.337	13.084	969.669	732.223
125.352	13.081	968.322	731.131
126.366	13.107	967.468	730.536
127.381	13.136	966.374	729.772
128.395	13.315	965.526	729.855
129.410	13.144	964.948	728.600
130.424	13.250	964.191	728.430
131.439	13.262	963.216	727.684
132.454	13.313	962.267	727.126
133.468	13.152	961.984	726.142
134.483	13.235	960.901	725.625
135.497	13.265	960.171	725.142
136.512	13.232	959.369	724.325
137.527	13.262	958.331	723.610
138.541	13.191	957.724	722.775
139.556	13.325	956.664	722.496
140.570	13.198	956.483	721.742
141.585	13.289	955.314	721.195
142.600	13.433	954.357	721.036
143.614	13.312	953.718	719.960
144.629	13.395	953.099	719.792
145.643	13.300	952.190	718.631
146.658	13.344	951.107	717.937
147.673	13.406	949.893	717.226
148.687	13.300	949.465	716.382
149.702	13.419	948.174	715.858
150.716	13.133	947.909	714.357
151.731	13.380	946.953	714.641
152.746	13.406	946.640	714.457
153.760	13.368	946.043	713.776
154.775	13.383	945.537	713.399
155.789	13.317	944.646	712.378
156.804	13.473	943.700	712.274
157.819	13.570	942.978	712.080
158.833	13.478	942.901	711.565
159.848	13.509	942.005	710.958
160.862	13.450	940.852	709.773
161.877	13.516	939.625	709.065
162.892	13.392	938.751	707.813
163.906	13.343	938.019	706.992
164.921	13.466	936.789	706.524
165.935	13.512	936.151	706.177
166.950	13.411	935.836	705.449
167.964	13.473	934.642	704.748
168.979	13.334	933.861	703.508
169.994	13.407	933.291	703.324
171.008	13.590	932.162	703.188
172.023	13.603	931.207	702.461
173.037	13.685	930.900	702.517
174.052	13.611	930.280	701.670
175.067	13.647	929.111	700.881
176.081	13.426	928.833	699.672
177.096	13.526	929.327	700.409
178.110	13.627	928.129	699.869
179.125	13.615	927.104	698.983
180.140	13.625	927.169	699.013
181.154	13.476	926.708	697.975
182.169	13.689	925.663	698.025
183.183	13.748	924.942	697.665
184.198	13.691	924.379	696.940
185.213	13.834	923.478	696.801
186.227	13.905	922.941	696.630
187.242	13.899	922.241	696.017
188.256	13.914	921.815	695.694
189.271	13.755	921.248	694.538
190.286	13.712	920.148	693.471
191.300	13.513	919.857	692.358
192.315	13.593	919.026	692.005
193.329	13.606	918.356	691.491
194.344	13.629	917.682	691.022
195.359	13.776	917.187	691.199
196.373	13.769	916.621	690.683
197.388	13.854	916.334	690.759
198.402	13.981	915.198	690.367
199.417	13.970	914.863	690.009
200.432	13.989	914.525	689.771
201.446	14.070	914.298	689.875
202.461	14.067	913.645	689.311
203.475	14.064	912.861	688.645
204.490	14.107	912.066	688.162
205.504	14.085	910.931	687.155
206.519	13.972	910.461	686.270
207.534	13.985	909.851	685.804
208.548	13.967	909.470	685.381
209.563	14.025	908.788	685.047
210.577	14.077	907.694	684.377
211.592	14.160	907.025	684.154
212.607	14.139	906.374	683.513
213.621	14.130	905.787	682.976
214.636	14.053	905.018	682.017
215.650	14.118	904.275	681.663
216.665	14.123	903.558	681.086
217.680	14.154	902.727	680.526
218.694	14.191	902.384	680.356
219.709	14.191	901.838	679.884
220.723	14.094	901.054	678.837
221.738	14.238	900.293	678.790
222.753	14.167	899.906	678.152
223.767	14.344	899.137	678.231
224.782	14.379	898.411	677.766
225.796	14.298	898.180	677.201
226.811	14.312	897.523	676.704
227.826	14.327	896.673	676.066
228.840	14.183	896.134	675.014
229.855	14.233	895.287	674.520
230.869	14.356	894.487	674.354
231.884	14.352	894.096	673.985
232.899	14.229	893.270	672.802
233.913	14.253	892.544	672.295
234.928	14.308	891.847	671.931
235.942	14.306	891.303	671.456
236.957	14.346	890.935	671.277
237.972	14.244	890.331	670.356
238.986	14.265	889.589	669.820
240.001	14.394	888.777	669.670
241.015	14.399	888.454	669.388
242.030	14.471	887.563	668.943
243.045	14.605	886.716	668.784
244.059	14.374	886.594	667.708
245.074	14.532	885.973	667.814
246.088	14.624	885.131	667.487
247.103	14.529	884.738	666.752
248.117	14.586	884.232	666.540
249.132	14.658	883.085	665.903
250.147	14.716	882.384	665.546
251.161	14.685	882.532	665.477
252.176	14.667	881.739	664.746
253.190	14.683	881.380	664.480
254.205	14.804	880.397	664.162
255.220	14.766	879.687	663.417
256.234	14.901	878.853	663.264
257.249	14.947	878.250	662.933
258.263	14.858	877.613	662.044
259.278	14.871	876.879	661.482
260.293	14.894	876.517	661.242
261.307	14.841	876.089	660.651
262.322	14.959	875.189	660.379
263.336	14.963	874.161	659.560
264.351	15.088	873.411	659.427
265.366	15.140	872.694	659.032
266.380	14.936	872.775	658.233
267.395	15.039	871.866	657.895
268.409	14.923	871.435	657.054
269.424	15.102	870.118	656.705
270.439	14.973	869.800	655.901
271.453	15.058	868.913	655.508
272.468	15.090	868.543	655.297
273.482	15.046	867.941	654.611
274.497	14.994	867.401	653.943
275.512	15.116	866.681	653.821
276.526	15.098	866.447	653.516
277.541	15.046	866.059	652.959
278.555	15.120	865.397	652.692
279.570	15.221	864.549	652.387
280.585	15.138	864.000	651.596
281.599	15.328	862.831	651.391
282.614	15.290	862.402	650.863
283.628	15.191	861.852	650.007
284.643	15.231	861.337	649.716
285.657	15.355	860.609	649.591
286.672	15.302	860.002	648.868
287.687	15.238	859.400	648.111
288.701	15.284	859.094	647.998
289.716	15.140	858.518	646.952
290.730	15.257	857.813	646.814
291.745	15.325	856.947	646.366
292.760	15.330	856.458	645.961
293.774	15.331	855.897	645.484
294.789	15.465	855.324	645.508
295.803	15.506	854.373	644.892
296.818	15.423	853.853	644.122
297.833	15.477	853.023	643.648
298.847	15.435	852.707	643.191
299.862	15.341	852.077	642.300
300.876	15.556	851.271	642.458
301.891	15.646	850.723	642.333
302.906	15.501	850.342	641.431
303.920	15.561	850.156	641.465
304.935	15.739	849.122	641.308
305.949	15.568	848.632	640.227
306.964	15.597	848.177	639.939
307.979	15.647	847.821	639.805
308.993	15.704	846.890	639.262
310.008	15.764	846.389	639.053
311.022	15.704	845.729	638.271
312.037	15.813	844.907	638.008
313.052	15.758	844.103	637.136
314.066	15.628	843.693	636.278
315.081	15.789	843.480	636.671
316.095	15.738	842.628	635.777
317.110	15.642	842.468	635.237
318.125	15.700	842.047	635.084
319.139	15.616	841.349	634.183
320.154	15.671	841.127	634.168
321.168	15.673	840.525	633.665
322.183	15.745	839.797	633.332
323.197	15.889	838.942	633.174
324.212	15.748	838.819	632.495
325.227	15.773	838.120	632.005
326.241	15.798	837.480	631.560
327.256	15.771	836.948	631.001
328.270	15.749	836.740	630.705
329.285	15.759	836.213	630.293
330.300	15.899	834.884	629.757
331.314	15.810	834.780	629.290
332.329	15.814	834.195	628.809
333.343	15.959	833.706	628.927
334.358	15.840	833.611	628.353
335.373	15.979	833.339	628.611
336.387	16.041	832.813	628.389
337.402	16.032	832.287	627.905
338.416	15.975	832.223	627.590
339.431	16.166	831.584	627.763
340.446	16.163	831.160	627.377
341.460	16.137	830.616	626.814
342.475	16.191	830.382	626.782
343.489	16.190	830.132	626.532
344.504	16.203	829.463	626.021
345.519	16.374	828.695	626.019
346.533	16.214	828.565	625.274
347.548	16.283	827.595	624.742
348.562	16.088	827.550	623.931
349.577	16.148	826.641	623.412
350.592	15.973	826.634	622.706
351.606	16.136	825.441	622.354
352.621	16.238	824.698	622.114
353.635	16.092	824.572	621.424
354.650	16.109	823.858	620.892
355.665	16.312	822.773	620.770
356.679	16.265	822.261	620.155
357.694	16.158	821.593	619.202
358.708	16.381	821.247	619.705
359.723	16.473	820.294	619.268
360.738	16.313	819.907	618.335
361.752	16.399	819.388	618.203
362.767	16.568	819.062	618.522
363.781	16.575	818.334	617.945
364.796	16.508	817.948	617.354
365.810	16.600	817.627	617.390
366.825	16.488	817.647	616.942
367.840	16.674	816.639	616.807
368.854	16.518	816.234	615.877
369.869	16.613	815.958	615.958
370.883	16.415	815.918	615.154
371.898	16.702	815.015	615.463
372.913	16.709	814.454	615.010
373.927	16.703	814.183	614.728
374.942	16.611	813.925	614.146
375.956	16.793	813.267	614.254
376.971	16.897	812.710	614.157
377.986	16.684	812.759	613.368
379.000	16.913	811.522	613.209
380.015	16.885	811.067	612.710
381.029	16.880	810.971	612.565
382.044	16.852	810.355	611.943
383.059	16.972	809.694	611.823
384.073	16.838	809.001	610.764
385.088	16.853	808.663	610.507
386.102	16.805	808.096	609.853
387.117	16.807	807.578	609.415
388.132	16.824	806.852	608.875
389.146	16.886	806.340	608.658
390.161	16.880	806.065	608.372
391.175	16.964	805.155	607.934
392.190	17.059	804.654	607.840
393.205	16.896	804.572	607.143
394.219	17.024	803.717	606.902
395.234	16.915	803.650	606.408
396.248	16.909	803.229	606.015
397.263	17.011	802.482	605.761
398.278	17.092	802.403	605.938
399.292	16.982	801.854	605.076
400.307	17.004	801.427	604.778
401.321	17.115	801.078	604.859
402.336	16.870	800.721	603.662
403.350	16.887	800.202	603.279
404.365	17.055	799.653	603.409
405.380	17.124	799.300	603.335
406.394	17.109	798.970	602.978
407.409	17.199	798.086	602.575
408.423	17.163	798.355	602.599
409.438	17.114	797.875	602.009
410.453	17.332	796.876	601.976
411.467	17.159	797.093	601.472
412.482	17.328	796.398	601.491
413.496	17.317	795.903	601.028
414.511	17.306	795.766	600.830
415.526	17.314	795.519	600.621
416.540	17.322	794.379	599.733
417.555	17.333	794.355	599.701
418.569	17.384	794.033	599.585
419.584	17.391	793.476	599.136
420.599	17.389	793.176	598.851
421.613	108.894	1289.624	1465.653
422.628	93.532	1361.942	1465.737
