DTS Sentinel unit serial number:	SN413079Multiplexer serial number:	ORYXHardware model number:	OX4-SRSoftware version number:	ORYX F/W v4.00 Oryx Data Collector v3.7.2.0data status	okinstallation	princeton_trtdifferential loss correction	single-endedforward channel	channel 1reverse channel	N/Adate	2019/09/14time	05:38:35forward acquisition time	60.00reverse acquisition time	0.00gamma	496.2192k internal	0.2334k external	0.2334temperature offset calibration	1.0083default loss term (dB/km)	0.3790temperature slope calibration	1.0000multiplexer offset coefficient	1.0000multiplexer slope coefficient	1.0000fibre end	0.00T internal ref (°C)	26.94T ext. ref 1 (°C)	3.40T ext. ref 2 (°C)	21.77length (m)	temperature (°C)	Stokes	anti-Stokes-747.200	252.848	0.055	0.094
-746.185	800.000	-0.079	0.277
-745.171	55.288	0.173	-0.168
-744.156	800.000	-0.070	-0.210
-743.142	800.000	0.069	0.298
-742.127	58.807	0.048	0.048
-741.112	-200.000	-0.036	0.162
-740.098	67.849	0.261	-0.269
-739.083	32.505	-0.062	-0.054
-738.069	-35.831	-0.161	0.088
-737.054	-19.664	0.227	0.141
-736.039	94.425	-0.073	0.084
-735.025	-111.796	0.425	-0.086
-734.010	254.590	0.043	0.073
-732.996	-129.933	-0.474	0.065
-731.981	75.592	0.245	-0.260
-730.966	-104.871	-0.148	-0.034
-729.952	800.000	-0.093	0.259
-728.937	716.743	0.050	0.132
-727.923	-200.000	-0.006	-0.035
-726.908	503.923	0.058	0.134
-725.894	59.878	0.281	-0.279
-724.879	89.244	-0.152	-0.170
-723.864	-179.800	-0.544	-0.012
-722.850	-57.152	-0.210	0.093
-721.835	-51.459	0.049	0.023
-720.821	78.151	0.248	-0.266
-719.806	42.470	0.215	-0.196
-718.791	222.135	0.121	-0.196
-717.777	89.607	0.097	-0.108
-716.762	-77.934	-0.135	0.047
-715.748	-28.804	0.317	-0.183
-714.733	-74.166	0.205	0.075
-713.718	-200.000	-0.055	-0.244
-712.704	800.000	0.121	-0.484
-711.689	-200.000	-0.003	-0.126
-710.675	511.087	-0.036	0.085
-709.660	91.260	-0.043	0.048
-708.645	89.167	0.382	-0.427
-707.631	148.417	0.057	0.077
-706.616	800.000	-0.069	-0.222
-705.602	800.000	-0.027	0.095
-704.587	51.572	0.191	-0.183
-703.572	-180.337	0.247	0.005
-702.558	321.800	0.022	0.041
-701.543	-129.497	-0.310	-0.043
-700.529	-200.000	-0.061	-0.361
-699.514	-176.038	-0.189	0.005
-698.499	68.775	-0.097	0.100
-697.485	77.337	0.129	0.137
-696.470	73.724	0.190	-0.199
-695.456	368.710	-0.030	-0.061
-694.441	-58.209	-0.070	0.031
-693.426	-146.256	-0.165	0.015
-692.412	85.680	-0.224	0.247
-691.397	297.926	-0.087	-0.161
-690.383	-23.608	-0.056	-0.034
-689.368	-80.262	0.368	-0.123
-688.354	13.893	0.138	-0.108
-687.339	-200.000	0.081	-0.394
-686.324	800.000	0.066	-0.199
-685.310	-128.141	0.032	0.005
-684.295	316.419	-0.065	0.124
-683.281	-128.764	0.450	-0.064
-682.266	-182.474	-0.025	-0.000
-681.251	-160.528	0.166	0.009
-680.237	-34.511	0.037	0.020
-679.222	800.000	-0.166	-0.493
-678.208	-200.000	-0.017	-0.301
-677.193	-200.000	0.298	0.000
-676.178	-21.180	-0.151	0.092
-675.164	-14.314	-0.182	0.117
-674.149	528.249	0.105	0.248
-673.135	163.220	-0.095	0.133
-672.120	-200.000	-0.019	0.137
-671.105	-98.514	0.137	-0.035
-670.091	-200.000	0.080	0.367
-669.076	-200.000	0.053	-0.256
-668.062	193.822	0.080	-0.121
-667.047	184.171	0.122	-0.181
-666.032	-181.425	0.121	-0.002
-665.018	-178.159	0.265	-0.006
-664.003	-55.794	0.256	-0.115
-662.989	50.081	0.198	-0.188
-661.974	-200.000	0.010	-0.149
-660.959	346.120	-0.064	-0.127
-659.945	800.000	0.076	0.273
-658.930	-200.000	0.001	0.038
-657.916	-200.000	0.012	-0.154
-656.901	295.476	0.037	0.069
-655.886	54.491	0.100	0.097
-654.872	-125.517	0.201	0.031
-653.857	197.113	0.111	-0.170
-652.843	-149.681	-0.238	-0.019
-651.828	610.697	0.169	-0.423
-650.814	143.933	0.084	0.112
-649.799	800.000	0.056	-0.182
-648.784	66.078	-0.222	-0.226
-647.770	175.528	-0.057	-0.083
-646.755	-46.748	0.086	-0.042
-645.741	800.000	0.051	0.162
-644.726	556.435	0.057	-0.138
-643.711	-200.000	-0.023	0.184
-642.697	140.380	-0.220	-0.290
-641.682	-121.401	0.088	0.015
-640.668	-50.457	0.167	0.079
-639.653	-41.272	-0.184	-0.095
-638.638	-200.000	0.015	-0.181
-637.624	606.604	0.071	0.178
-636.609	-2.918	-0.329	-0.230
-635.595	161.873	-0.036	0.050
-634.580	-200.000	0.014	-0.200
-633.565	-31.034	-0.197	0.111
-632.551	-200.000	-0.008	0.299
-631.536	-200.000	-0.030	-0.240
-630.522	-51.697	-0.114	-0.053
-629.507	-200.000	0.015	-0.068
-628.492	27.234	0.085	0.071
-627.478	-139.479	0.269	-0.029
-626.463	-200.000	0.010	-0.213
-625.449	68.272	-0.177	0.182
-624.434	-26.863	0.184	0.108
-623.419	-104.238	-0.074	-0.017
-622.405	361.368	0.194	-0.389
-621.390	586.025	-0.137	-0.336
-620.376	-200.000	0.006	-0.120
-619.361	26.590	0.098	-0.082
-618.346	-55.942	-0.180	-0.081
-617.332	-139.058	0.093	0.010
-616.317	72.011	-0.168	-0.175
-615.303	114.323	-0.056	-0.068
-614.288	-200.000	0.036	-0.268
-613.273	-200.000	0.006	-0.188
-612.259	88.560	0.075	-0.084
-611.244	257.834	0.088	-0.152
-610.230	-128.521	-0.206	-0.029
-609.215	-136.815	-0.417	-0.048
-608.201	161.225	0.159	-0.222
-607.186	-119.808	-0.124	-0.021
-606.171	189.904	-0.086	-0.130
-605.157	23.655	-0.189	0.156
-604.142	-102.664	-0.195	0.047
-603.128	-54.570	0.428	-0.193
-602.113	176.151	0.039	0.057
-601.098	686.984	-0.052	-0.137
-600.084	642.117	0.087	-0.221
-599.069	-84.218	0.153	-0.049
-598.055	-92.727	-0.258	0.072
-597.040	-88.225	-0.069	-0.020
-596.025	200.090	-0.048	0.074
-595.011	-40.407	0.211	-0.109
-593.996	-7.357	-0.269	0.182
-592.982	-166.663	-0.312	-0.013
-591.967	-163.793	0.240	0.011
-590.952	88.171	-0.155	0.172
-589.938	21.436	0.131	0.107
-588.923	166.229	0.127	-0.180
-587.909	-200.000	0.025	-0.259
-586.894	59.313	-0.233	-0.230
-585.879	742.915	-0.040	-0.108
-584.865	-14.615	-0.183	0.117
-583.850	-200.000	-0.015	0.276
-582.836	397.225	-0.066	0.139
-581.821	334.314	0.106	-0.204
-580.806	118.072	0.276	-0.339
-579.792	-200.000	0.012	0.212
-578.777	54.363	-0.176	0.169
-577.763	-89.267	-0.192	-0.056
-576.748	34.780	0.202	-0.176
-575.733	61.642	-0.164	-0.163
-574.719	438.879	-0.125	-0.273
-573.704	-154.249	-0.072	0.005
-572.690	800.000	-0.056	0.165
-571.675	800.000	-0.068	-0.272
-570.661	-2.009	-0.246	-0.173
-569.646	800.000	-0.164	-0.506
-568.631	18.881	-0.073	0.058
-567.617	513.560	0.045	-0.105
-566.602	-50.289	0.094	0.044
-565.588	286.207	-0.114	0.206
-564.573	167.270	-0.112	0.158
-563.558	144.044	0.295	-0.393
-562.544	-0.316	-0.174	-0.124
-561.529	167.179	0.145	-0.206
-560.515	-200.000	-0.009	-0.102
-559.500	23.402	-0.240	-0.197
-558.485	482.241	-0.064	-0.144
-557.471	543.036	-0.133	0.316
-556.456	17.954	0.134	-0.107
-555.442	127.418	-0.128	-0.162
-554.427	800.000	0.028	-0.105
-553.412	-200.000	0.040	-0.226
-552.398	-200.000	-0.018	-0.089
-551.383	-200.000	0.027	-0.237
-550.369	533.243	0.036	0.085
-549.354	-132.123	0.289	-0.037
-548.339	-50.938	-0.251	0.117
-547.325	-161.726	-0.399	0.020
-546.310	-26.043	-0.123	0.072
-545.296	42.353	0.334	0.302
-544.281	-200.000	0.007	0.186
-543.266	-19.838	-0.244	-0.151
-542.252	790.701	-0.106	-0.290
-541.237	161.168	0.094	0.130
-540.223	134.439	-0.092	0.119
-539.208	-77.790	-0.201	-0.069
-538.193	369.326	-0.076	0.153
-537.179	800.000	-0.068	0.231
-536.164	-56.598	-0.335	0.148
-535.150	284.635	0.208	-0.372
-534.135	687.967	0.032	-0.084
-533.121	-56.195	-0.111	0.049
-532.106	8.729	-0.053	0.040
-531.091	59.900	0.072	-0.071
-530.077	-99.654	-0.235	0.059
-529.062	-200.000	-0.013	0.142
-528.048	-200.000	0.025	-0.121
-527.033	800.000	0.049	-0.161
-526.018	513.432	-0.074	-0.172
-525.004	44.112	-0.289	-0.264
-523.989	176.374	-0.149	-0.216
-522.975	337.631	0.106	-0.204
-521.960	-44.678	0.221	-0.110
-520.945	-36.322	-0.397	0.213
-519.931	138.802	0.145	-0.190
-518.916	157.576	0.196	0.270
-517.902	-200.000	-0.033	0.151
-516.887	304.706	0.128	0.237
-515.872	-58.623	0.038	0.016
-514.858	800.000	0.137	0.409
-513.843	-200.000	-0.051	0.294
-512.829	800.000	0.059	-0.250
-511.814	744.939	-0.114	0.305
-510.799	-151.021	-0.192	-0.014
-509.785	-58.165	0.145	-0.063
-508.770	-200.000	0.032	0.208
-507.756	127.533	-0.130	-0.164
-506.741	-177.207	0.187	-0.005
-505.726	-18.097	0.175	-0.109
-504.712	349.718	-0.068	-0.133
-503.697	251.605	0.052	-0.088
-502.683	-107.586	-0.157	0.034
-501.668	87.544	0.222	0.244
-500.653	-86.644	0.077	0.024
-499.639	-23.299	0.281	-0.168
-498.624	700.186	0.141	-0.369
-497.610	-56.016	-0.238	-0.106
-496.595	800.000	0.054	0.222
-495.581	-200.000	0.001	-0.066
-494.566	145.802	0.139	0.186
-493.551	454.541	0.056	0.124
-492.537	182.494	-0.173	0.254
-491.522	800.000	0.046	0.180
-490.508	800.000	-0.057	-0.216
-489.493	-200.000	-0.020	-0.156
-488.478	800.000	-0.087	-0.244
-487.464	800.000	-0.072	0.228
-486.449	-90.042	-0.409	-0.119
-485.435	7.136	-0.306	-0.227
-484.420	-36.380	-0.040	0.022
-483.405	86.944	-0.160	-0.176
-482.391	-102.778	-0.273	0.065
-481.376	-116.477	0.293	0.054
-480.362	120.445	0.270	-0.334
-479.347	-200.000	0.012	0.150
-478.332	-17.664	0.091	0.057
-477.318	-117.994	-0.239	-0.042
-476.303	-200.000	-0.001	0.185
-475.289	-54.593	0.114	-0.051
-474.274	800.000	-0.075	-0.232
-473.259	49.720	-0.178	-0.166
-472.245	-180.215	-0.418	0.009
-471.230	-107.480	0.103	0.022
-470.216	448.762	0.057	-0.125
-469.201	-144.946	-0.128	-0.012
-468.186	-164.279	0.160	-0.007
-467.172	-200.000	0.018	0.209
-466.157	-128.154	0.387	-0.055
-465.143	69.195	-0.091	-0.093
-464.128	-69.216	0.352	-0.135
-463.113	-43.244	0.203	-0.102
-462.099	468.546	-0.060	0.134
-461.084	69.678	-0.083	0.085
-460.070	800.000	0.094	-0.374
-459.055	33.305	-0.187	0.162
-458.040	-14.408	0.157	-0.100
-457.026	77.153	0.041	-0.043
-456.011	-74.732	-0.063	-0.023
-454.997	-62.892	0.314	-0.129
-453.982	-99.086	0.257	0.065
-452.968	-200.000	0.003	0.201
-451.953	-114.923	-0.159	0.030
-450.938	-200.000	-0.033	0.247
-449.924	-103.846	0.420	-0.098
-448.909	445.508	-0.061	-0.134
-447.895	-200.000	0.013	0.149
-446.880	-136.699	-0.452	0.052
-445.865	-46.202	-0.156	0.076
-444.851	15.925	0.107	0.083
-443.836	-156.749	0.083	-0.005
-442.822	-122.416	-0.051	-0.008
-441.807	-58.097	-0.347	-0.150
-440.792	-200.000	0.004	-0.021
-439.778	330.985	-0.078	-0.149
-438.763	38.958	-0.192	0.170
-437.749	800.000	-0.039	0.137
-436.734	83.298	0.083	-0.090
-435.719	-116.490	-0.153	-0.028
-434.705	-79.689	0.395	-0.132
-433.690	-200.000	0.024	0.116
-432.676	-200.000	-0.033	0.293
-431.661	-115.589	-0.251	0.047
-430.646	-61.785	0.166	0.069
-429.632	-200.000	0.047	0.207
-428.617	-82.027	-0.156	0.050
-427.603	335.152	-0.072	-0.139
-426.588	-6.934	0.306	0.207
-425.573	80.896	0.118	-0.127
-424.559	-70.576	-0.174	-0.065
-423.544	-18.315	-0.042	0.026
-422.530	-42.285	0.125	-0.063
-421.515	800.000	0.050	-0.197
-420.500	-200.000	-0.035	0.267
-419.486	-52.196	0.409	-0.188
-418.471	491.424	-0.078	-0.178
-417.457	-100.812	-0.057	0.014
-416.442	-5.275	-0.101	-0.069
-415.428	80.456	0.239	-0.256
-414.413	91.325	-0.188	0.209
-413.398	23.612	-0.104	-0.085
-412.384	-99.255	-0.228	0.057
-411.369	-14.225	0.086	0.055
-410.355	31.359	-0.075	-0.064
-409.340	116.778	-0.304	0.370
-408.325	-110.504	0.196	0.040
-407.311	-13.170	0.096	-0.062
-406.296	103.827	0.147	-0.171
-405.282	-93.203	-0.229	-0.063
-404.267	-158.288	-0.306	0.018
-403.252	-122.410	-0.230	0.037
-402.238	-32.790	0.111	-0.061
-401.223	25.200	0.207	0.170
-400.209	-102.620	-0.026	-0.006
-399.194	213.946	-0.056	-0.088
-398.179	211.115	0.100	0.157
-397.165	-118.612	0.036	-0.006
-396.150	-29.545	0.242	0.137
-395.136	-83.470	-0.118	0.037
-394.121	-163.562	0.339	-0.016
-393.106	-0.593	0.046	0.032
-392.092	-39.160	0.373	-0.195
-391.077	-59.940	-0.413	-0.175
-390.063	50.668	0.227	-0.213
-389.048	-200.000	-0.001	0.116
-388.033	7.940	0.130	0.097
-387.019	-26.478	0.190	-0.111
-386.004	457.792	-0.126	0.276
-384.990	-200.000	-0.007	0.368
-383.975	661.199	0.042	0.107
-382.960	-56.443	0.119	-0.052
-381.946	-93.330	0.190	-0.052
-380.931	-119.421	0.457	-0.079
-379.917	-200.000	0.039	0.237
-378.902	-200.000	0.038	-0.226
-377.888	311.668	0.204	-0.380
-376.873	-200.000	-0.046	0.296
-375.858	3.470	-0.176	-0.127
-374.844	7.692	0.227	0.168
-373.829	138.292	0.095	0.124
-372.815	91.342	0.247	0.275
-371.800	289.017	0.144	-0.259
-370.785	-16.426	0.019	-0.012
-369.771	-200.000	-0.042	0.216
-368.756	-200.000	-0.010	-0.167
-367.742	800.000	0.082	0.237
-366.727	-200.000	-0.012	0.174
-365.712	182.658	-0.184	-0.269
-364.698	206.226	0.047	-0.072
-363.683	-200.000	0.133	0.000
-362.669	-167.869	0.053	0.002
-361.654	800.000	-0.077	0.256
-360.639	20.626	-0.161	-0.129
-359.625	175.728	0.041	-0.059
-358.610	128.151	-0.087	0.109
-357.596	-0.230	-0.203	-0.143
-356.581	-57.409	0.204	0.089
-355.566	-118.401	-0.337	-0.059
-354.552	-1.953	0.191	0.133
-353.537	-1.947	-0.248	-0.172
-352.523	318.268	0.021	0.039
-351.508	-200.000	-0.017	0.143
-350.493	-135.006	-0.209	0.025
-349.479	572.055	0.096	-0.232
-348.464	0.921	-0.184	0.130
-347.450	-166.026	-0.165	0.007
-346.435	-200.000	0.077	0.411
-345.420	402.647	-0.085	0.177
-344.406	800.000	-0.030	-0.099
-343.391	-200.000	0.039	0.197
-342.377	584.172	0.107	0.259
-341.362	-200.000	0.007	0.125
-340.348	445.554	-0.087	0.189
-339.333	-51.349	0.061	-0.028
-338.318	60.883	0.037	-0.036
-337.304	-4.874	0.151	-0.103
-336.289	800.000	-0.023	-0.092
-335.275	55.137	0.039	0.037
-334.260	-59.744	-0.184	0.078
-333.245	-93.310	0.030	-0.008
-332.231	-160.097	-0.303	0.016
-331.216	-82.822	-0.034	0.011
-330.202	36.534	-0.079	0.069
-329.187	-104.743	-0.191	-0.043
-328.172	-29.997	-0.060	0.034
-327.158	-200.000	-0.038	-0.196
-326.143	-200.000	-0.020	-0.278
-325.129	-140.674	-0.257	0.026
-324.114	-92.621	0.362	0.100
-323.099	-176.578	0.228	-0.006
-322.085	-129.409	0.156	-0.021
-321.070	24.382	0.143	0.117
-320.056	84.494	-0.110	0.119
-319.041	12.612	-0.173	-0.132
-318.026	-87.476	0.154	-0.046
-317.012	-200.000	0.035	-0.251
-315.997	800.000	-0.029	-0.090
-314.983	-39.584	0.197	0.102
-313.968	800.000	0.099	0.358
-312.953	800.000	0.052	0.203
-311.939	471.850	-0.083	-0.185
-310.924	-200.000	0.013	0.088
-309.910	-110.529	0.201	0.041
-308.895	45.475	-0.327	-0.298
-307.880	-200.000	-0.056	0.347
-306.866	-126.463	0.247	-0.036
-305.851	121.502	-0.105	0.129
-304.837	-36.311	0.228	0.122
-303.822	-158.203	0.380	0.022
-302.807	200.001	0.101	-0.153
-301.793	-108.874	-0.238	-0.050
-300.778	80.411	0.218	-0.232
-299.764	-34.578	-0.059	0.032
-298.749	-120.473	0.329	-0.055
-297.735	675.878	-0.120	-0.308
-296.720	39.812	-0.104	-0.092
-295.705	176.116	0.200	-0.287
-294.691	-37.422	0.372	0.196
-293.676	-181.463	-0.275	0.005
-292.662	-200.000	0.086	0.376
-291.647	-2.933	0.295	-0.204
-290.632	800.000	-0.046	-0.143
-289.618	-100.721	-0.204	-0.050
-288.603	-106.355	-0.262	-0.058
-287.589	-47.114	0.262	0.126
-286.574	194.819	0.061	-0.091
-285.559	-200.000	-0.000	0.227
-284.545	32.356	-0.070	0.060
-283.530	174.681	-0.038	0.054
-282.516	-58.595	-0.249	0.107
-281.501	-42.060	-0.181	0.092
-280.486	-93.561	-0.118	0.032
-279.472	39.694	0.068	-0.060
-278.457	195.108	-0.110	-0.165
-277.443	-86.831	0.251	0.076
-276.428	-200.000	0.013	0.234
-275.413	-200.000	0.003	-0.221
-274.399	1.676	-0.063	-0.045
-273.384	53.684	0.205	0.194
-272.370	-148.947	0.226	-0.018
-271.355	-200.000	0.022	0.100
-270.340	213.202	-0.129	0.202
-269.326	-51.786	-0.125	0.058
-268.311	-50.789	0.127	0.059
-267.297	-25.767	-0.336	0.196
-266.282	43.431	0.093	0.084
-265.267	272.273	0.075	-0.131
-264.253	-200.000	-0.058	-0.285
-263.238	-82.324	0.124	-0.040
-262.224	21.124	-0.083	0.066
-261.209	235.611	-0.092	0.150
-260.195	-13.290	0.109	0.070
-259.180	800.000	0.057	0.182
-258.165	143.772	0.089	0.117
-257.151	-200.000	0.033	0.391
-256.136	180.311	-0.139	0.201
-255.122	-200.000	0.064	0.344
-254.107	151.656	-0.194	0.261
-253.092	147.737	-0.098	-0.130
-252.078	70.341	0.107	-0.109
-251.063	713.746	0.213	0.557
-250.049	-69.237	-0.180	-0.068
-249.034	-200.000	0.008	0.244
-248.019	55.619	-0.142	-0.136
-247.005	-98.378	0.095	0.024
-245.990	669.073	0.087	0.221
-244.976	-131.467	0.228	0.030
-243.961	-74.077	0.191	-0.068
-242.946	-200.000	0.057	0.304
-241.932	215.975	0.262	-0.410
-240.917	16.262	-0.057	-0.045
-239.903	-75.596	0.092	-0.032
-238.888	-200.000	0.036	0.319
-237.873	-7.739	-0.178	-0.118
-236.859	-133.206	0.054	-0.007
-235.844	-137.762	-0.328	0.036
-234.830	-8.345	0.178	0.118
-233.815	-200.000	-0.043	0.378
-232.800	0.693	-0.155	-0.110
-231.786	-200.000	-0.002	-0.037
-230.771	-200.000	-0.018	0.169
-229.757	-101.170	0.353	0.085
-228.742	-82.834	-0.391	-0.124
-227.727	51.513	0.110	0.103
-226.713	78.770	0.162	-0.170
-225.698	800.000	0.009	-0.026
-224.684	236.707	-0.050	0.081
-223.669	4.991	0.059	0.042
-222.655	-47.454	0.343	0.164
-221.640	-57.408	0.324	-0.140
-220.625	-145.844	0.178	-0.016
-219.611	-200.000	-0.016	-0.188
-218.596	-200.000	-0.054	-0.297
-217.582	-200.000	0.010	-0.144
-216.567	4.213	0.285	0.205
-215.552	-109.411	0.172	0.036
-214.538	69.065	0.131	-0.132
-213.523	166.008	0.207	0.289
-212.509	99.474	0.160	0.183
-211.494	800.000	0.014	-0.051
-210.479	-109.302	-0.211	-0.044
-209.465	13.661	-0.014	0.011
-208.450	2.750	-0.363	-0.259
-207.436	223.894	-0.198	0.315
-206.421	-200.000	0.008	0.074
-205.406	-200.000	0.043	0.294
-204.392	60.499	-0.129	0.126
-203.377	-13.772	-0.090	-0.057
-202.363	-30.014	-0.197	-0.110
-201.348	-131.273	0.287	0.037
-200.333	112.644	-0.148	-0.176
-199.319	146.640	-0.119	-0.157
-198.304	-45.492	-0.259	-0.126
-197.290	-92.389	-0.326	-0.090
-196.275	800.000	0.049	0.154
-195.260	-56.801	-0.209	0.091
-194.246	-36.236	0.341	0.181
-193.231	398.659	0.035	-0.072
-192.217	800.000	0.041	-0.113
-191.202	-200.000	-0.009	-0.050
-190.187	261.620	0.118	0.201
-189.173	78.674	-0.019	0.020
-188.158	-143.242	0.256	0.024
-187.144	-200.000	-0.063	-0.332
-186.129	-200.000	-0.010	-0.149
-185.114	75.103	-0.063	0.066
-184.100	68.817	0.115	-0.116
-183.085	-200.000	-0.021	0.101
-182.071	-131.685	0.085	0.011
-181.056	486.592	-0.054	0.121
-180.042	1.617	-0.193	0.136
-179.027	-77.467	0.466	0.159
-178.012	-120.055	-0.243	0.041
-176.998	181.153	-0.184	-0.267
-175.983	-83.883	0.186	-0.058
-174.969	347.590	0.175	0.339
-173.954	86.249	-0.224	0.242
-172.939	-125.754	-0.315	0.047
-171.925	41.513	0.125	0.111
-170.910	800.000	-0.061	0.243
-169.896	663.172	-0.051	-0.129
-168.881	104.972	0.098	0.114
-167.866	133.959	-0.195	0.249
-166.852	237.008	-0.049	0.079
-165.837	61.127	0.083	-0.081
-164.823	-154.085	0.196	-0.013
-163.808	-200.000	0.036	0.220
-162.793	-200.000	0.012	-0.231
-161.779	-200.000	-0.023	-0.497
-160.764	-200.000	-0.007	0.233
-159.750	-76.738	0.343	0.118
-158.735	45.374	0.235	-0.213
-157.720	-95.010	-0.115	0.031
-156.706	64.844	0.114	0.113
-155.691	397.079	-0.098	0.201
-154.677	-123.196	0.222	-0.035
-153.662	800.000	0.027	0.075
-152.647	-115.380	0.162	-0.030
-151.633	66.302	-0.192	0.192
-150.618	8.271	-0.201	-0.148
-149.604	-1.959	0.270	-0.186
-148.589	-81.425	-0.102	0.033
-147.574	-114.139	0.283	-0.054
-146.560	-200.000	0.068	0.442
-145.545	8.867	0.032	0.024
-144.531	-200.000	0.056	0.299
-143.516	-146.239	-0.193	0.017
-142.502	5.171	0.111	0.080
-141.487	305.267	-0.226	-0.412
-140.472	519.276	-0.048	-0.110
-139.458	-37.053	0.143	-0.075
-138.443	-72.307	-0.237	0.086
-137.429	305.055	0.054	0.098
-136.414	286.180	-0.080	0.141
-135.399	27.079	0.174	-0.143
-134.385	70.665	0.168	-0.171
-133.370	253.325	0.082	-0.138
-132.356	-126.379	-0.181	-0.026
-131.341	800.000	-0.055	-0.207
-130.326	241.095	-0.090	0.148
-129.312	23.854	-0.012	0.010
-128.297	42.965	-0.195	-0.174
-127.283	800.000	-0.106	-0.315
-126.268	-200.000	-0.003	-0.126
-125.253	800.000	-0.021	0.067
-124.239	800.000	0.098	0.320
-123.224	278.210	0.081	0.142
-122.210	-176.133	-0.207	-0.005
-121.195	-63.915	-0.339	-0.136
-120.180	-200.000	-0.005	-0.222
-119.166	-200.000	-0.027	-0.283
-118.151	532.034	-0.189	0.438
-117.137	800.000	0.017	-0.050
-116.122	-116.501	0.212	-0.038
-115.107	-200.000	-0.019	-0.251
-114.093	-140.384	0.405	0.041
-113.078	-28.574	0.225	0.127
-112.064	-174.547	-0.487	0.014
-111.049	287.498	0.077	0.137
-110.034	186.996	-0.069	-0.101
-109.020	319.218	0.064	0.119
-108.005	-200.000	-0.013	0.160
-106.991	-121.591	0.162	-0.026
-105.976	-200.000	0.026	-0.211
-104.962	-200.000	0.008	-0.139
-103.947	-200.000	-0.080	0.365
-102.932	-91.678	0.177	-0.049
-101.918	56.137	-0.252	-0.240
-100.903	800.000	-0.037	-0.124
-99.889	-183.237	0.431	0.007
-98.874	-120.018	0.106	0.018
-97.859	30.077	-0.293	0.245
-96.845	800.000	-0.031	-0.114
-95.830	-30.329	0.130	-0.072
-94.816	123.321	0.071	0.087
-93.801	-200.000	0.019	-0.204
-92.786	165.797	0.115	0.159
-91.772	-143.205	-0.186	0.018
-90.757	9.944	0.250	-0.186
-89.743	-91.807	0.046	0.013
-88.728	41.196	-0.299	-0.265
-87.713	22.167	0.141	0.112
-86.699	-200.000	-0.020	0.452
-85.684	-152.119	0.294	0.021
-84.670	800.000	0.096	0.324
-83.655	-93.338	0.082	0.022
-82.640	-200.000	-0.014	-0.230
-81.626	800.000	0.045	0.179
-80.611	-80.511	0.241	0.079
-79.597	43.255	-0.188	-0.169
-78.582	-134.161	0.261	-0.032
-77.567	-7.734	-0.255	-0.169
-76.553	109.186	0.233	-0.273
-75.538	45.574	0.252	-0.228
-74.524	-200.000	-0.002	-0.066
-73.509	198.832	0.125	-0.188
-72.494	102.210	0.104	-0.119
-71.480	-161.358	0.117	0.006
-70.465	-200.000	-0.024	0.209
-69.451	66.095	-0.077	0.077
-68.436	190.701	-0.091	-0.134
-67.422	-106.925	-0.258	-0.056
-66.407	-200.000	0.088	-0.476
-65.392	-172.822	-0.414	0.013
-64.378	-67.752	0.252	0.097
-63.363	-8.548	-0.502	-0.330
-62.349	-200.000	-0.050	-0.255
-61.334	131.380	-0.988	-1.243
-60.319	140.364	0.531	0.686
-59.305	353.766	-0.557	-1.082
-58.290	332.778	0.612	1.157
-57.276	800.000	0.520	1.698
-56.261	-200.000	116.180	662.875
-55.246	528.991	1532.916	3539.621
-54.232	175.831	2706.482	3841.503
-53.217	108.704	2162.448	2527.239
-52.203	38.867	1598.683	1396.774
-51.188	30.162	1343.130	1121.097
-50.173	27.395	1304.741	1072.731
-49.159	55.646	1363.148	1291.525
-48.144	53.307	1376.353	1289.960
-47.130	30.449	1331.045	1112.551
-46.115	27.113	1313.121	1077.778
-45.100	26.888	1307.942	1072.150
-44.086	26.817	1305.551	1069.730
-43.071	26.739	1303.227	1067.329
-42.057	26.782	1301.159	1065.846
-41.042	26.807	1299.799	1064.835
-40.027	26.831	1298.142	1063.574
-39.013	26.836	1296.145	1061.923
-37.998	26.812	1294.405	1060.320
-36.984	26.901	1292.237	1059.017
-35.969	26.937	1290.861	1058.062
-34.954	26.946	1288.821	1056.397
-33.940	27.041	1287.780	1056.056
-32.925	26.877	1286.857	1054.303
-31.911	26.905	1284.977	1052.883
-30.896	26.928	1283.623	1051.863
-29.881	27.047	1281.985	1051.168
-28.867	27.184	1279.763	1050.096
-27.852	27.051	1279.093	1048.741
-26.838	27.080	1277.988	1047.959
-25.823	27.023	1276.382	1046.274
-24.809	26.912	1275.294	1044.702
-23.794	26.878	1274.132	1043.511
-22.779	27.068	1272.400	1043.142
-21.765	27.040	1271.454	1042.161
-20.750	27.009	1270.318	1041.012
-19.736	27.066	1268.556	1039.856
-18.721	26.969	1267.329	1038.254
-17.706	26.883	1266.949	1037.407
-16.692	26.941	1265.749	1036.719
-15.677	26.851	1264.817	1035.398
-14.663	26.974	1262.977	1034.554
-13.648	26.865	1262.090	1033.161
-12.633	26.939	1260.864	1032.540
-11.619	26.792	1260.461	1031.334
-10.604	26.965	1259.261	1031.295
-9.590	26.793	1258.922	1029.995
-8.575	26.896	1257.401	1029.296
-7.560	26.831	1256.661	1028.282
-6.546	26.971	1255.928	1028.434
-5.531	26.882	1254.515	1026.735
-4.517	26.856	1254.388	1026.443
-3.502	27.027	1252.859	1026.112
-2.487	26.944	1251.801	1024.737
-1.473	26.840	1247.932	1020.947
-0.458	25.374	1233.139	1000.643
0.556	22.354	1216.230	963.716
1.571	18.679	1221.787	947.779
2.586	17.837	1236.627	954.496
3.600	17.514	1224.608	943.345
4.615	13.270	1152.224	865.338
5.629	6.354	1081.483	778.059
6.644	3.488	1063.667	751.232
7.659	3.249	1061.508	748.479
8.673	3.376	1060.418	748.261
9.688	3.486	1058.770	747.564
10.702	3.542	1056.607	746.241
11.717	7.358	1061.686	768.280
12.731	14.707	1071.817	811.369
13.746	18.844	1077.536	835.794
14.761	19.488	1078.016	839.225
15.775	18.799	1075.967	834.209
16.790	17.795	1074.202	827.897
17.804	17.205	1072.325	823.519
18.819	16.727	1071.687	820.638
19.834	16.754	1070.468	819.766
20.848	16.543	1069.572	817.984
21.863	16.203	1069.172	815.964
22.877	16.186	1068.114	814.999
23.892	16.178	1067.507	814.426
24.907	16.156	1066.743	813.667
25.921	16.138	1065.856	812.829
26.936	16.147	1064.293	811.608
27.950	16.125	1063.406	810.758
28.965	16.308	1061.442	810.064
29.980	16.387	1060.117	809.360
30.994	16.481	1059.170	809.017
32.009	16.425	1057.809	807.639
33.023	16.320	1057.201	806.602
34.038	16.302	1056.099	805.604
35.053	16.434	1054.691	805.084
36.067	16.238	1054.251	803.744
37.082	16.306	1053.443	803.381
38.096	16.403	1052.323	802.916
39.111	16.481	1051.857	802.860
40.126	16.202	1050.362	800.326
41.140	16.037	1049.085	798.501
42.155	15.943	1047.685	796.920
43.169	15.994	1046.744	796.373
44.184	15.916	1045.957	795.335
45.199	15.876	1044.870	794.251
46.213	16.143	1043.610	794.483
47.228	16.250	1042.930	794.396
48.242	16.198	1041.709	793.150
49.257	16.178	1040.555	792.110
50.271	16.212	1040.389	792.073
51.286	16.336	1039.308	791.763
52.301	16.136	1038.286	789.976
53.315	16.065	1037.440	788.928
54.330	16.123	1036.147	788.147
55.344	16.062	1035.493	787.297
56.359	16.095	1034.697	786.774
57.374	15.972	1033.677	785.358
58.388	15.978	1032.620	784.511
59.403	15.904	1031.874	783.531
60.417	15.832	1031.512	782.851
61.432	15.782	1030.385	781.694
62.447	15.729	1029.633	780.809
63.461	15.863	1028.009	780.130
64.476	15.841	1027.447	779.532
65.490	15.798	1026.324	778.411
66.505	15.963	1025.758	778.677
67.520	15.824	1025.591	777.838
68.534	15.946	1025.019	777.902
69.549	15.829	1024.241	776.702
70.563	15.839	1022.831	775.610
71.578	15.682	1022.122	774.281
72.593	15.707	1021.543	773.888
73.607	15.650	1020.639	772.871
74.622	15.715	1020.123	772.710
75.636	15.650	1019.462	771.844
76.651	15.877	1018.592	772.156
77.666	15.784	1018.569	771.648
78.680	15.725	1017.415	770.435
79.695	15.865	1016.459	770.282
80.709	16.048	1015.938	770.656
81.724	16.040	1015.185	769.979
82.739	16.003	1015.181	769.738
83.753	16.129	1014.274	769.559
84.768	16.400	1013.207	769.915
85.782	16.478	1012.433	769.613
86.797	16.365	1011.774	768.531
87.812	16.176	1010.731	766.812
88.826	16.273	1009.648	766.363
89.841	16.319	1008.433	765.580
90.855	16.358	1007.612	765.066
91.870	16.309	1006.888	764.227
92.884	16.470	1006.036	764.244
93.899	16.507	1004.898	763.476
94.914	16.461	1004.697	763.051
95.928	16.473	1003.889	762.423
96.943	16.349	1002.842	761.002
97.957	16.301	1001.860	759.972
98.972	16.386	1000.751	759.449
99.987	16.508	1000.043	759.389
101.001	16.340	998.898	757.698
102.016	16.409	998.058	757.304
103.030	16.479	997.493	757.123
104.045	16.382	996.642	755.974
105.060	16.390	995.712	755.241
106.074	16.064	994.770	753.001
107.089	15.932	993.238	751.185
108.103	15.886	992.525	750.377
109.118	15.907	992.144	750.115
110.133	15.846	991.129	749.011
111.147	15.872	990.210	748.362
112.162	15.892	989.444	747.807
113.176	16.006	989.013	747.925
114.191	16.018	987.670	746.892
115.206	16.059	987.439	746.837
116.220	15.792	986.649	744.991
117.235	16.035	985.299	744.976
118.249	15.935	984.612	743.949
119.264	16.057	983.785	743.799
120.279	15.792	983.276	742.181
121.293	15.847	981.839	741.271
122.308	15.919	980.804	740.741
123.322	15.663	979.932	738.891
124.337	15.821	978.695	738.589
125.352	15.786	977.651	737.582
126.366	15.729	976.780	736.607
127.381	15.796	975.792	736.092
128.395	15.850	975.243	735.849
129.410	15.896	974.135	735.147
130.424	16.006	973.054	734.748
131.439	16.170	972.154	734.716
132.454	16.008	972.170	733.960
133.468	16.069	970.959	733.246
134.483	16.031	970.231	732.464
135.497	15.956	969.201	731.298
136.512	15.928	968.360	730.478
137.527	16.027	967.631	730.290
138.541	16.130	966.654	729.934
139.556	16.244	966.067	729.920
140.570	16.215	965.825	729.544
141.585	16.400	964.912	729.591
142.600	16.561	963.627	729.249
143.614	16.378	963.657	728.417
144.629	16.466	962.634	727.958
145.643	16.382	961.460	726.646
146.658	16.284	960.734	725.613
147.673	16.155	959.904	724.366
148.687	16.189	958.498	723.387
149.702	16.126	957.540	722.330
150.716	16.024	957.181	721.560
151.731	16.141	956.266	721.307
152.746	16.182	955.507	720.846
153.760	16.154	955.335	720.534
154.775	16.268	953.991	719.943
155.789	16.405	953.529	720.112
156.804	16.320	953.018	719.300
157.819	16.325	952.594	718.937
158.833	16.519	951.510	718.883
159.848	16.663	950.622	718.757
160.862	16.396	949.743	716.899
161.877	16.247	948.691	715.411
162.892	16.149	947.668	714.158
163.906	16.191	946.738	713.571
164.921	16.204	945.852	712.896
165.935	16.433	945.173	713.289
166.950	16.398	943.965	712.165
167.964	16.384	943.521	711.710
168.979	16.189	942.659	710.177
169.994	16.197	941.986	709.640
171.008	16.243	941.490	709.395
172.023	16.564	940.149	709.670
173.037	16.534	939.717	709.156
174.052	16.363	939.235	708.012
175.067	16.343	938.103	707.014
176.081	16.255	937.723	706.296
177.096	16.061	937.383	705.164
178.110	16.267	936.519	705.312
179.125	16.461	935.820	705.533
180.140	16.395	935.700	705.106
181.154	16.465	935.032	704.834
182.169	16.576	934.695	704.980
183.183	16.562	934.057	704.379
184.198	16.682	933.089	704.083
185.213	16.665	932.535	703.533
186.227	16.586	931.826	702.607
187.242	16.669	931.020	702.280
188.256	16.795	930.647	702.461
189.271	16.943	929.664	702.269
190.286	16.553	928.691	699.861
191.300	16.126	928.199	697.661
192.315	16.132	927.516	697.111
193.329	16.338	926.925	697.455
194.344	16.287	926.345	696.748
195.359	16.450	925.989	697.091
196.373	16.575	925.087	696.863
197.388	16.765	924.804	697.372
198.402	16.802	924.615	697.318
199.417	16.914	923.868	697.156
200.432	16.903	923.230	696.567
201.446	17.032	923.120	696.949
202.461	16.969	922.812	696.398
203.475	17.020	921.675	695.687
204.490	16.774	920.716	693.897
205.504	16.778	920.133	693.412
206.519	16.798	919.421	692.893
207.534	16.806	918.753	692.364
208.548	16.825	918.006	691.817
209.563	16.881	917.543	691.636
210.577	16.901	916.593	690.940
211.592	16.977	916.180	690.874
212.607	17.087	915.291	690.592
213.621	17.084	914.329	689.794
214.636	17.063	913.716	689.182
215.650	17.169	913.169	689.141
216.665	17.130	912.666	688.542
217.680	17.207	912.080	688.350
218.694	17.114	911.360	687.368
219.709	17.165	910.935	687.195
220.723	17.048	909.967	685.932
221.738	17.083	909.284	685.497
222.753	17.162	908.664	685.289
223.767	17.254	908.005	685.101
224.782	17.197	907.538	684.456
225.796	17.237	907.198	684.303
226.811	17.350	906.019	683.805
227.826	17.212	905.636	682.902
228.840	17.297	904.823	682.570
229.855	17.121	903.944	681.139
230.869	17.083	903.441	680.550
231.884	17.095	902.637	679.929
232.899	17.127	901.695	679.288
233.913	17.007	901.031	678.247
234.928	16.965	900.565	677.671
235.942	17.013	900.286	677.593
236.957	17.152	899.178	677.255
237.972	17.050	898.956	676.618
238.986	17.045	898.112	675.906
240.001	17.115	897.393	675.580
241.015	17.078	897.191	675.224
242.030	17.048	896.881	674.812
243.045	17.183	895.847	674.507
244.059	17.232	894.981	673.993
245.074	17.206	895.041	673.874
246.088	17.313	894.184	673.594
247.103	17.515	893.385	673.732
248.117	17.435	893.456	673.407
249.132	17.740	892.780	674.047
250.147	17.903	891.983	674.029
251.161	17.743	891.377	672.878
252.176	17.715	891.076	672.480
253.190	18.032	889.490	672.472
254.205	17.841	889.654	671.785
255.220	17.786	889.039	671.044
256.234	17.777	888.590	670.612
257.249	17.848	887.321	669.874
258.263	17.810	886.876	669.329
259.278	17.812	885.944	668.574
260.293	17.928	885.907	668.943
261.307	17.844	885.460	668.216
262.322	17.956	884.646	667.979
263.336	18.115	883.585	667.740
264.351	18.022	882.736	666.676
265.366	18.126	882.311	666.702
266.380	18.060	881.861	666.045
267.395	18.062	880.786	665.183
268.409	17.949	880.333	664.344
269.424	17.974	879.455	663.718
270.439	17.898	878.724	662.813
271.453	17.981	877.907	662.460
272.468	17.741	877.926	661.486
273.482	17.913	876.971	661.374
274.497	17.859	876.738	660.929
275.512	17.976	876.026	660.789
276.526	17.939	875.246	660.000
277.541	17.976	875.206	660.054
278.555	18.125	874.828	660.286
279.570	18.229	873.895	659.924
280.585	18.138	873.385	659.128
281.599	18.064	872.531	658.142
282.614	18.065	871.623	657.401
283.628	17.933	871.601	656.819
284.643	18.082	870.507	656.510
285.657	17.991	869.922	655.663
286.672	18.065	869.348	655.456
287.687	18.010	868.779	654.757
288.701	18.129	868.334	654.818
289.716	18.216	867.470	654.442
290.730	18.093	867.094	653.630
291.745	18.249	866.205	653.498
292.760	18.181	866.152	653.139
293.774	18.448	864.893	653.151
294.789	18.244	864.112	651.727
295.803	18.111	863.935	651.027
296.818	18.059	863.125	650.163
297.833	18.147	862.569	650.022
298.847	18.057	861.901	649.119
299.862	18.323	861.432	649.718
300.876	18.299	860.824	649.111
301.891	18.558	860.041	649.443
302.906	18.444	859.933	648.871
303.920	18.564	859.351	648.832
304.935	18.688	858.519	648.613
305.949	18.756	858.014	648.430
306.964	18.461	857.433	646.823
307.979	18.376	856.893	646.035
308.993	18.521	856.410	646.163
310.008	18.590	855.390	645.594
311.022	18.588	855.065	645.285
312.037	18.541	854.255	644.439
313.052	18.235	854.017	643.054
314.066	18.263	853.449	642.672
315.081	18.158	853.172	642.014
316.095	18.288	852.027	641.582
317.110	18.324	851.736	641.440
318.125	18.251	851.186	640.698
319.139	18.252	850.916	640.440
320.154	18.452	850.053	640.484
321.168	18.352	849.922	639.953
322.183	18.340	849.100	639.234
323.197	18.590	848.299	639.505
324.212	18.474	847.815	638.652
325.227	18.508	847.277	638.318
326.241	18.495	846.708	637.783
327.256	18.454	846.169	637.169
328.270	18.392	845.636	636.479
329.285	18.454	845.077	636.233
330.300	18.450	844.372	635.633
331.314	18.504	843.954	635.460
332.329	18.694	843.371	635.670
333.343	18.617	843.256	635.243
334.358	18.676	842.622	634.928
335.373	18.768	842.299	634.966
336.387	18.617	842.507	634.508
337.402	18.825	842.178	634.975
338.416	18.748	841.790	634.341
339.431	18.854	841.365	634.356
340.446	19.016	840.997	634.622
341.460	18.914	840.817	634.052
342.475	18.954	840.291	633.748
343.489	18.986	839.259	633.029
344.504	18.996	839.303	633.044
345.519	19.292	838.494	633.467
346.533	19.231	837.957	632.779
347.548	18.983	837.335	631.344
348.562	18.938	836.684	630.633
349.577	18.971	836.070	630.234
350.592	18.893	835.421	629.405
351.606	18.773	834.890	628.508
352.621	18.675	834.550	627.838
353.635	19.097	833.226	628.328
354.650	18.965	832.843	627.501
355.665	18.961	832.909	627.482
356.679	19.035	832.020	627.025
357.694	19.121	831.131	626.613
358.708	18.990	830.444	625.566
359.723	19.099	829.985	625.558
360.738	19.166	829.147	625.116
361.752	19.004	829.028	624.381
362.767	19.133	828.766	624.597
363.781	19.292	828.066	624.593
364.796	19.413	827.569	624.601
365.810	19.483	827.239	624.548
366.825	19.521	826.754	624.263
367.840	19.662	825.835	624.024
368.854	19.373	825.873	622.953
369.869	19.389	825.336	622.551
370.883	19.533	824.724	622.553
371.898	19.491	824.597	622.253
372.913	19.619	824.001	622.209
373.927	19.559	823.333	621.431
374.942	19.596	823.007	621.264
375.956	19.792	822.538	621.561
376.971	19.600	822.278	620.619
377.986	19.682	822.208	620.807
379.000	19.610	821.491	619.951
380.015	19.810	820.706	620.022
381.029	19.718	819.820	618.968
382.044	19.790	819.670	619.057
383.059	19.869	818.727	618.573
384.073	19.711	818.411	617.713
385.088	19.516	817.538	616.306
386.102	19.519	816.983	615.843
387.117	19.685	816.419	615.953
388.132	19.497	816.101	614.991
389.146	19.723	815.393	615.206
390.161	19.597	815.319	614.647
391.175	19.759	814.930	614.878
392.190	19.571	814.273	613.659
393.205	19.533	813.444	612.845
394.219	19.515	813.383	612.681
395.234	19.424	812.865	611.915
396.248	19.338	812.838	611.534
397.263	19.478	811.852	611.232
398.278	19.470	811.523	610.905
399.292	19.520	810.898	610.555
400.307	19.421	810.616	609.941
401.321	19.520	810.116	609.859
402.336	19.503	809.649	609.394
403.350	19.689	809.222	609.673
404.365	19.792	808.961	609.788
405.380	19.910	808.536	609.828
406.394	19.825	808.314	609.308
407.409	20.051	807.602	609.512
408.423	20.161	807.175	609.523
409.438	20.015	806.952	608.787
410.453	20.048	806.779	608.720
411.467	20.089	806.038	608.251
412.482	20.223	805.653	608.377
413.496	20.258	805.417	608.268
414.511	20.241	804.981	607.824
415.526	20.113	804.710	607.119
416.540	20.075	803.849	606.280
417.555	20.267	803.422	606.575
418.569	20.151	803.414	606.112
419.584	20.398	802.517	606.244
420.599	20.205	802.418	605.443
421.613	161.420	1373.499	1795.474
422.628	140.182	1456.682	1795.546
