DTS Sentinel unit serial number:	SN413079Multiplexer serial number:	ORYXHardware model number:	OX4-SRSoftware version number:	ORYX F/W v4.00 Oryx Data Collector v3.7.2.0data status	okinstallation	princeton_trtdifferential loss correction	single-endedforward channel	channel 1reverse channel	N/Adate	2019/09/13time	13:54:35forward acquisition time	60.00reverse acquisition time	0.00gamma	496.2192k internal	0.2303k external	0.2303temperature offset calibration	1.0163default loss term (dB/km)	0.3790temperature slope calibration	1.0000multiplexer offset coefficient	1.0000multiplexer slope coefficient	1.0000fibre end	0.00T internal ref (°C)	35.17T ext. ref 1 (°C)	4.57T ext. ref 2 (°C)	31.31length (m)	temperature (°C)	Stokes	anti-Stokes-747.200	200.868	-0.222	0.347
-746.185	-3.711	0.044	0.031
-745.171	242.600	0.039	0.067
-744.156	-200.000	0.024	-0.123
-743.142	-200.000	-0.010	-0.398
-742.127	-200.000	0.025	-0.163
-741.112	188.601	0.165	-0.251
-740.098	800.000	0.019	0.073
-739.083	36.234	0.115	0.103
-738.069	-113.645	0.167	0.033
-737.054	-56.982	-0.269	0.121
-736.039	-167.771	-0.274	0.011
-735.025	-10.674	0.132	-0.089
-734.010	-27.211	-0.349	0.207
-732.996	132.165	-0.146	-0.192
-731.981	7.105	-0.183	0.139
-730.966	-57.856	-0.209	0.093
-729.952	800.000	-0.034	0.149
-728.937	-200.000	0.007	0.148
-727.923	-63.291	-0.150	0.063
-726.908	-200.000	-0.006	-0.078
-725.894	-58.440	-0.143	-0.063
-724.879	800.000	-0.087	-0.261
-723.864	79.914	-0.076	-0.083
-722.850	-6.778	-0.183	-0.126
-721.835	306.924	0.208	-0.394
-720.821	29.248	-0.058	-0.050
-719.806	-200.000	0.047	-0.289
-718.791	285.853	-0.159	-0.292
-717.777	-131.369	-0.291	0.039
-716.762	477.333	0.056	0.128
-715.748	-200.000	-0.012	0.054
-714.733	-200.000	-0.008	-0.151
-713.718	335.851	0.099	0.196
-712.704	-20.660	0.173	-0.108
-711.689	239.261	-0.107	0.182
-710.675	-200.000	-0.037	0.366
-709.660	-107.364	-0.069	0.015
-708.645	-200.000	0.029	-0.550
-707.631	800.000	0.092	-0.307
-706.616	-200.000	-0.043	-0.255
-705.602	800.000	-0.050	-0.160
-704.587	49.687	-0.270	-0.259
-703.572	-68.906	0.280	-0.110
-702.558	4.100	-0.297	-0.221
-701.543	-162.933	0.223	0.011
-700.529	191.390	0.104	-0.160
-699.514	60.768	-0.076	-0.077
-698.499	-200.000	0.040	0.195
-697.485	374.666	0.061	-0.126
-696.470	-64.300	-0.369	-0.153
-695.456	-67.010	-0.306	-0.123
-694.441	800.000	0.022	0.093
-693.426	-200.000	-0.003	-0.185
-692.412	185.467	0.174	-0.263
-691.397	140.993	-0.351	-0.471
-690.383	-100.518	0.155	0.039
-689.368	-9.086	0.179	0.121
-688.354	800.000	-0.112	0.380
-687.339	-200.000	-0.022	0.142
-686.324	-200.000	-0.028	0.230
-685.310	-133.087	-0.087	-0.011
-684.295	-120.066	0.240	-0.042
-683.281	-126.992	-0.335	0.050
-682.266	195.097	0.266	0.411
-681.251	-51.545	-0.091	0.043
-680.237	-82.852	-0.322	0.106
-679.222	-200.000	0.036	0.374
-678.208	-11.323	0.015	-0.010
-677.193	-200.000	0.008	0.210
-676.178	-200.000	-0.005	0.105
-675.164	28.684	0.079	-0.068
-674.149	-11.826	0.130	0.086
-673.135	99.795	-0.101	-0.119
-672.120	-104.476	-0.350	0.082
-671.105	-200.000	0.019	-0.262
-670.091	-200.000	-0.064	-0.336
-669.076	-54.898	0.141	-0.065
-668.062	-200.000	0.008	-0.165
-667.047	-200.000	0.012	-0.281
-666.032	-133.203	0.147	0.019
-665.018	-10.547	0.092	0.062
-664.003	-84.198	-0.276	0.089
-662.989	673.775	0.087	0.229
-661.974	7.911	-0.074	0.057
-660.959	3.370	0.248	0.184
-659.945	614.517	-0.070	-0.177
-658.930	36.753	-0.130	-0.116
-657.916	161.597	-0.073	0.104
-656.901	-120.395	0.288	-0.050
-655.886	-145.146	-0.436	0.040
-654.872	307.231	0.075	-0.142
-653.857	537.260	-0.116	-0.280
-652.843	-200.000	0.006	-0.069
-651.828	-56.094	-0.315	0.142
-650.814	-94.080	0.257	-0.071
-649.799	18.548	-0.200	-0.162
-648.784	800.000	-0.048	0.210
-647.770	280.218	0.187	-0.339
-646.755	-86.060	-0.063	0.020
-645.741	-119.398	-0.145	-0.026
-644.726	154.708	-0.184	-0.257
-643.711	43.295	0.222	-0.205
-642.697	70.936	0.092	-0.096
-641.682	-200.000	-0.017	-0.113
-640.668	210.125	0.071	-0.112
-639.653	259.870	-0.152	0.267
-638.638	224.060	-0.047	-0.077
-637.624	46.346	-0.007	0.006
-636.609	48.614	-0.297	0.283
-635.595	-64.443	-0.100	0.041
-634.580	252.977	0.179	-0.309
-633.565	800.000	0.068	0.264
-632.551	-108.708	-0.328	0.071
-631.536	259.109	0.235	-0.412
-630.522	0.232	0.173	0.125
-629.507	-29.356	-0.076	0.044
-628.492	-20.878	-0.072	-0.045
-627.478	800.000	0.094	-0.310
-626.463	344.652	-0.106	0.211
-625.449	-9.721	-0.194	0.131
-624.434	-123.504	-0.063	0.010
-623.419	-108.938	0.191	0.041
-622.405	326.890	-0.081	0.158
-621.390	-115.887	-0.280	-0.053
-620.376	98.637	-0.220	0.257
-619.361	-114.003	-0.151	-0.030
-618.346	-200.000	0.002	-0.098
-617.332	109.267	-0.046	-0.056
-616.317	-67.517	-0.057	0.023
-615.303	71.658	0.098	0.103
-614.288	-33.655	-0.152	-0.085
-613.273	92.249	-0.160	-0.183
-612.259	139.123	0.136	0.181
-611.244	100.721	-0.085	0.100
-610.230	-200.000	0.016	-0.099
-609.215	200.493	-0.112	-0.175
-608.201	-127.091	-0.269	-0.040
-607.186	50.994	0.208	-0.200
-606.171	34.531	-0.321	0.284
-605.157	155.761	0.105	0.146
-604.142	-22.815	0.208	0.127
-603.128	-51.427	-0.292	0.138
-602.113	-125.111	0.146	-0.023
-601.098	-109.139	0.387	0.083
-600.084	-200.000	-0.021	0.123
-599.069	-130.148	-0.343	0.047
-598.055	137.401	0.255	0.338
-597.040	-107.235	-0.181	-0.040
-596.025	52.417	0.174	0.168
-595.011	141.723	0.142	0.191
-593.996	-155.871	0.293	0.019
-592.982	154.393	-0.077	-0.107
-591.967	-75.613	0.086	-0.031
-590.952	-55.512	0.191	-0.087
-589.938	800.000	-0.153	0.453
-588.923	-27.218	0.259	-0.153
-587.909	36.690	-0.199	-0.178
-586.894	26.440	0.272	0.230
-585.879	-200.000	0.006	0.067
-584.865	58.326	-0.096	0.095
-583.850	-116.123	-0.230	-0.043
-582.836	340.796	-0.040	-0.080
-581.821	-57.252	0.298	0.133
-580.806	116.112	0.227	0.281
-579.792	-200.000	0.020	0.195
-578.777	-131.225	0.189	0.025
-577.763	-24.722	0.301	-0.181
-576.748	239.971	0.156	0.263
-575.733	77.953	0.138	-0.149
-574.719	-153.808	-0.181	-0.013
-573.704	-50.075	0.155	0.074
-572.690	-70.788	-0.210	-0.080
-571.675	639.778	-0.057	-0.148
-570.661	-162.653	-0.336	-0.017
-569.646	-49.727	0.241	-0.116
-568.631	-151.439	-0.149	-0.011
-567.617	-13.497	0.281	-0.184
-566.602	-82.759	0.110	0.036
-565.588	-81.779	0.272	0.090
-564.573	327.039	0.060	0.116
-563.558	-155.120	0.036	-0.002
-562.544	-135.643	-0.259	0.031
-561.529	115.060	0.372	-0.459
-560.515	285.070	-0.079	0.144
-559.500	-139.546	-0.316	-0.034
-558.485	315.148	0.155	0.295
-557.471	-60.234	0.045	-0.019
-556.456	97.807	0.016	-0.019
-555.442	-11.367	0.155	-0.103
-554.427	-200.000	-0.000	0.346
-553.412	23.190	0.223	-0.185
-552.398	-138.169	-0.133	0.015
-551.383	700.357	0.054	-0.144
-550.369	-100.916	-0.184	-0.046
-549.354	-97.269	0.139	0.037
-548.339	-34.761	-0.133	-0.074
-547.325	-200.000	-0.038	-0.186
-546.310	61.945	0.101	0.101
-545.296	-41.795	0.260	0.135
-544.281	800.000	0.042	-0.175
-543.266	-200.000	0.000	-0.175
-542.252	-200.000	0.024	-0.166
-541.237	-47.754	0.066	0.033
-540.223	-49.592	0.271	-0.130
-539.208	800.000	0.036	0.112
-538.193	800.000	0.045	0.158
-537.179	-200.000	0.133	0.001
-536.164	-62.823	0.086	0.036
-535.150	-59.068	-0.111	-0.049
-534.135	370.437	-0.058	-0.119
-533.121	17.224	0.131	-0.105
-532.106	-200.000	-0.020	-0.180
-531.091	153.175	0.024	0.034
-530.077	-59.525	0.228	0.099
-529.062	-43.192	0.125	-0.064
-528.048	53.238	0.126	-0.121
-527.033	220.479	0.010	-0.016
-526.018	153.143	-0.140	-0.193
-525.004	-200.000	-0.026	0.384
-523.989	-200.000	0.036	0.472
-522.975	-42.426	0.144	-0.074
-521.960	-79.414	-0.321	-0.110
-520.945	-200.000	0.057	-0.483
-519.931	-11.625	-0.135	-0.089
-518.916	-10.566	0.151	0.101
-517.902	-79.200	0.175	-0.060
-516.887	17.615	-0.260	0.209
-515.872	-77.294	0.304	-0.107
-514.858	-200.000	-0.010	0.263
-513.843	174.615	0.119	0.174
-512.829	510.076	-0.130	-0.305
-511.814	360.175	-0.179	-0.362
-510.799	8.905	0.098	-0.075
-509.785	-9.221	0.095	0.064
-508.770	800.000	-0.075	-0.319
-507.756	-47.210	0.118	-0.058
-506.741	800.000	-0.061	0.184
-505.726	-120.097	0.127	-0.022
-504.712	653.847	0.061	0.159
-503.697	-9.107	0.138	0.093
-502.683	800.000	0.055	0.158
-501.668	-134.121	0.084	-0.010
-500.653	-46.943	-0.375	0.185
-499.639	57.333	-0.040	-0.039
-498.624	800.000	0.065	-0.239
-497.610	-38.629	0.121	0.065
-496.595	53.472	-0.297	-0.287
-495.581	96.677	-0.010	-0.011
-494.566	-33.444	-0.149	-0.083
-493.551	-95.216	0.413	-0.112
-492.537	-46.156	-0.314	0.156
-491.522	-55.079	0.163	-0.074
-490.508	186.809	-0.079	-0.119
-489.493	62.660	0.232	0.234
-488.478	553.089	0.059	-0.142
-487.464	-200.000	-0.029	-0.219
-486.449	-129.223	-0.232	-0.033
-485.435	-200.000	0.024	-0.180
-484.420	-132.980	-0.138	0.018
-483.405	-200.000	-0.008	-0.402
-482.391	-20.536	0.100	-0.062
-481.376	-200.000	0.008	-0.330
-480.362	11.095	-0.116	-0.089
-479.347	-200.000	0.004	0.029
-478.332	-200.000	0.079	-0.357
-477.318	-200.000	-0.014	0.212
-476.303	320.978	0.079	0.151
-475.289	182.256	0.199	0.295
-474.274	-200.000	0.030	-0.242
-473.259	-0.415	-0.246	0.176
-472.245	-200.000	-0.010	-0.090
-471.230	444.626	0.082	0.180
-470.216	-121.330	-0.181	-0.030
-469.201	-200.000	-0.018	-0.166
-468.186	-105.851	-0.444	0.101
-467.172	-175.041	0.081	-0.002
-466.157	-95.269	-0.054	-0.015
-465.143	-118.604	-0.403	-0.072
-464.128	-110.398	-0.228	-0.048
-463.113	-146.308	-0.089	0.008
-462.099	69.632	-0.102	-0.106
-461.084	-32.446	0.321	0.180
-460.070	324.108	0.125	0.240
-459.055	-72.646	-0.080	0.030
-458.040	65.564	0.446	0.455
-457.026	67.760	-0.027	0.027
-456.011	-101.060	0.179	-0.044
-454.997	336.505	-0.238	0.465
-453.982	30.821	-0.122	-0.105
-452.968	-120.414	0.259	-0.044
-451.953	-19.065	-0.154	0.097
-450.938	-140.768	-0.351	0.037
-449.924	-121.838	-0.214	0.036
-448.909	-59.381	-0.140	0.061
-447.895	-200.000	0.018	0.096
-446.880	800.000	-0.035	-0.137
-445.865	-200.000	0.061	-0.345
-444.851	-60.330	0.221	-0.095
-443.836	-200.000	0.011	-0.343
-442.822	-72.163	0.110	0.041
-441.807	-66.708	-0.374	0.149
-440.792	241.966	-0.227	0.382
-439.778	-114.486	-0.319	0.062
-438.763	-200.000	0.021	0.193
-437.749	111.149	0.210	0.255
-436.734	-141.839	-0.495	0.050
-435.719	220.555	-0.051	-0.082
-434.705	-110.476	-0.371	-0.077
-433.690	646.336	-0.110	0.282
-432.676	28.307	-0.230	0.195
-431.661	-107.309	-0.186	0.041
-430.646	800.000	0.032	-0.123
-429.632	-200.000	0.031	-0.184
-428.617	135.603	-0.160	-0.210
-427.603	82.859	0.168	0.183
-426.588	-200.000	0.020	0.194
-425.573	800.000	-0.063	-0.190
-424.559	-154.520	0.321	-0.022
-423.544	-51.158	-0.105	0.050
-422.530	800.000	0.095	-0.346
-421.515	-110.213	-0.293	-0.061
-420.500	-0.495	-0.183	-0.131
-419.486	-143.713	0.159	-0.015
-418.471	63.452	0.193	-0.194
-417.457	741.831	-0.049	-0.131
-416.442	-45.385	-0.128	0.064
-415.428	800.000	-0.043	-0.152
-414.413	-69.964	-0.083	-0.032
-413.398	709.393	-0.179	-0.476
-412.384	-161.948	0.066	0.003
-411.369	-28.408	0.350	-0.203
-410.355	-200.000	-0.058	-0.304
-409.340	-138.608	0.124	-0.014
-408.325	-200.000	-0.016	-0.146
-407.311	103.454	-0.130	0.153
-406.296	-90.083	0.351	-0.103
-405.282	-184.534	0.245	-0.004
-404.267	-200.000	0.024	-0.237
-403.252	-41.977	-0.038	0.020
-402.238	-200.000	0.024	-0.210
-401.223	15.729	-0.249	-0.197
-400.209	-96.182	-0.058	0.016
-399.194	153.452	-0.053	0.073
-398.179	-96.749	0.111	-0.029
-397.165	-85.549	0.327	-0.102
-396.150	-56.794	-0.165	-0.073
-395.136	800.000	0.096	0.295
-394.121	-151.563	0.280	-0.021
-393.106	-148.566	0.125	-0.010
-392.092	104.455	-0.027	-0.032
-391.077	539.956	0.147	-0.352
-390.063	317.514	0.204	-0.388
-389.048	-104.564	-0.179	-0.042
-388.033	-26.660	-0.304	-0.179
-387.019	-39.297	0.193	0.102
-386.004	-200.000	-0.014	0.210
-384.990	799.608	-0.114	0.317
-383.975	56.691	0.155	-0.152
-382.960	-44.117	0.442	0.223
-381.946	87.330	-0.063	0.070
-380.931	-200.000	-0.061	-0.538
-379.917	194.488	-0.196	0.299
-378.902	314.330	-0.056	0.106
-377.888	800.000	-0.046	0.144
-376.873	21.549	-0.152	-0.124
-375.858	772.232	0.059	-0.162
-374.844	153.038	0.054	-0.074
-373.829	376.077	0.084	0.172
-372.815	142.111	-0.124	0.165
-371.800	-111.524	-0.455	0.093
-370.785	800.000	-0.046	0.169
-369.771	175.788	-0.143	0.208
-368.756	-200.000	-0.050	0.305
-367.742	326.166	-0.122	0.234
-366.727	137.419	0.128	0.169
-365.712	95.856	0.132	-0.151
-364.698	-77.583	-0.168	-0.058
-363.683	101.283	-0.073	-0.085
-362.669	-124.120	0.299	-0.047
-361.654	96.272	-0.061	0.070
-360.639	-88.130	-0.194	-0.058
-359.625	-200.000	-0.013	-0.315
-358.610	58.803	0.194	0.192
-357.596	-51.322	0.213	0.100
-356.581	-106.189	0.207	-0.047
-355.566	-63.429	0.015	-0.006
-354.552	176.052	0.117	-0.170
-353.537	-200.000	0.012	0.121
-352.523	800.000	0.091	0.259
-351.508	-44.953	-0.195	0.097
-350.493	582.792	-0.078	-0.193
-349.479	81.204	-0.147	0.159
-348.464	-200.000	0.032	0.280
-347.450	800.000	0.116	0.483
-346.435	-120.589	0.381	0.065
-345.420	-200.000	0.053	-0.278
-344.406	-119.552	-0.226	0.039
-343.391	-200.000	-0.038	-0.288
-342.377	800.000	0.057	0.242
-341.362	94.960	-0.071	0.081
-340.348	-80.712	0.166	-0.055
-339.333	-200.000	0.046	-0.330
-338.318	118.891	-0.098	-0.121
-337.304	-126.414	0.335	-0.050
-336.289	-34.310	0.388	0.214
-335.275	-200.000	-0.039	0.227
-334.260	219.692	0.033	-0.053
-333.245	-70.168	0.093	0.035
-332.231	-128.584	-0.255	0.036
-331.216	351.357	-0.151	0.299
-330.202	-24.480	-0.112	0.067
-329.187	-9.485	-0.149	-0.100
-328.172	10.146	-0.264	0.201
-327.158	-122.564	0.212	0.035
-326.143	162.098	-0.072	0.101
-325.129	-81.395	-0.316	0.104
-324.114	559.697	0.050	0.122
-323.099	24.770	-0.052	-0.043
-322.085	-200.000	-0.037	0.233
-321.070	-36.434	0.117	0.063
-320.056	119.449	-0.096	-0.119
-319.041	-200.000	-0.035	-0.153
-318.026	619.059	0.107	0.269
-317.012	89.238	-0.064	-0.071
-315.997	-200.000	-0.007	-0.153
-314.983	-30.653	-0.311	0.176
-313.968	274.514	-0.112	0.198
-312.953	-200.000	-0.054	0.369
-311.939	-200.000	0.021	-0.100
-310.924	104.140	0.006	-0.007
-309.910	800.000	-0.039	-0.116
-308.895	204.376	0.124	0.193
-307.880	-104.017	-0.222	-0.052
-306.866	-86.290	0.308	0.095
-305.851	500.359	0.168	-0.388
-304.837	9.341	0.188	-0.142
-303.822	-64.988	-0.248	0.100
-302.807	-95.452	-0.254	0.068
-301.793	33.250	-0.160	0.139
-300.778	15.760	-0.057	0.045
-299.764	-110.117	-0.286	0.060
-298.749	-200.000	0.005	0.103
-297.735	-148.310	0.422	0.035
-296.720	-33.401	-0.269	0.149
-295.705	-200.000	0.010	-0.078
-294.691	-145.491	-0.214	-0.019
-293.676	-200.000	0.034	-0.164
-292.662	-68.125	0.250	-0.098
-291.647	87.436	-0.249	-0.276
-290.632	-91.483	0.104	0.030
-289.618	-200.000	0.027	0.135
-288.603	605.171	-0.033	0.081
-287.589	-29.184	0.055	-0.031
-286.574	448.202	0.025	0.055
-285.559	-200.000	0.020	-0.095
-284.545	-165.585	0.200	0.009
-283.530	-138.190	0.069	-0.008
-282.516	-115.065	0.147	-0.028
-281.501	-127.733	-0.306	0.044
-280.486	109.013	-0.115	0.138
-279.472	367.469	-0.085	-0.172
-278.457	800.000	0.091	-0.370
-277.443	-98.854	-0.035	0.009
-276.428	89.849	0.175	0.196
-275.413	293.139	0.143	-0.261
-274.399	-135.496	0.200	-0.024
-273.384	-200.000	0.003	0.197
-272.370	-57.592	0.128	0.056
-271.355	-116.515	-0.314	0.058
-270.340	-36.975	0.216	0.116
-269.326	-78.433	0.336	-0.115
-268.311	71.677	-0.069	-0.071
-267.297	-89.257	-0.353	0.104
-266.282	800.000	0.037	0.104
-265.267	-130.969	0.214	-0.029
-264.253	38.704	0.176	0.157
-263.238	-116.147	-0.202	0.037
-262.224	-62.132	0.378	0.157
-261.209	-40.119	0.151	-0.079
-260.195	800.000	-0.090	-0.259
-259.180	222.251	-0.047	0.076
-258.165	42.812	-0.201	-0.183
-257.151	-200.000	0.002	-0.043
-256.136	74.092	0.263	-0.276
-255.122	34.344	0.113	0.098
-254.107	-159.355	-0.145	0.008
-253.092	30.563	0.291	0.249
-252.078	18.763	-0.084	0.067
-251.063	800.000	0.031	0.102
-250.049	800.000	0.041	-0.136
-249.034	32.805	-0.304	-0.263
-248.019	64.292	-0.106	0.107
-247.005	-53.069	0.182	0.084
-245.990	-71.751	0.287	-0.107
-244.976	-200.000	0.002	0.254
-243.961	-51.363	-0.156	0.073
-242.946	524.991	-0.130	0.306
-241.932	-15.689	-0.291	-0.185
-240.917	800.000	0.018	-0.062
-239.903	-200.000	0.023	-0.234
-238.888	123.049	0.295	-0.369
-237.873	-130.990	-0.087	-0.012
-236.859	-200.000	0.050	-0.327
-235.844	-75.930	-0.172	-0.061
-234.830	347.093	-0.171	0.336
-233.815	-53.514	-0.014	0.006
-232.800	-176.302	0.166	0.004
-231.786	302.416	-0.128	-0.236
-230.771	637.141	-0.046	-0.116
-229.757	800.000	0.127	-0.402
-228.742	92.678	0.038	-0.043
-227.727	135.892	-0.047	0.061
-226.713	-119.343	-0.280	-0.049
-225.698	800.000	-0.142	-0.390
-224.684	-134.722	0.334	-0.041
-223.669	587.909	-0.061	0.149
-222.655	-59.110	0.307	-0.132
-221.640	13.802	-0.131	-0.102
-220.625	800.000	0.039	-0.140
-219.611	-56.947	0.116	-0.051
-218.596	800.000	0.085	-0.244
-217.582	-44.601	-0.256	-0.128
-216.567	-141.797	0.086	-0.009
-215.552	779.079	0.102	-0.278
-214.538	-137.583	-0.168	0.019
-213.523	363.229	0.241	0.482
-212.509	106.984	-0.078	0.092
-211.494	152.713	-0.039	0.053
-210.479	800.000	0.017	-0.054
-209.465	-200.000	-0.006	-0.051
-208.450	-8.820	-0.216	-0.145
-207.436	-57.258	0.174	0.076
-206.421	-57.448	0.217	0.095
-205.406	-200.000	0.015	0.329
-204.392	117.883	-0.037	0.046
-203.377	579.589	-0.076	0.186
-202.363	-124.303	0.140	-0.022
-201.348	16.146	-0.115	-0.091
-200.333	-89.385	-0.105	0.031
-199.319	454.565	0.105	0.231
-198.304	147.105	-0.350	0.469
-197.290	-200.000	-0.000	0.175
-196.275	174.105	0.148	0.214
-195.260	-200.000	-0.002	0.020
-194.246	65.112	-0.149	0.150
-193.231	72.797	-0.168	-0.174
-192.217	112.159	-0.201	0.242
-191.202	210.577	-0.170	0.267
-190.187	-127.554	0.268	0.039
-189.173	-14.796	-0.421	-0.269
-188.158	-120.869	0.133	0.022
-187.144	-121.441	-0.224	0.037
-186.129	-145.241	0.471	0.043
-185.114	-11.100	0.060	0.040
-184.100	627.026	-0.128	0.323
-183.085	-29.481	-0.167	0.095
-182.071	66.030	0.182	-0.184
-181.056	472.074	-0.100	0.224
-180.042	41.557	0.117	0.106
-179.027	800.000	0.094	-0.322
-178.012	800.000	-0.065	-0.211
-176.998	-122.195	0.121	-0.020
-175.983	-200.000	-0.008	0.056
-174.969	-100.772	0.138	-0.034
-173.954	-66.193	-0.221	-0.088
-172.939	800.000	-0.058	0.236
-171.925	-64.876	-0.253	-0.102
-170.910	-162.430	0.306	0.015
-169.896	585.424	-0.057	-0.140
-168.881	590.925	0.131	0.322
-167.866	89.413	0.236	-0.262
-166.852	-148.949	0.186	-0.015
-165.837	800.000	0.057	-0.229
-164.823	800.000	-0.113	0.380
-163.808	800.000	0.036	0.148
-162.793	-33.540	0.163	0.090
-161.779	800.000	0.044	0.130
-160.764	800.000	0.116	-0.337
-159.750	268.493	-0.160	-0.278
-158.735	-200.000	0.015	-0.423
-157.720	-70.596	-0.140	0.053
-156.706	800.000	0.083	0.293
-155.691	-120.127	-0.338	0.058
-154.677	800.000	-0.055	-0.171
-153.662	800.000	0.028	0.084
-152.647	-51.080	0.167	0.078
-151.633	-98.358	0.197	-0.050
-150.618	636.655	-0.149	0.377
-149.604	36.707	0.084	0.074
-148.589	-75.474	-0.337	0.119
-147.574	-2.458	0.218	0.152
-146.560	-28.804	-0.193	-0.110
-145.545	800.000	-0.043	0.124
-144.531	-116.936	-0.235	-0.043
-143.516	-61.916	-0.075	-0.031
-142.502	-96.445	0.109	0.029
-141.487	-200.000	-0.002	-0.262
-140.472	-200.000	0.023	0.214
-139.458	74.703	-0.137	-0.144
-138.443	8.883	0.257	-0.193
-137.429	-100.136	0.155	-0.038
-136.414	-95.126	0.276	-0.074
-135.399	79.802	-0.045	0.048
-134.385	-175.129	0.224	0.006
-133.370	14.631	-0.156	-0.121
-132.356	66.166	0.185	0.187
-131.341	139.515	-0.159	0.208
-130.326	-200.000	0.002	0.064
-129.312	177.770	0.245	-0.355
-128.297	-21.334	0.227	-0.138
-127.283	800.000	-0.143	0.581
-126.268	-89.415	0.173	-0.051
-125.253	211.821	-0.200	-0.313
-124.239	-164.858	-0.151	-0.007
-123.224	799.708	-0.069	-0.191
-122.210	-131.626	-0.110	0.014
-121.195	389.187	0.058	-0.119
-120.180	132.943	-0.083	-0.106
-119.166	800.000	-0.091	0.282
-118.151	122.328	0.281	0.349
-117.137	-31.463	0.181	-0.101
-116.122	61.908	-0.232	-0.230
-115.107	-200.000	0.002	-0.175
-114.093	800.000	0.032	0.092
-113.078	-200.000	0.041	0.199
-112.064	680.452	0.084	0.217
-111.049	694.526	-0.037	0.097
-110.034	-200.000	0.029	0.127
-109.020	405.115	0.083	-0.174
-108.005	-127.467	-0.221	-0.032
-106.991	800.000	-0.060	0.167
-105.976	-100.605	0.443	0.109
-104.962	-120.175	0.200	0.034
-103.947	-29.506	0.164	-0.093
-102.932	-165.747	0.181	0.008
-101.918	537.909	-0.072	-0.169
-100.903	443.950	-0.042	-0.092
-99.889	285.162	0.078	0.140
-98.874	800.000	-0.034	-0.093
-97.859	-176.921	-0.087	0.002
-96.845	-30.019	-0.130	0.074
-95.830	-111.768	-0.283	0.057
-94.816	-140.888	0.256	-0.026
-93.801	188.533	0.072	-0.108
-92.786	800.000	-0.072	-0.312
-91.772	148.075	-0.028	0.038
-90.757	60.166	0.322	-0.317
-89.743	-78.660	0.196	0.066
-88.728	17.254	-0.226	-0.178
-87.713	443.527	-0.165	0.358
-86.699	-86.970	-0.302	0.092
-85.684	-121.870	-0.397	-0.065
-84.670	617.676	-0.098	-0.245
-83.655	-119.810	-0.066	0.011
-82.640	-200.000	-0.008	-0.068
-81.626	-92.863	-0.349	0.097
-80.611	244.996	0.137	0.229
-79.597	163.606	0.152	0.213
-78.582	-200.000	0.028	-0.188
-77.567	316.899	0.117	-0.219
-76.553	397.989	-0.043	0.089
-75.538	-1.069	-0.081	0.057
-74.524	213.178	0.139	0.218
-73.509	138.835	0.088	-0.115
-72.494	800.000	-0.111	0.396
-71.480	-200.000	0.013	0.263
-70.465	13.669	0.259	-0.200
-69.451	800.000	0.087	-0.254
-68.436	208.734	0.079	0.122
-67.422	800.000	0.071	-0.226
-66.407	119.820	0.112	-0.137
-65.392	168.623	0.204	-0.288
-64.378	-121.680	0.375	0.062
-63.363	355.050	0.136	-0.268
-62.349	50.343	-0.147	-0.137
-61.334	61.405	-0.908	-0.895
-60.319	800.000	0.095	0.361
-59.305	595.908	-0.307	-0.755
-58.290	219.453	0.540	0.857
-57.276	800.000	0.549	1.550
-56.261	-200.000	94.876	565.136
-55.246	637.721	1384.812	3489.512
-54.232	185.458	2604.701	3835.264
-53.217	123.386	2197.034	2730.858
-52.203	47.278	1647.045	1520.776
-51.188	38.746	1380.941	1222.141
-50.173	35.371	1338.225	1163.855
-49.159	56.056	1387.020	1334.516
-48.144	60.316	1405.078	1378.119
-47.130	39.050	1359.650	1204.966
-46.115	35.270	1341.863	1166.216
-45.100	35.094	1337.066	1160.939
-44.086	35.007	1334.165	1157.842
-43.071	35.020	1331.732	1155.766
-42.057	34.907	1330.662	1154.106
-41.042	34.938	1327.915	1151.865
-40.027	35.018	1326.596	1151.156
-39.013	35.123	1323.902	1149.409
-37.998	34.984	1322.839	1147.603
-36.984	35.128	1321.314	1147.099
-35.969	35.271	1318.838	1145.758
-34.954	35.119	1317.366	1143.527
-33.940	35.308	1315.757	1143.214
-32.925	35.282	1314.867	1142.238
-31.911	35.328	1313.207	1141.025
-30.896	35.324	1311.651	1139.602
-29.881	35.231	1310.556	1138.055
-28.867	35.409	1308.727	1137.477
-27.852	35.327	1306.961	1135.410
-26.838	35.297	1306.465	1134.757
-25.823	35.227	1304.940	1132.970
-24.809	35.256	1303.271	1131.652
-23.794	35.329	1301.633	1130.617
-22.779	35.214	1300.754	1129.128
-21.765	35.262	1299.265	1128.071
-20.750	35.231	1297.817	1126.590
-19.736	35.139	1296.681	1125.020
-18.721	35.174	1295.148	1123.847
-17.706	35.064	1293.946	1122.118
-16.692	35.073	1292.922	1121.239
-15.677	35.137	1291.549	1120.374
-14.663	35.097	1290.559	1119.241
-13.648	35.089	1289.416	1118.155
-12.633	35.123	1288.411	1117.439
-11.619	35.081	1288.153	1116.926
-10.604	35.117	1286.658	1115.796
-9.590	35.092	1286.160	1115.174
-8.575	35.037	1285.561	1114.288
-7.560	35.005	1284.507	1113.147
-6.546	35.087	1283.449	1112.661
-5.531	35.102	1282.279	1111.688
-4.517	35.146	1280.814	1110.628
-3.502	35.195	1280.643	1110.723
-2.487	35.129	1279.540	1109.336
-1.473	35.112	1275.827	1105.977
-0.458	33.920	1260.092	1085.490
0.556	32.054	1240.495	1042.659
1.571	27.650	1244.641	1021.446
2.586	26.007	1259.019	1023.833
3.600	24.173	1246.620	1003.341
4.615	18.054	1172.520	911.104
5.629	9.284	1095.063	806.991
6.644	4.927	1074.377	770.180
7.659	4.563	1071.310	766.120
8.673	4.400	1069.916	764.254
9.688	4.410	1068.213	763.019
10.702	5.092	1067.675	765.913
11.717	10.995	1076.201	801.096
12.731	19.461	1088.031	851.800
13.746	22.453	1091.054	868.881
14.761	21.896	1089.647	864.937
15.775	21.004	1087.731	858.948
16.790	19.830	1086.087	851.798
17.804	19.372	1084.404	848.152
18.819	18.956	1083.563	845.372
19.834	18.939	1082.432	844.332
20.848	18.760	1081.649	842.768
21.863	18.565	1081.101	841.310
22.877	18.449	1080.121	839.907
23.892	18.502	1079.596	839.680
24.907	18.440	1078.750	838.646
25.921	18.407	1077.310	837.289
26.936	18.443	1076.346	836.644
27.950	18.381	1074.858	835.109
28.965	18.482	1073.485	834.462
29.980	18.676	1072.006	834.180
30.994	18.730	1071.073	833.642
32.009	18.743	1070.212	832.963
33.023	18.802	1068.943	832.186
34.038	18.650	1068.256	830.844
35.053	18.569	1066.899	829.324
36.067	18.618	1066.180	828.925
37.082	18.474	1065.529	827.650
38.096	18.577	1064.954	827.630
39.111	18.754	1064.171	827.801
40.126	18.563	1062.399	825.427
41.140	18.252	1061.161	822.901
42.155	18.175	1059.803	821.405
43.169	18.110	1058.699	820.163
44.184	18.146	1057.732	819.514
45.199	18.108	1057.184	818.835
46.213	18.236	1056.163	818.587
47.228	18.390	1055.331	818.602
48.242	18.504	1054.683	818.571
49.257	18.504	1053.357	817.471
50.271	18.529	1052.494	816.850
51.286	18.661	1051.949	816.979
52.301	18.437	1050.856	814.997
53.315	18.422	1049.634	813.905
54.330	18.302	1048.834	812.641
55.344	18.248	1047.990	811.662
56.359	18.322	1047.224	811.347
57.374	18.286	1045.916	810.091
58.388	18.106	1045.351	808.728
59.403	18.084	1044.500	807.894
60.417	18.041	1043.606	806.927
61.432	18.065	1043.010	806.508
62.447	17.895	1042.309	805.095
63.461	17.927	1041.048	804.203
64.476	17.909	1040.097	803.312
65.490	17.871	1039.358	802.489
66.505	18.006	1038.564	802.442
67.520	18.030	1037.869	801.945
68.534	18.038	1037.182	801.380
69.549	17.869	1036.398	799.913
70.563	17.809	1035.638	798.974
71.578	17.759	1034.748	797.983
72.593	17.672	1033.640	796.651
73.607	17.619	1033.654	796.345
74.622	17.780	1032.477	796.117
75.636	17.846	1031.701	795.754
76.651	17.921	1031.273	795.707
77.666	17.791	1031.286	795.038
78.680	17.811	1029.949	794.029
79.695	17.825	1029.368	793.578
80.709	17.987	1028.964	793.948
81.724	18.145	1028.309	794.107
82.739	18.284	1027.242	793.861
83.753	18.489	1026.631	794.264
84.768	18.734	1026.083	794.907
85.782	18.785	1025.434	794.567
86.797	18.781	1024.502	793.757
87.812	18.578	1023.467	791.949
88.826	18.548	1022.217	790.772
89.841	18.582	1021.395	790.224
90.855	18.736	1020.766	790.376
91.870	18.759	1020.463	790.178
92.884	18.770	1018.831	788.895
93.899	18.671	1017.963	787.699
94.914	18.914	1017.202	788.153
95.928	18.845	1016.717	787.394
96.943	18.641	1015.178	785.195
97.957	18.615	1014.824	784.737
98.972	18.598	1013.907	783.878
99.987	18.661	1012.831	783.264
101.001	18.563	1012.115	782.197
102.016	18.625	1011.067	781.597
103.030	18.727	1010.338	781.432
104.045	18.623	1010.022	780.645
105.060	18.667	1008.567	779.647
106.074	18.261	1007.594	776.985
107.089	18.081	1006.433	775.204
108.103	17.963	1005.564	773.935
109.118	17.972	1004.450	773.046
110.133	18.027	1003.173	772.245
111.147	17.953	1002.595	771.396
112.162	18.064	1001.944	771.331
113.176	18.102	1001.484	771.078
114.191	18.413	1000.083	771.331
115.206	18.153	999.598	769.720
116.220	17.997	999.157	768.610
117.235	18.177	997.726	768.250
118.249	18.156	996.846	767.408
119.264	18.050	995.941	766.168
120.279	18.023	995.708	765.800
121.293	17.971	994.815	764.815
122.308	17.909	993.438	763.413
123.322	17.891	992.306	762.392
124.337	17.875	991.371	761.535
125.352	17.826	990.410	760.510
126.366	17.848	989.294	759.687
127.381	18.011	987.898	759.270
128.395	17.891	987.804	758.597
129.410	17.994	986.676	758.124
130.424	17.996	986.292	757.769
131.439	18.066	985.561	757.449
132.454	18.259	984.547	757.460
133.468	18.222	983.870	756.708
134.483	18.381	982.421	756.226
135.497	18.300	982.082	755.544
136.512	18.195	981.689	754.711
137.527	18.315	980.410	754.189
138.541	18.273	979.551	753.276
139.556	18.310	978.869	752.850
140.570	18.483	978.220	753.041
141.585	18.672	977.664	753.376
142.600	18.647	976.515	752.314
143.614	18.741	976.198	752.418
144.629	18.828	975.426	752.136
145.643	18.840	974.012	751.030
146.658	18.547	972.961	748.875
147.673	18.494	971.739	747.638
148.687	18.395	970.864	746.469
149.702	18.246	970.264	745.292
150.716	18.341	969.332	744.920
151.731	18.276	968.810	744.171
152.746	18.226	968.224	743.438
153.760	18.457	967.303	743.671
154.775	18.582	967.023	743.928
155.789	18.652	965.988	743.371
156.804	18.551	965.729	742.668
157.819	18.602	964.804	742.111
158.833	18.687	964.124	741.889
159.848	18.887	963.339	742.084
160.862	18.653	962.552	740.404
161.877	18.449	961.033	738.290
162.892	18.181	960.388	736.575
163.906	18.330	958.765	735.904
164.921	18.359	958.535	735.790
165.935	18.456	957.497	735.344
166.950	18.446	956.724	734.641
167.964	18.514	955.642	734.037
168.979	18.406	954.775	732.846
169.994	18.281	953.866	731.548
171.008	18.459	953.241	731.765
172.023	18.633	952.595	731.947
173.037	18.696	952.218	731.861
174.052	18.674	951.252	730.958
175.067	18.359	950.261	728.794
176.081	18.261	949.820	727.975
177.096	18.262	949.049	727.323
178.110	18.423	948.605	727.600
179.125	18.354	948.119	726.873
180.140	18.420	947.871	726.897
181.154	18.454	947.554	726.734
182.169	18.702	946.833	727.166
183.183	18.827	945.834	726.862
184.198	18.755	945.065	725.905
185.213	18.773	944.508	725.487
186.227	18.697	944.140	724.819
187.242	18.829	943.619	724.916
188.256	19.033	942.430	724.795
189.271	18.985	942.182	724.340
190.286	18.777	940.861	722.386
191.300	18.208	939.908	719.198
192.315	18.205	939.408	718.739
193.329	18.188	938.757	718.107
194.344	18.431	938.475	718.846
195.359	18.447	937.717	718.267
196.373	18.505	937.518	718.295
197.388	18.792	937.088	719.104
198.402	18.932	936.388	719.087
199.417	19.103	935.836	719.317
200.432	19.235	935.417	719.483
201.446	19.387	934.810	719.585
202.461	19.404	934.449	719.314
203.475	19.354	933.776	718.524
204.490	19.071	932.772	716.512
205.504	18.921	931.835	715.103
206.519	18.818	931.203	714.126
207.534	18.811	930.713	713.662
208.548	18.957	929.685	713.413
209.563	18.949	929.426	713.117
210.577	18.875	928.784	712.256
211.592	19.260	928.220	713.353
212.607	19.310	927.362	712.838
213.621	19.051	926.622	711.138
214.636	19.225	925.823	711.181
215.650	19.213	924.999	710.434
216.665	19.242	924.266	709.927
217.680	19.334	924.008	710.046
218.694	19.380	923.326	709.648
219.709	19.286	922.762	708.763
220.723	19.190	921.778	707.553
221.738	19.256	921.141	707.273
222.753	19.289	920.705	707.010
223.767	19.355	920.243	706.864
224.782	19.564	919.519	707.099
225.796	19.418	919.178	706.176
226.811	19.383	918.391	705.366
227.826	19.294	917.339	704.133
228.840	19.169	916.784	703.133
229.855	19.174	916.049	702.531
230.869	19.162	914.859	701.504
231.884	19.232	914.321	701.318
232.899	18.966	913.815	699.785
233.913	18.980	912.948	699.114
234.928	18.950	912.527	698.610
235.942	19.008	911.785	698.215
236.957	19.041	911.423	698.010
237.972	19.083	910.246	697.218
238.986	18.959	910.169	696.593
240.001	19.106	909.178	696.368
241.015	19.168	908.643	696.148
242.030	19.205	908.039	695.773
243.045	19.179	907.769	695.397
244.059	19.308	906.987	695.260
245.074	19.284	906.764	694.931
246.088	19.427	905.698	694.627
247.103	19.576	905.343	694.891
248.117	19.634	905.099	694.879
249.132	19.824	904.738	695.302
250.147	20.049	903.957	695.546
251.161	20.027	903.108	694.742
252.176	20.068	902.624	694.470
253.190	20.102	902.507	694.457
254.205	20.101	902.019	694.015
255.220	20.203	900.630	693.294
256.234	20.057	900.314	692.404
257.249	20.076	899.269	691.616
258.263	20.138	898.703	691.368
259.278	20.015	898.226	690.447
260.293	20.139	897.741	690.507
261.307	20.166	897.325	690.233
262.322	20.228	896.814	690.026
263.336	20.227	895.754	689.145
264.351	20.471	894.616	689.179
265.366	20.341	894.301	688.359
266.380	20.381	893.802	688.071
267.395	20.150	892.862	686.375
268.409	20.075	892.095	685.425
269.424	20.128	891.349	685.001
270.439	20.052	890.789	684.211
271.453	19.929	889.896	682.979
272.468	19.986	889.868	683.122
273.482	19.973	889.066	682.394
274.497	19.963	888.397	681.781
275.512	19.946	887.778	681.178
276.526	20.026	887.108	680.918
277.541	19.950	886.926	680.419
278.555	20.172	886.473	680.884
279.570	20.438	885.683	681.261
280.585	20.392	885.078	680.556
281.599	20.151	884.158	678.843
282.614	19.960	883.691	677.677
283.628	20.210	882.389	677.597
284.643	20.236	882.082	677.403
285.657	20.189	881.566	676.763
286.672	20.240	880.806	676.318
287.687	20.175	880.430	675.714
288.701	20.218	879.523	675.127
289.716	20.305	879.097	675.079
290.730	20.247	878.580	674.397
291.745	20.324	877.934	674.143
292.760	20.383	877.658	674.098
293.774	20.437	877.107	673.825
294.789	20.420	876.338	673.109
295.803	20.372	875.674	672.354
296.818	20.304	874.481	671.116
297.833	20.195	874.132	670.365
298.847	20.278	873.702	670.298
299.862	20.334	873.357	670.190
300.876	20.376	872.928	669.962
301.891	20.581	872.148	670.098
302.906	20.583	871.671	669.680
303.920	20.790	871.428	670.228
304.935	20.931	870.699	670.152
305.949	20.735	870.090	668.872
306.964	20.546	869.543	667.665
307.979	20.676	868.729	667.479
308.993	20.573	868.471	666.826
310.008	20.792	867.603	666.939
311.022	20.847	866.580	666.306
312.037	20.447	866.609	664.739
313.052	20.323	865.680	663.493
314.066	20.323	864.993	662.906
315.081	20.366	864.588	662.704
316.095	20.316	863.973	661.981
317.110	20.326	863.172	661.348
318.125	20.363	862.998	661.299
319.139	20.286	862.123	660.276
320.154	20.370	861.939	660.397
321.168	20.359	861.382	659.869
322.183	20.536	860.683	659.945
323.197	20.528	860.165	659.461
324.212	20.590	860.038	659.540
325.227	20.601	858.965	658.700
326.241	20.496	858.191	657.651
327.256	20.520	857.685	657.294
328.270	20.504	857.217	656.820
329.285	20.519	856.432	656.215
330.300	20.399	856.014	655.386
331.314	20.472	855.563	655.257
332.329	20.674	855.099	655.605
333.343	20.798	855.131	656.038
334.358	20.713	854.672	655.306
335.373	20.738	854.058	654.872
336.387	20.805	853.682	654.779
337.402	20.985	853.671	655.390
338.416	21.069	853.140	655.238
339.431	21.076	853.292	655.323
340.446	21.146	852.883	655.215
341.460	21.275	852.646	655.459
342.475	21.304	851.829	654.880
343.489	21.359	851.456	654.744
344.504	21.293	851.179	654.225
345.519	21.469	850.269	654.126
346.533	21.292	850.135	653.302
347.548	21.129	849.237	651.945
348.562	21.004	848.556	650.897
349.577	20.864	847.984	649.882
350.592	20.950	847.136	649.492
351.606	20.840	846.486	648.529
352.621	20.880	845.792	648.087
353.635	20.855	845.260	647.531
354.650	20.897	844.914	647.362
355.665	21.007	844.009	647.021
356.679	21.152	843.255	646.923
357.694	20.957	842.684	645.708
358.708	21.003	841.933	645.243
359.723	21.209	841.389	645.532
360.738	21.083	840.917	644.646
361.752	21.117	840.813	644.635
362.767	21.329	840.029	644.759
363.781	21.398	839.814	644.792
364.796	21.574	838.836	644.633
365.810	21.636	838.831	644.797
366.825	21.782	838.559	645.069
367.840	21.685	837.652	643.958
368.854	21.582	837.439	643.360
369.869	21.386	836.893	642.163
370.883	21.386	836.623	641.899
371.898	21.527	836.314	642.123
372.913	21.632	836.053	642.252
373.927	21.652	835.002	641.458
374.942	21.571	834.744	640.908
375.956	21.677	834.400	640.977
376.971	21.856	833.851	641.153
377.986	21.997	833.439	641.294
379.000	21.971	832.774	640.631
380.015	21.827	832.565	639.888
381.029	21.774	831.861	639.096
382.044	21.768	831.356	638.629
383.059	21.875	830.527	638.325
384.073	21.737	829.874	637.264
385.088	21.633	828.559	635.822
386.102	21.573	828.476	635.485
387.117	21.598	828.011	635.163
388.132	21.509	827.420	634.330
389.146	21.732	826.634	634.478
390.161	21.802	826.614	634.662
391.175	21.814	826.098	634.253
392.190	21.741	825.668	633.601
393.205	21.556	824.941	632.320
394.219	21.662	824.222	632.096
395.234	21.578	824.032	631.590
396.248	21.301	823.604	630.206
397.263	21.331	823.201	629.952
398.278	21.272	822.727	629.319
399.292	21.439	822.265	629.512
400.307	21.544	821.571	629.301
401.321	21.665	821.126	629.340
402.336	21.662	820.747	628.984
403.350	21.651	820.462	628.671
404.365	21.748	820.192	628.755
405.380	21.973	819.480	628.962
406.394	21.957	819.371	628.764
407.409	22.087	818.899	628.811
408.423	21.955	818.820	628.223
409.438	22.201	818.380	628.710
410.453	22.280	817.509	628.267
411.467	22.384	817.122	628.284
412.482	22.385	816.768	627.963
413.496	22.310	816.486	627.420
414.511	22.453	815.884	627.411
415.526	22.320	815.477	626.571
416.540	22.266	815.142	626.064
417.555	22.163	814.805	625.385
418.569	22.603	813.987	626.265
419.584	22.249	813.931	624.909
420.599	22.362	813.347	624.807
421.613	158.568	1370.080	1787.545
422.628	138.036	1451.222	1787.644
