DTS Sentinel unit serial number:	SN413079Multiplexer serial number:	ORYXHardware model number:	OX4-SRSoftware version number:	ORYX F/W v4.00 Oryx Data Collector v3.7.2.0data status	okinstallation	princeton_trtdifferential loss correction	single-endedforward channel	channel 1reverse channel	N/Adate	2019/09/10time	20:44:11forward acquisition time	60.00reverse acquisition time	0.00gamma	496.2192k internal	0.2327k external	0.2327temperature offset calibration	0.9934default loss term (dB/km)	0.3790temperature slope calibration	1.0000multiplexer offset coefficient	1.0000multiplexer slope coefficient	1.0000fibre end	0.00T internal ref (°C)	31.81T ext. ref 1 (°C)	-0.32T ext. ref 2 (°C)	25.21length (m)	temperature (°C)	Stokes	anti-Stokes-747.200	137.633	0.234	-0.309
-746.185	800.000	0.035	0.154
-745.171	-27.689	-0.110	0.064
-744.156	-9.069	-0.475	0.320
-743.142	110.983	0.161	0.196
-742.127	560.169	0.194	0.473
-741.112	100.541	-0.116	-0.135
-740.098	-200.000	0.027	0.149
-739.083	800.000	-0.083	0.360
-738.069	-4.255	0.259	-0.181
-737.054	146.837	-0.087	0.118
-736.039	189.466	-0.121	-0.182
-735.025	-117.286	0.283	0.052
-734.010	-19.601	-0.360	-0.225
-732.996	204.358	-0.266	-0.416
-731.981	98.198	-0.133	0.154
-730.966	800.000	0.078	0.280
-729.952	90.829	-0.100	0.113
-728.937	800.000	-0.068	-0.288
-727.923	405.146	0.092	-0.194
-726.908	-107.827	-0.142	-0.031
-725.894	231.690	-0.128	-0.212
-724.879	304.328	-0.104	-0.195
-723.864	-111.578	-0.161	0.033
-722.850	800.000	-0.052	-0.149
-721.835	32.172	-0.218	0.189
-720.821	-88.980	-0.282	0.084
-719.806	-28.109	-0.150	0.088
-718.791	-151.345	0.337	0.025
-717.777	800.000	-0.033	-0.117
-716.762	-200.000	0.024	0.108
-715.748	32.598	-0.128	0.111
-714.733	114.348	-0.247	-0.303
-713.718	554.901	-0.149	-0.362
-712.704	-77.923	-0.314	-0.109
-711.689	42.997	-0.113	0.104
-710.675	31.290	-0.069	0.060
-709.660	-98.094	0.317	0.082
-708.645	384.380	-0.139	0.288
-707.631	102.191	0.302	0.355
-706.616	114.557	-0.101	0.124
-705.602	15.738	0.234	0.186
-704.587	-200.000	-0.011	-0.068
-703.572	-28.084	0.346	0.201
-702.558	-22.521	-0.224	-0.136
-701.543	-142.113	0.391	0.039
-700.529	152.365	-0.036	0.050
-699.514	-82.245	0.132	0.043
-698.499	-200.000	-0.048	0.313
-697.485	59.138	-0.027	-0.027
-696.470	-200.000	-0.016	0.408
-695.456	-120.781	-0.126	0.021
-694.441	-200.000	-0.006	-0.301
-693.426	-109.429	0.117	0.025
-692.412	-200.000	0.008	0.040
-691.397	-108.346	-0.449	0.097
-690.383	9.532	-0.209	-0.160
-689.368	-39.225	0.195	-0.103
-688.354	800.000	0.083	0.280
-687.339	-57.681	-0.053	-0.023
-686.324	-19.690	-0.264	0.165
-685.310	800.000	0.138	0.441
-684.295	155.193	-0.107	0.148
-683.281	6.443	0.192	-0.144
-682.266	-22.746	-0.355	-0.216
-681.251	208.845	0.162	0.255
-680.237	-103.874	-0.157	-0.037
-679.222	103.467	-0.109	0.129
-678.208	-150.376	-0.312	0.024
-677.193	-59.743	0.115	-0.049
-676.178	-13.004	0.451	-0.295
-675.164	-26.045	-0.172	0.101
-674.149	-50.580	-0.215	-0.102
-673.135	-200.000	0.031	-0.224
-672.120	-114.727	-0.272	0.052
-671.105	-19.697	-0.179	0.111
-670.091	-56.881	-0.294	-0.131
-669.076	-74.263	-0.320	0.116
-668.062	-200.000	0.026	-0.113
-667.047	359.112	-0.035	-0.070
-666.032	5.254	-0.138	0.102
-665.018	-97.930	0.225	0.058
-664.003	59.163	-0.112	-0.111
-662.989	-200.000	0.006	0.064
-661.974	232.348	-0.108	-0.178
-660.959	-129.534	0.210	-0.029
-659.945	117.699	0.212	0.262
-658.930	-116.434	0.256	-0.048
-657.916	-200.000	0.057	0.595
-656.901	-26.123	-0.081	-0.048
-655.886	-200.000	0.000	-0.166
-654.872	800.000	-0.084	-0.334
-653.857	800.000	-0.078	-0.319
-652.843	387.830	0.081	-0.169
-651.828	-15.000	-0.097	-0.063
-650.814	170.254	0.193	-0.277
-649.799	-101.781	-0.178	0.043
-648.784	-200.000	0.031	-0.173
-647.770	-142.030	0.278	0.028
-646.755	-51.724	-0.219	-0.102
-645.741	-200.000	-0.012	-0.087
-644.726	-33.244	-0.134	0.074
-643.711	-51.491	-0.078	-0.037
-642.697	-200.000	-0.035	-0.232
-641.682	7.552	0.314	-0.236
-640.668	148.389	-0.278	0.377
-639.653	-200.000	0.078	0.679
-638.638	400.383	0.107	-0.226
-637.624	-74.643	-0.373	-0.135
-636.609	-78.120	0.074	0.026
-635.595	-200.000	0.031	0.179
-634.580	481.421	-0.020	0.047
-633.565	-134.133	0.307	0.038
-632.551	-135.920	-0.189	-0.022
-631.536	-102.365	0.152	0.037
-630.522	-122.546	0.380	0.062
-629.507	-149.226	-0.232	-0.019
-628.492	800.000	0.048	0.169
-627.478	-200.000	-0.011	-0.147
-626.463	102.326	-0.344	-0.403
-625.449	-200.000	-0.027	-0.288
-624.434	-10.878	-0.224	0.148
-623.419	-51.920	-0.299	0.140
-622.405	154.958	-0.259	-0.358
-621.390	184.500	-0.148	-0.221
-620.376	-200.000	-0.027	0.138
-619.361	67.660	-0.213	0.219
-618.346	147.368	-0.070	-0.095
-617.332	564.365	-0.154	0.374
-616.317	-200.000	-0.004	-0.314
-615.303	-160.736	-0.272	-0.014
-614.288	98.116	-0.203	-0.234
-613.273	-200.000	0.009	0.168
-612.259	-90.708	-0.179	-0.052
-611.244	-0.487	0.021	0.015
-610.230	-200.000	-0.022	-0.125
-609.215	387.711	-0.145	0.301
-608.201	-9.195	0.223	0.149
-607.186	12.116	0.098	-0.076
-606.171	238.867	-0.116	0.193
-605.157	49.594	-0.099	0.093
-604.142	-88.230	0.298	-0.090
-603.128	135.343	-0.069	-0.090
-602.113	67.273	0.009	-0.010
-601.098	-181.142	0.108	0.002
-600.084	800.000	-0.034	-0.111
-599.069	87.908	-0.098	-0.109
-598.055	-200.000	0.005	-0.024
-597.040	-172.095	0.282	0.009
-596.025	-200.000	0.082	-0.403
-595.011	93.614	-0.125	-0.142
-593.996	285.525	0.046	0.083
-592.982	-200.000	-0.016	-0.181
-591.967	47.052	-0.197	-0.183
-590.952	-200.000	0.001	0.027
-589.938	-200.000	0.029	-0.267
-588.923	231.556	0.169	0.277
-587.909	-111.864	-0.052	0.010
-586.894	800.000	0.012	-0.052
-585.879	-10.810	0.031	0.020
-584.865	800.000	0.057	0.234
-583.850	99.658	0.083	0.097
-582.836	-10.467	-0.524	-0.348
-581.821	-117.841	0.204	0.037
-580.806	-38.375	-0.237	0.125
-579.792	-200.000	-0.037	-0.290
-578.777	32.876	0.245	-0.212
-577.763	569.262	0.047	0.115
-576.748	-2.765	-0.339	0.237
-575.733	110.424	-0.218	0.262
-574.719	-77.855	-0.099	0.034
-573.704	-200.000	-0.007	0.300
-572.690	-90.628	-0.327	-0.095
-571.675	0.375	0.048	-0.034
-570.661	132.555	0.128	0.165
-569.646	420.341	0.105	-0.225
-568.631	800.000	0.114	0.480
-567.617	-200.000	-0.006	0.144
-566.602	800.000	0.108	0.324
-565.588	-70.046	-0.307	-0.117
-564.573	140.721	-0.119	0.158
-563.558	-133.821	-0.236	0.029
-562.544	-143.368	-0.188	-0.018
-561.529	44.747	0.179	-0.165
-560.515	-101.544	-0.199	0.048
-559.500	-62.571	-0.291	0.121
-558.485	-200.000	0.359	0.001
-557.471	149.296	0.038	0.051
-556.456	-26.290	-0.212	0.124
-555.442	-45.656	-0.171	-0.085
-554.427	-200.000	0.028	0.155
-553.412	-163.366	-0.061	0.003
-552.398	111.703	-0.096	-0.116
-551.383	-200.000	0.004	0.171
-550.369	502.426	-0.063	0.145
-549.354	-35.028	0.177	0.096
-548.339	-75.640	0.525	0.187
-547.325	656.818	0.124	0.320
-546.310	-100.124	-0.415	-0.103
-545.296	-122.070	-0.191	-0.031
-544.281	-48.302	-0.108	-0.052
-543.266	-151.099	0.203	0.015
-542.252	55.422	0.314	-0.304
-541.237	-80.580	0.214	-0.071
-540.223	-114.610	-0.131	-0.025
-539.208	800.000	-0.110	0.307
-538.193	704.447	-0.105	0.277
-537.179	502.856	0.019	0.044
-536.164	800.000	-0.069	0.225
-535.150	-200.000	-0.009	0.129
-534.135	215.333	0.131	-0.208
-533.121	-200.000	-0.010	-0.146
-532.106	236.597	0.207	-0.343
-531.091	215.844	0.073	-0.115
-530.077	-200.000	-0.013	0.154
-529.062	800.000	0.029	-0.093
-528.048	-141.688	-0.243	-0.024
-527.033	-59.498	-0.210	0.090
-526.018	277.619	0.171	0.305
-525.004	-6.219	-0.109	0.074
-523.989	17.272	-0.118	0.093
-522.975	1.956	0.256	0.185
-521.960	407.955	-0.156	0.330
-520.945	-200.000	0.053	-0.275
-519.931	160.211	-0.120	0.168
-518.916	-79.349	-0.485	0.164
-517.902	135.964	-0.168	-0.219
-516.887	-51.851	0.283	0.132
-515.872	783.702	0.121	-0.332
-514.858	19.279	0.089	0.072
-513.843	-200.000	-0.011	-0.231
-512.829	-29.681	0.333	-0.190
-511.814	-37.129	0.226	-0.121
-510.799	-44.094	-0.199	0.100
-509.785	-21.416	0.315	0.192
-508.770	121.191	0.047	-0.059
-507.756	-200.000	0.023	0.171
-506.741	-200.000	-0.018	0.301
-505.726	-200.000	0.021	0.342
-504.712	800.000	-0.148	-0.458
-503.697	800.000	0.080	-0.241
-502.683	-108.659	-0.215	0.046
-501.668	-89.795	-0.399	0.117
-500.653	-69.948	-0.097	-0.037
-499.639	-9.864	0.072	-0.048
-498.624	-96.027	0.348	0.093
-497.610	-147.499	-0.413	0.035
-496.595	490.260	0.095	0.217
-495.581	-187.375	-0.149	-0.002
-494.566	-156.674	0.189	0.012
-493.551	319.781	-0.078	0.148
-492.537	169.272	-0.110	0.156
-491.522	-151.982	0.292	-0.021
-490.508	83.482	-0.253	0.275
-489.493	-129.868	0.112	-0.015
-488.478	-118.549	-0.245	0.043
-487.464	114.697	0.042	-0.051
-486.449	371.665	0.051	0.104
-485.435	210.685	-0.134	-0.211
-484.420	-40.108	-0.101	0.053
-483.405	-200.000	0.005	-0.252
-482.391	800.000	0.085	-0.340
-481.376	-188.207	0.298	0.004
-480.362	42.154	-0.183	-0.166
-479.347	-200.000	-0.004	-0.253
-478.332	-200.000	-0.010	0.065
-477.318	-200.000	0.008	-0.235
-476.303	-200.000	0.072	0.319
-475.289	-200.000	0.045	0.221
-474.274	-114.743	-0.210	-0.040
-473.259	800.000	0.073	-0.290
-472.245	-200.000	-0.026	0.195
-471.230	-123.928	0.625	0.098
-470.216	-113.345	0.246	-0.048
-469.201	316.683	-0.041	-0.077
-468.186	800.000	-0.017	-0.060
-467.172	-117.592	-0.161	0.029
-466.157	-136.271	-0.167	-0.019
-465.143	23.044	0.151	0.123
-464.128	170.327	-0.094	-0.134
-463.113	-200.000	-0.030	0.346
-462.099	486.334	-0.095	0.216
-461.084	-86.540	0.196	0.060
-460.070	277.374	0.026	0.046
-459.055	17.863	0.145	0.115
-458.040	115.719	-0.123	0.150
-457.026	373.741	-0.053	-0.108
-456.011	-162.396	0.451	-0.022
-454.997	137.117	0.312	0.406
-453.982	-200.000	0.019	-0.166
-452.968	-142.387	-0.031	-0.003
-451.953	-18.650	-0.168	0.104
-450.938	-1.891	-0.142	-0.099
-449.924	-95.274	0.314	0.084
-448.909	300.312	-0.170	0.313
-447.895	93.151	0.228	0.257
-446.880	-200.000	-0.002	-0.260
-445.865	-82.723	0.479	-0.154
-444.851	125.530	0.076	0.095
-443.836	-22.154	0.188	-0.114
-442.822	-36.276	-0.305	-0.164
-441.807	794.410	-0.132	-0.362
-440.792	-200.000	0.005	0.038
-439.778	-95.916	-0.197	-0.052
-438.763	-39.309	-0.043	-0.023
-437.749	695.053	-0.112	0.293
-436.734	-36.796	-0.227	-0.121
-435.719	211.465	-0.132	0.207
-434.705	312.534	-0.085	-0.158
-433.690	-71.758	0.087	-0.032
-432.676	454.794	-0.077	-0.170
-431.661	-116.335	0.107	-0.020
-430.646	-100.334	0.218	0.054
-429.632	98.527	0.230	-0.264
-428.617	-104.100	-0.150	0.035
-427.603	351.593	0.044	-0.087
-426.588	244.952	-0.146	-0.245
-425.573	-76.011	-0.124	-0.044
-424.559	527.719	0.101	-0.236
-423.544	23.829	0.158	-0.130
-422.530	164.162	-0.071	-0.099
-421.515	-200.000	0.005	-0.296
-420.500	172.080	-0.126	0.180
-419.486	217.679	-0.034	-0.055
-418.471	116.884	0.208	-0.254
-417.457	82.526	0.268	0.290
-416.442	-50.440	0.367	-0.173
-415.428	134.422	0.213	0.275
-414.413	800.000	-0.058	0.202
-413.398	30.169	0.318	-0.270
-412.384	150.504	0.215	-0.290
-411.369	-39.754	-0.196	0.102
-410.355	-200.000	0.011	-0.168
-409.340	-200.000	0.046	0.204
-408.325	800.000	-0.019	0.071
-407.311	-151.849	0.047	-0.003
-406.296	-45.795	-0.145	0.071
-405.282	-102.933	-0.263	-0.062
-404.267	30.321	0.245	0.208
-403.252	-76.608	0.145	-0.051
-402.238	-200.000	0.012	-0.153
-401.223	-116.850	-0.045	0.008
-400.209	-56.933	-0.109	-0.048
-399.194	-71.387	0.250	-0.093
-398.179	269.097	0.134	-0.234
-397.165	-200.000	0.017	-0.291
-396.150	800.000	-0.025	-0.104
-395.136	106.024	-0.099	-0.117
-394.121	800.000	-0.035	0.125
-393.106	204.313	-0.143	0.220
-392.092	-81.378	-0.079	0.026
-391.077	-200.000	-0.022	-0.158
-390.063	190.556	0.215	-0.321
-389.048	172.340	0.058	-0.084
-388.033	-22.147	0.421	0.254
-387.019	128.081	-0.152	-0.192
-386.004	480.378	-0.017	0.038
-384.990	-130.082	0.226	-0.031
-383.975	-78.990	0.208	0.070
-382.960	312.128	0.082	-0.153
-381.946	-6.421	0.187	-0.127
-380.931	-161.577	0.208	-0.011
-379.917	-200.000	-0.219	-0.000
-378.902	-0.658	0.109	0.077
-377.888	-200.000	0.058	-0.291
-376.873	650.925	0.027	-0.068
-375.858	-58.054	-0.097	-0.042
-374.844	-165.675	-0.051	0.002
-373.829	-200.000	0.012	0.252
-372.815	800.000	0.021	-0.070
-371.800	-163.350	0.221	0.010
-370.785	655.459	-0.038	-0.097
-369.771	-127.797	0.371	0.053
-368.756	-101.450	0.108	-0.026
-367.742	124.254	0.049	0.061
-366.727	177.688	0.127	0.184
-365.712	-200.000	0.042	-0.213
-364.698	-144.405	0.358	-0.033
-363.683	-164.133	-0.157	0.007
-362.669	61.583	-0.249	-0.246
-361.654	67.813	-0.047	0.048
-360.639	28.258	-0.440	0.369
-359.625	-111.118	-0.421	0.086
-358.610	93.773	0.218	-0.246
-357.596	-200.000	-0.011	0.235
-356.581	-89.366	-0.303	0.089
-355.566	70.259	0.122	0.126
-354.552	-200.000	-0.049	0.259
-353.537	-119.825	-0.345	-0.059
-352.523	35.964	-0.122	-0.106
-351.508	-200.000	0.097	-0.452
-350.493	674.568	0.058	0.149
-349.479	-76.140	-0.191	-0.067
-348.464	-6.386	0.173	-0.117
-347.450	-60.705	-0.088	0.037
-346.435	-1.189	-0.095	0.067
-345.420	-139.835	-0.131	0.014
-344.406	-24.391	-0.035	0.021
-343.391	800.000	-0.064	-0.195
-342.377	64.777	0.192	0.192
-341.362	150.649	-0.102	-0.137
-340.348	-200.000	-0.016	-0.190
-339.333	246.088	0.250	-0.418
-338.318	297.458	0.152	0.277
-337.304	-61.276	-0.313	0.131
-336.289	-98.364	-0.128	0.032
-335.275	347.472	-0.113	-0.220
-334.260	364.773	-0.025	0.049
-333.245	-200.000	-0.005	-0.291
-332.231	81.636	0.303	0.325
-331.216	-157.742	0.104	-0.006
-330.202	-92.902	-0.221	0.061
-329.187	800.000	-0.048	0.155
-328.172	65.397	-0.194	0.195
-327.158	-200.000	-0.196	-0.000
-326.143	93.365	0.207	-0.232
-325.129	27.473	0.161	0.134
-324.114	18.132	0.195	0.154
-323.099	-200.000	0.036	-0.164
-322.085	-200.000	-0.019	-0.388
-321.070	174.216	-0.187	-0.268
-320.056	-200.000	0.008	-0.269
-319.041	-200.000	0.011	-0.456
-318.026	-150.333	-0.088	-0.007
-317.012	-3.265	-0.176	-0.122
-315.997	-32.361	0.213	0.118
-314.983	-103.306	-0.404	0.095
-313.968	-43.373	-0.102	-0.051
-312.953	-142.494	-0.342	-0.033
-311.939	-84.247	0.292	0.092
-310.924	-135.948	0.222	0.026
-309.910	40.583	0.231	0.206
-308.895	800.000	-0.074	0.250
-307.880	-200.000	-0.021	0.164
-306.866	800.000	0.055	-0.160
-305.851	-200.000	0.026	0.173
-304.837	22.125	0.156	0.126
-303.822	-158.791	0.122	0.007
-302.807	448.383	-0.049	0.107
-301.793	-6.268	-0.287	0.194
-300.778	417.546	-0.102	-0.216
-299.764	-200.000	0.048	0.234
-298.749	-53.769	0.235	-0.106
-297.735	-124.037	0.300	0.047
-296.720	158.473	-0.158	-0.218
-295.705	800.000	-0.055	-0.152
-294.691	-10.912	0.211	0.138
-293.676	-109.608	0.305	0.064
-292.662	-200.000	-0.007	0.120
-291.647	555.386	-0.088	-0.209
-290.632	-119.782	0.089	-0.015
-289.618	800.000	0.096	-0.285
-288.603	327.619	-0.195	-0.371
-287.589	-155.149	-0.134	-0.009
-286.574	234.090	0.064	0.105
-285.559	55.580	-0.146	0.140
-284.545	166.435	0.126	0.176
-283.530	-176.623	-0.027	0.001
-282.516	508.170	0.111	0.256
-281.501	212.879	-0.057	0.089
-280.486	-12.214	0.076	-0.049
-279.472	-171.384	-0.302	-0.010
-278.457	-156.881	0.148	-0.009
-277.443	222.675	-0.158	-0.251
-276.428	17.712	0.181	0.142
-275.413	26.529	-0.153	-0.126
-274.399	-85.901	-0.279	0.086
-273.384	-5.236	0.051	0.035
-272.370	-70.801	0.382	-0.143
-271.355	-107.913	0.066	-0.014
-270.340	-98.020	-0.099	-0.025
-269.326	445.350	0.049	0.106
-268.311	-98.489	0.238	-0.060
-267.297	116.779	-0.154	0.187
-266.282	-200.000	0.026	-0.174
-265.267	500.226	0.098	-0.224
-264.253	120.746	-0.176	0.217
-263.238	-20.887	0.097	0.059
-262.224	-12.685	-0.246	0.159
-261.209	-145.809	0.077	0.007
-260.195	-72.360	-0.157	0.057
-259.180	-188.575	-0.210	-0.003
-258.165	655.418	0.036	0.091
-257.151	-200.000	-0.012	0.232
-256.136	86.073	-0.065	0.071
-255.122	-200.000	-0.055	-0.279
-254.107	-166.854	-0.119	-0.005
-253.092	274.373	-0.170	0.297
-252.078	-200.000	0.006	0.125
-251.063	68.533	0.047	-0.047
-250.049	19.669	0.244	0.194
-249.034	326.430	-0.194	-0.367
-248.019	-7.461	-0.213	0.143
-247.005	-162.016	0.431	0.021
-245.990	-200.000	-0.020	0.271
-244.976	39.544	0.208	-0.184
-243.961	-200.000	-0.084	-0.421
-242.946	-28.573	0.406	0.231
-241.932	-175.085	-0.116	0.003
-240.917	346.046	-0.101	0.196
-239.903	-51.666	0.143	0.066
-238.888	263.900	0.044	0.075
-237.873	475.000	0.199	-0.444
-236.859	-37.159	0.276	0.146
-235.844	174.912	0.214	0.306
-234.830	151.461	-0.278	0.374
-233.815	-128.348	-0.293	-0.041
-232.800	-74.038	0.231	-0.083
-231.786	-104.516	0.320	0.073
-230.771	-86.470	-0.517	0.157
-229.757	-145.574	0.101	0.009
-228.742	-200.000	0.001	-0.323
-227.727	-111.962	0.111	0.022
-226.713	66.016	0.052	0.052
-225.698	-171.916	-0.385	-0.012
-224.684	67.475	-0.063	0.064
-223.669	245.930	0.166	0.276
-222.655	-200.000	0.027	0.177
-221.640	-51.730	-0.242	-0.111
-220.625	-152.177	-0.296	0.021
-219.611	-48.783	-0.315	0.149
-218.596	800.000	0.041	-0.124
-217.582	800.000	-0.055	-0.199
-216.567	496.844	0.108	0.246
-215.552	107.811	0.014	-0.017
-214.538	745.272	-0.202	-0.537
-213.523	-140.470	0.063	0.006
-212.509	-84.239	0.282	-0.088
-211.494	-117.954	0.487	0.086
-210.479	153.079	-0.175	-0.237
-209.465	-200.000	-0.039	-0.277
-208.450	197.571	-0.121	0.183
-207.436	487.172	0.035	0.078
-206.421	83.660	-0.214	-0.230
-205.406	0.576	0.303	0.214
-204.392	23.150	-0.023	0.019
-203.377	-200.000	0.037	-0.167
-202.363	-41.434	-0.187	0.095
-201.348	-34.999	0.249	0.134
-200.333	360.012	-0.046	-0.092
-199.319	800.000	-0.046	0.180
-198.304	-51.089	0.121	0.056
-197.290	-87.513	0.200	-0.060
-196.275	800.000	-0.076	-0.288
-195.260	1.462	-0.238	-0.169
-194.246	544.377	-0.140	-0.329
-193.231	-128.956	0.147	0.020
-192.217	-200.000	-0.004	0.293
-191.202	68.276	0.115	-0.116
-190.187	-142.626	-0.241	0.023
-189.173	68.527	-0.037	0.037
-188.158	-72.702	0.226	0.082
-187.144	-48.295	-0.191	-0.091
-186.129	208.650	-0.140	0.216
-185.114	800.000	0.077	-0.241
-184.100	155.730	-0.155	-0.210
-183.085	-138.255	0.436	0.048
-182.071	137.621	0.152	0.196
-181.056	-138.731	0.375	-0.040
-180.042	-117.566	-0.024	0.004
-179.027	-33.133	-0.265	-0.145
-178.012	55.357	0.294	0.280
-176.998	-138.366	-0.228	0.025
-175.983	-53.024	-0.071	0.032
-174.969	-135.412	0.404	-0.048
-173.954	154.674	0.060	-0.081
-172.939	-24.490	-0.068	-0.040
-171.925	24.475	0.222	0.181
-170.910	31.813	0.184	0.156
-169.896	45.347	-0.150	0.136
-168.881	-14.562	-0.144	0.091
-167.866	-15.556	-0.327	0.206
-166.852	800.000	-0.082	0.311
-165.837	-130.518	0.401	0.053
-164.823	800.000	-0.046	-0.192
-163.808	600.984	-0.092	-0.225
-162.793	263.811	0.052	0.090
-161.779	102.600	-0.092	-0.106
-160.764	-200.000	-0.015	-0.131
-159.750	95.299	0.125	-0.140
-158.735	15.577	0.188	0.145
-157.720	-200.000	-0.035	-0.192
-156.706	-165.156	-0.172	-0.007
-155.691	235.005	-0.103	0.168
-154.677	-200.000	-0.040	0.344
-153.662	60.649	0.159	-0.155
-152.647	800.000	0.060	-0.168
-151.633	800.000	-0.051	-0.141
-150.618	-200.000	0.015	-0.482
-149.604	-174.100	-0.143	0.004
-148.589	195.502	0.119	0.178
-147.574	439.423	-0.103	-0.221
-146.560	-79.925	-0.307	0.101
-145.545	-107.927	-0.051	0.011
-144.531	-163.906	0.121	0.006
-143.516	-59.684	0.275	-0.116
-142.502	-51.193	-0.126	-0.058
-141.487	-66.738	0.085	-0.033
-140.472	38.505	0.155	-0.136
-139.458	431.485	0.084	-0.179
-138.443	-9.307	0.267	-0.176
-137.429	-133.650	0.277	0.034
-136.414	-200.000	-0.040	0.228
-135.399	173.224	-0.037	-0.053
-134.385	-200.000	0.031	0.153
-133.370	-200.000	-0.011	-0.117
-132.356	200.236	0.088	0.132
-131.341	152.053	-0.052	0.070
-130.326	328.735	0.072	0.137
-129.312	-200.000	-0.041	0.180
-128.297	-200.000	0.016	-0.080
-127.283	-92.395	0.118	-0.033
-126.268	213.349	0.180	0.280
-125.253	52.433	0.149	0.140
-124.239	581.027	0.032	0.076
-123.224	-200.000	-0.081	0.376
-122.210	13.294	0.059	-0.045
-121.195	105.478	-0.176	-0.204
-120.180	-76.441	0.150	0.052
-119.166	-51.951	-0.210	0.096
-118.151	-165.150	0.186	0.008
-117.137	-200.000	0.024	0.305
-116.122	-61.663	-0.175	-0.072
-115.107	-62.890	-0.139	-0.057
-114.093	525.671	0.053	0.122
-113.078	-32.960	0.222	0.121
-112.064	-43.715	0.056	-0.028
-111.049	-37.950	0.077	0.040
-110.034	100.912	0.147	-0.168
-109.020	137.076	-0.091	-0.117
-108.005	-135.458	0.409	-0.048
-106.991	121.760	0.068	-0.083
-105.976	119.216	-0.173	-0.211
-104.962	800.000	0.065	-0.241
-103.947	-200.000	0.000	-0.081
-102.932	175.870	0.079	0.113
-101.918	91.836	-0.210	0.232
-100.903	-86.336	0.293	0.089
-99.889	3.318	-0.095	-0.068
-98.874	0.124	0.153	-0.107
-97.859	-200.000	0.022	-0.249
-96.845	113.569	0.065	-0.077
-95.830	-121.929	0.318	0.051
-94.816	40.918	-0.247	-0.219
-93.801	-133.795	0.411	-0.050
-92.786	-154.424	0.469	-0.031
-91.772	-26.584	-0.062	0.036
-90.757	-46.339	0.253	-0.122
-89.743	384.987	0.160	-0.325
-88.728	21.831	-0.046	0.037
-87.713	-200.000	-0.004	0.041
-86.699	194.241	-0.166	-0.247
-85.684	-142.474	0.118	0.011
-84.670	800.000	0.113	0.317
-83.655	-38.001	0.180	-0.094
-82.640	192.646	0.089	-0.133
-81.626	-104.381	-0.079	-0.018
-80.611	-200.000	0.048	0.232
-79.597	-60.653	0.224	0.093
-78.582	298.030	-0.100	-0.181
-77.567	-200.000	0.045	0.284
-76.553	48.197	-0.200	-0.184
-75.538	735.408	0.009	-0.023
-74.524	692.627	0.043	0.110
-73.509	323.792	0.084	-0.157
-72.494	800.000	0.077	0.264
-71.480	800.000	-0.050	0.180
-70.465	-164.249	0.420	0.019
-69.451	800.000	0.081	0.237
-68.436	84.031	0.122	-0.131
-67.422	800.000	0.086	0.358
-66.407	-35.521	0.275	0.147
-65.392	25.626	0.128	0.105
-64.378	-111.008	0.218	-0.044
-63.363	-200.000	-0.032	0.163
-62.349	-200.000	0.019	-0.138
-61.334	3.054	-0.971	-0.692
-60.319	657.296	0.300	0.757
-59.305	-200.000	-0.201	-1.219
-58.290	225.904	0.694	1.104
-57.276	330.374	0.654	1.236
-56.261	-200.000	97.015	606.138
-55.246	620.740	1396.415	3446.412
-54.232	193.494	2587.949	3842.011
-53.217	118.625	2146.949	2601.076
-52.203	44.075	1601.948	1441.090
-51.188	35.442	1340.446	1154.171
-50.173	32.063	1299.403	1099.045
-49.159	54.782	1347.878	1275.916
-48.144	57.207	1363.396	1304.973
-47.130	35.376	1322.387	1138.047
-46.115	32.079	1304.356	1103.155
-45.100	31.806	1299.530	1097.429
-44.086	31.762	1296.971	1094.968
-43.071	31.617	1294.997	1092.411
-42.057	31.742	1292.413	1090.916
-41.042	31.611	1290.717	1088.679
-40.027	31.738	1289.565	1088.401
-39.013	31.711	1287.685	1086.616
-37.998	31.806	1285.915	1085.631
-36.984	31.767	1283.968	1083.719
-35.969	31.815	1282.263	1082.512
-34.954	31.831	1280.214	1080.832
-33.940	31.887	1279.306	1080.344
-32.925	31.884	1277.986	1079.170
-31.911	31.864	1276.571	1077.817
-30.896	31.932	1274.931	1076.780
-29.881	31.780	1274.083	1075.152
-28.867	31.991	1272.184	1074.715
-27.852	31.729	1270.978	1072.151
-26.838	31.967	1269.213	1071.983
-25.823	31.989	1267.514	1070.628
-24.809	31.940	1266.443	1069.402
-23.794	31.895	1265.377	1068.208
-22.779	31.906	1263.727	1066.831
-21.765	31.865	1262.853	1065.820
-20.750	31.830	1261.693	1064.602
-19.736	31.902	1259.599	1063.196
-18.721	31.847	1258.552	1061.961
-17.706	31.850	1257.621	1061.151
-16.692	31.856	1256.637	1060.313
-15.677	31.773	1255.497	1058.837
-14.663	31.811	1254.126	1057.853
-13.648	31.688	1253.035	1056.201
-12.633	31.783	1252.387	1056.146
-11.619	31.794	1251.403	1055.336
-10.604	31.689	1250.677	1054.089
-9.590	31.668	1249.929	1053.299
-8.575	31.735	1248.412	1052.355
-7.560	31.727	1247.846	1051.791
-6.546	31.698	1246.986	1050.864
-5.531	31.640	1245.842	1049.532
-4.517	31.797	1244.813	1049.503
-3.502	31.700	1244.607	1048.744
-2.487	31.794	1243.009	1047.886
-1.473	31.677	1239.248	1044.016
-0.458	30.254	1224.107	1023.381
0.556	24.463	1206.602	985.098
1.571	20.611	1211.847	967.897
2.586	19.612	1226.325	973.743
3.600	19.320	1215.430	963.375
4.615	13.839	1144.206	877.933
5.629	4.485	1067.808	772.877
6.644	-0.019	1047.084	735.802
7.659	-0.342	1044.999	732.691
8.673	-0.533	1043.768	730.835
9.688	-0.385	1041.750	730.077
10.702	-0.083	1040.293	730.459
11.717	5.476	1048.510	763.343
12.731	14.452	1061.580	816.960
13.746	18.440	1066.274	840.091
14.761	18.665	1066.269	841.117
15.775	18.702	1065.176	840.364
16.790	18.436	1064.382	838.359
17.804	18.372	1063.430	837.225
18.819	18.472	1063.291	837.527
19.834	18.427	1062.835	836.876
20.848	18.333	1062.520	836.096
21.863	18.369	1061.967	835.760
22.877	18.362	1061.210	835.057
23.892	18.445	1060.256	834.637
24.907	18.533	1059.525	834.417
25.921	18.532	1058.301	833.371
26.936	18.383	1057.408	831.872
27.950	18.319	1055.851	830.263
28.965	18.300	1053.686	828.395
29.980	18.358	1051.889	827.191
30.994	18.459	1050.948	826.861
32.009	18.527	1049.643	826.093
33.023	18.300	1048.195	823.787
34.038	18.368	1047.581	823.559
35.053	18.500	1046.934	823.609
36.067	18.559	1045.687	822.838
37.082	18.731	1044.625	822.757
38.096	18.910	1044.459	823.410
39.111	18.832	1043.916	822.536
40.126	18.583	1042.588	820.224
41.140	18.312	1040.760	817.422
42.155	18.081	1039.615	815.350
43.169	18.284	1037.983	814.963
44.184	18.228	1037.690	814.393
45.199	18.060	1036.058	812.240
46.213	18.253	1035.193	812.411
47.228	18.336	1034.385	812.097
48.242	18.204	1033.564	810.756
49.257	18.389	1032.556	810.768
50.271	18.466	1031.819	810.482
51.286	18.444	1030.867	809.556
52.301	18.526	1029.596	808.877
53.315	18.466	1028.344	807.536
54.330	18.567	1027.731	807.460
55.344	18.561	1026.924	806.729
56.359	18.472	1025.729	805.301
57.374	18.295	1025.064	803.874
58.388	18.468	1024.302	804.017
59.403	18.315	1023.175	802.344
60.417	18.213	1022.250	801.069
61.432	18.272	1021.909	801.009
62.447	18.410	1021.132	800.974
63.461	18.524	1019.822	800.407
64.476	18.246	1019.433	798.735
65.490	18.213	1018.455	797.742
66.505	18.300	1017.578	797.390
67.520	18.364	1016.722	796.948
68.534	18.289	1015.411	795.501
69.549	18.002	1014.908	793.705
70.563	18.016	1013.963	792.959
71.578	18.050	1012.979	792.276
72.593	17.913	1011.797	790.647
73.607	18.075	1011.305	790.944
74.622	18.291	1011.145	791.750
75.636	18.247	1010.277	790.795
76.651	17.983	1009.753	789.095
77.666	18.064	1008.779	788.638
78.680	18.050	1008.031	787.916
79.695	18.165	1007.362	787.857
80.709	18.302	1006.575	787.803
81.724	18.239	1005.786	786.826
82.739	18.212	1005.062	786.066
83.753	18.556	1004.317	786.992
84.768	18.678	1003.092	786.519
85.782	18.764	1002.131	786.093
86.797	18.637	1001.339	784.818
87.812	18.530	999.850	783.094
88.826	18.679	999.366	783.328
89.841	18.761	998.101	782.641
90.855	18.784	997.541	782.238
91.870	18.632	996.692	780.811
92.884	18.632	995.495	779.800
93.899	18.619	994.584	778.959
94.914	18.712	993.656	778.587
95.928	18.576	992.694	777.148
96.943	18.307	991.483	774.912
97.957	18.175	990.171	773.221
98.972	18.064	988.682	771.491
99.987	18.222	988.721	772.165
101.001	18.374	987.867	772.118
102.016	18.448	986.862	771.597
103.030	18.355	985.744	770.234
104.045	18.306	984.221	768.755
105.060	18.039	983.395	766.844
106.074	18.311	982.397	767.216
107.089	18.700	982.120	768.675
108.103	18.483	981.841	767.417
109.118	18.457	979.915	765.728
110.133	18.309	979.252	764.482
111.147	18.348	977.420	763.158
112.162	18.222	976.709	761.975
113.176	18.315	976.223	761.943
114.191	18.207	975.165	760.569
115.206	17.990	973.940	758.581
116.220	18.017	973.276	758.119
117.235	18.224	972.121	758.067
118.249	18.068	971.345	756.706
119.264	18.162	970.281	756.226
120.279	18.209	969.952	756.111
121.293	18.264	968.938	755.494
122.308	18.194	968.237	754.573
123.322	18.154	966.989	753.358
124.337	18.074	965.370	751.677
125.352	17.709	963.337	748.428
126.366	17.557	962.633	747.147
127.381	18.261	962.749	750.256
128.395	18.563	961.919	750.867
129.410	18.701	960.961	750.657
130.424	18.576	959.878	749.200
131.439	18.617	958.947	748.582
132.454	18.469	957.711	746.907
133.468	18.598	956.893	746.768
134.483	18.644	956.316	746.449
135.497	18.755	955.588	746.300
136.512	18.843	954.488	745.753
137.527	18.808	953.850	745.039
138.541	18.898	952.476	744.286
139.556	18.830	951.865	743.450
140.570	18.780	951.322	742.743
141.585	18.795	949.940	741.666
142.600	18.770	948.692	740.517
143.614	19.043	948.099	741.167
144.629	19.014	947.434	740.454
145.643	18.940	946.191	739.101
146.658	18.710	944.863	737.009
147.673	18.802	944.066	736.719
148.687	18.546	943.422	735.055
149.702	18.605	942.305	734.368
150.716	18.732	941.030	733.852
151.731	18.910	940.377	734.042
152.746	18.927	940.139	733.864
153.760	18.978	939.482	733.501
154.775	19.019	938.446	732.802
155.789	18.895	937.819	731.722
156.804	18.815	937.041	730.708
157.819	18.942	936.346	730.643
158.833	19.006	935.495	730.187
159.848	19.039	933.932	729.040
160.862	19.015	932.586	727.825
161.877	18.960	932.027	727.090
162.892	19.096	931.167	726.929
163.906	18.918	930.463	725.564
164.921	18.843	929.326	724.298
165.935	19.010	928.226	724.080
166.950	18.976	927.385	723.215
167.964	18.972	926.895	722.753
168.979	18.860	925.759	721.333
169.994	18.936	924.568	720.662
171.008	19.116	923.890	720.824
172.023	18.986	923.078	719.582
173.037	18.796	922.101	717.960
174.052	18.614	921.077	716.342
175.067	18.698	920.722	716.350
176.081	18.916	920.461	716.996
177.096	18.881	919.670	716.168
178.110	18.494	918.594	713.656
179.125	18.522	917.712	713.025
180.140	18.535	917.374	712.754
181.154	18.489	917.248	712.403
182.169	18.829	916.658	713.291
183.183	19.092	915.892	713.722
184.198	18.965	915.092	712.510
185.213	18.927	914.236	711.624
186.227	19.001	914.082	711.747
187.242	18.999	912.830	710.700
188.256	18.981	912.311	710.159
189.271	19.009	911.663	709.707
190.286	18.768	910.525	707.764
191.300	18.402	909.100	705.089
192.315	17.842	907.541	701.518
193.329	17.724	907.331	700.806
194.344	18.398	907.964	704.006
195.359	18.940	907.436	705.758
196.373	19.020	906.663	705.423
197.388	18.821	906.065	704.080
198.402	18.714	905.317	702.997
199.417	18.616	905.287	702.510
200.432	18.389	903.844	700.403
201.446	18.281	903.164	699.371
202.461	18.337	902.642	699.135
203.475	17.567	900.732	694.456
204.490	16.950	899.201	690.702
205.504	17.993	899.899	695.422
206.519	18.618	899.362	697.488
207.534	18.573	899.091	697.034
208.548	18.916	898.906	698.225
209.563	18.683	897.438	696.074
210.577	18.701	897.151	695.864
211.592	18.860	897.035	696.359
212.607	18.905	896.197	695.826
213.621	18.893	895.548	695.212
214.636	19.076	894.748	695.270
215.650	19.000	893.763	694.137
216.665	19.156	893.311	694.353
217.680	18.962	892.096	692.567
218.694	18.588	891.190	690.297
219.709	18.471	890.497	689.228
220.723	18.813	890.431	690.490
221.738	18.890	889.844	690.283
222.753	18.828	888.881	689.228
223.767	18.940	888.242	689.120
224.782	19.212	887.528	689.596
225.796	19.146	886.983	688.844
226.811	18.413	885.895	685.011
227.826	17.901	884.613	681.915
228.840	18.091	884.331	682.396
229.855	18.240	883.440	682.240
230.869	17.917	882.131	679.884
231.884	18.297	882.427	681.565
232.899	19.004	882.267	684.195
233.913	18.869	881.810	683.244
234.928	18.870	880.929	682.504
235.942	18.863	880.081	681.758
236.957	18.566	879.593	680.140
237.972	18.665	878.568	679.682
238.986	18.803	878.480	680.098
240.001	18.736	877.506	679.020
241.015	18.897	876.848	679.088
242.030	18.873	876.341	678.538
243.045	19.094	875.823	678.949
244.059	19.074	875.523	678.579
245.074	18.925	874.273	676.964
246.088	18.669	873.392	675.216
247.103	18.819	873.099	675.519
248.117	19.347	872.461	677.037
249.132	19.423	872.198	677.072
250.147	19.418	871.803	676.685
251.161	19.438	871.241	676.269
252.176	19.629	870.476	676.362
253.190	19.625	869.878	675.824
254.205	19.659	869.544	675.637
255.220	19.756	868.642	675.255
256.234	19.704	868.054	674.537
257.249	19.567	866.785	672.955
258.263	19.529	866.321	672.387
259.278	19.730	865.604	672.555
260.293	19.718	864.494	671.584
261.307	19.547	864.031	670.504
262.322	19.384	863.323	669.263
263.336	18.571	861.720	664.808
264.351	17.620	859.555	659.403
265.366	17.692	859.288	659.415
266.380	18.703	859.895	663.737
267.395	19.212	859.857	665.614
268.409	19.130	859.057	664.619
269.424	19.522	858.140	665.365
270.439	19.595	857.414	665.021
271.453	19.687	857.198	665.149
272.468	19.991	856.537	665.746
273.482	19.859	855.743	664.565
274.497	19.390	854.955	662.094
275.512	19.139	853.754	660.141
276.526	19.505	854.070	661.731
277.541	19.539	853.327	661.228
278.555	19.287	852.471	659.543
279.570	19.202	851.416	658.341
280.585	19.265	851.110	658.289
281.599	19.271	850.120	657.487
282.614	18.804	849.502	655.172
283.628	18.845	848.654	654.616
284.643	19.225	848.462	655.857
285.657	18.833	846.826	653.042
286.672	18.580	846.460	651.741
287.687	19.248	846.045	653.901
288.701	19.088	845.841	653.078
289.716	18.738	845.055	651.088
290.730	18.745	844.100	650.321
291.745	18.541	842.925	648.586
292.760	19.051	842.541	650.160
293.774	19.640	843.609	653.155
294.789	20.056	842.732	653.989
295.803	20.212	842.426	654.279
296.818	20.141	841.831	653.493
297.833	19.942	840.105	651.345
298.847	19.566	839.968	649.770
299.862	19.894	839.349	650.467
300.876	20.080	839.462	651.194
301.891	19.970	837.820	649.452
302.906	19.536	837.340	647.392
303.920	19.638	837.168	647.586
304.935	20.096	836.693	648.877
305.949	19.923	836.185	647.778
306.964	19.802	835.219	646.520
307.979	20.010	834.743	646.872
308.993	20.129	835.036	647.486
310.008	20.180	834.147	646.929
311.022	19.958	833.406	645.471
312.037	19.877	832.739	644.595
313.052	19.633	831.646	642.783
314.066	19.028	830.818	639.838
315.081	18.724	829.988	638.013
316.095	19.423	830.031	640.584
317.110	19.846	829.717	641.856
318.125	19.176	828.526	638.394
319.139	18.242	827.371	633.989
320.154	18.143	826.990	633.273
321.168	18.926	827.134	636.228
322.183	19.649	826.934	638.692
323.197	19.829	826.584	639.029
324.212	20.091	826.352	639.761
325.227	19.852	826.163	638.678
326.241	19.813	825.181	637.716
327.256	19.797	824.696	637.227
328.270	19.877	823.620	636.635
329.285	19.641	823.251	635.423
330.300	19.510	822.022	633.938
331.314	19.616	822.118	634.345
332.329	19.867	821.823	634.982
333.343	19.991	821.281	634.961
334.358	20.021	820.545	634.447
335.373	20.122	820.568	634.779
336.387	20.395	820.161	635.408
337.402	20.425	820.113	635.423
338.416	20.123	819.744	633.975
339.431	20.397	819.164	634.473
340.446	20.522	818.777	634.575
341.460	20.325	818.398	633.504
342.475	20.171	817.621	632.285
343.489	20.301	817.395	632.527
344.504	20.480	817.038	632.849
345.519	20.548	816.781	632.840
346.533	20.666	816.437	632.948
347.548	20.636	815.814	632.298
348.562	20.722	815.221	632.095
349.577	20.615	814.772	631.303
350.592	20.714	814.534	631.421
351.606	20.629	813.432	630.203
352.621	20.610	812.624	629.455
353.635	20.445	811.772	628.140
354.650	19.939	810.145	625.003
355.665	19.083	808.475	620.573
356.679	19.483	808.455	621.943
357.694	19.729	808.256	622.623
358.708	19.774	807.773	622.356
359.723	20.074	807.798	623.402
360.738	20.443	806.931	624.003
361.752	20.425	807.001	623.935
362.767	20.862	805.941	624.628
363.781	21.038	805.471	624.838
364.796	20.903	805.524	624.341
365.810	20.848	805.059	623.730
366.825	20.962	804.517	623.664
367.840	20.830	803.803	622.580
368.854	20.378	803.418	620.613
369.869	20.547	802.868	620.736
370.883	20.493	802.354	620.092
371.898	20.299	801.983	619.058
372.913	20.536	801.045	619.123
373.927	20.593	801.248	619.429
374.942	20.736	800.652	619.423
375.956	20.825	799.956	619.144
376.971	20.920	799.688	619.220
377.986	21.009	799.433	619.284
379.000	20.956	798.606	618.402
380.015	20.777	798.493	617.624
381.029	20.871	797.911	617.454
382.044	20.902	797.312	617.042
383.059	21.087	796.192	616.776
384.073	21.077	796.161	616.663
385.088	21.145	795.254	616.147
386.102	20.963	794.670	614.996
387.117	20.850	794.384	614.321
388.132	20.426	793.489	612.082
389.146	20.152	792.205	610.072
390.161	20.367	792.365	610.901
391.175	20.691	792.276	611.915
392.190	20.441	791.062	610.048
393.205	19.273	789.066	604.362
394.219	17.980	787.712	598.738
395.234	18.256	787.435	599.444
396.248	19.520	788.648	604.746
397.263	20.799	789.284	609.661
398.278	20.579	789.406	608.931
399.292	20.647	788.438	608.366
400.307	20.548	787.834	607.500
401.321	20.700	787.446	607.678
402.336	21.072	787.493	608.960
403.350	21.256	787.245	609.358
404.365	21.402	786.881	609.531
405.380	21.779	786.575	610.550
406.394	21.583	786.195	609.523
407.409	21.481	785.441	608.527
408.423	21.566	785.117	608.517
409.438	21.565	784.856	608.258
410.453	21.772	784.292	608.487
411.467	21.664	783.808	607.681
412.482	21.641	783.251	607.116
413.496	21.629	783.552	607.253
414.511	21.700	782.769	606.840
415.526	21.607	782.786	606.478
416.540	21.586	781.290	605.192
417.555	21.263	780.721	603.582
418.569	21.488	780.099	603.824
419.584	21.394	780.028	603.391
420.599	21.197	779.363	602.143
421.613	157.745	1361.905	1795.071
422.628	136.301	1446.790	1795.184
