DTS Sentinel unit serial number:	SN413079Multiplexer serial number:	ORYXHardware model number:	OX4-SRSoftware version number:	ORYX F/W v4.00 Oryx Data Collector v3.7.2.0data status	okinstallation	princeton_trtdifferential loss correction	single-endedforward channel	channel 1reverse channel	N/Adate	2019/09/13time	23:02:35forward acquisition time	60.00reverse acquisition time	0.00gamma	496.2192k internal	0.2334k external	0.2334temperature offset calibration	1.0084default loss term (dB/km)	0.3790temperature slope calibration	1.0000multiplexer offset coefficient	1.0000multiplexer slope coefficient	1.0000fibre end	0.00T internal ref (°C)	27.31T ext. ref 1 (°C)	3.20T ext. ref 2 (°C)	21.27length (m)	temperature (°C)	Stokes	anti-Stokes-747.200	45.645	0.009	-0.009
-746.185	111.193	0.081	0.099
-745.171	28.378	-0.187	-0.159
-744.156	18.270	0.198	0.159
-743.142	-200.000	-0.018	-0.268
-742.127	-160.004	-0.137	-0.008
-741.112	-200.000	-0.024	0.242
-740.098	330.282	-0.175	0.338
-739.083	-200.000	0.014	-0.214
-738.069	-200.000	-0.066	0.594
-737.054	-41.749	-0.243	0.125
-736.039	362.444	0.053	0.107
-735.025	33.028	0.245	0.213
-734.010	-125.506	-0.242	0.037
-732.996	-74.773	0.130	-0.047
-731.981	-83.326	-0.130	0.042
-730.966	-3.913	-0.204	0.142
-729.952	-200.000	0.005	0.033
-728.937	800.000	0.042	-0.125
-727.923	-200.000	-0.047	-0.233
-726.908	208.542	-0.205	0.322
-725.894	374.796	0.130	-0.266
-724.879	150.619	0.043	-0.059
-723.864	-168.752	-0.132	-0.005
-722.850	-80.278	0.179	0.060
-721.835	-200.000	-0.017	0.187
-720.821	-200.000	-0.043	0.193
-719.806	800.000	-0.083	-0.256
-718.791	-153.403	0.189	-0.013
-717.777	-146.445	0.305	-0.027
-716.762	-161.282	0.100	0.005
-715.748	-139.376	0.264	-0.028
-714.733	-52.703	-0.086	0.040
-713.718	679.979	-0.028	-0.073
-712.704	16.644	0.159	0.126
-711.689	-114.342	-0.148	0.029
-710.675	18.582	0.081	0.065
-709.660	-82.851	0.157	0.051
-708.645	-59.510	0.411	0.177
-707.631	32.846	0.178	-0.154
-706.616	-105.605	0.108	0.025
-705.602	73.777	0.302	0.317
-704.587	312.691	0.076	-0.143
-703.572	-200.000	0.001	0.227
-702.558	382.647	0.102	-0.210
-701.543	-52.998	0.103	0.047
-700.529	-200.000	-0.057	-0.287
-699.514	-200.000	-0.049	0.226
-698.499	-200.000	0.050	-0.374
-697.485	-55.300	0.315	-0.142
-696.470	777.147	0.019	0.051
-695.456	-103.361	-0.152	0.036
-694.441	-200.000	-0.034	-0.232
-693.426	214.183	0.192	0.304
-692.412	-128.742	-0.377	-0.053
-691.397	-34.753	0.132	-0.072
-690.383	-200.000	-0.005	0.410
-689.368	800.000	0.080	-0.270
-688.354	-17.815	-0.129	-0.081
-687.339	62.755	-0.186	0.186
-686.324	724.624	0.061	0.163
-685.310	-44.043	0.312	0.157
-684.295	-198.670	-0.136	0.001
-683.281	-200.000	0.013	0.223
-682.266	-45.250	0.058	-0.029
-681.251	57.056	-0.362	-0.354
-680.237	-46.664	0.191	-0.094
-679.222	-63.867	0.081	0.033
-678.208	-200.000	0.051	-0.000
-677.193	350.710	-0.087	-0.172
-676.178	197.636	0.027	0.042
-675.164	-109.860	0.133	-0.028
-674.149	-151.060	0.116	-0.009
-673.135	-61.581	-0.099	0.042
-672.120	-200.000	-0.002	0.286
-671.105	44.954	-0.100	0.093
-670.091	-200.000	-0.009	-0.140
-669.076	266.692	0.146	0.255
-668.062	66.615	0.122	0.124
-667.047	300.717	0.046	-0.085
-666.032	-92.310	0.080	-0.023
-665.018	637.955	0.010	-0.026
-664.003	-22.748	-0.188	0.114
-662.989	-13.835	0.266	0.173
-661.974	-99.939	0.230	0.058
-660.959	-200.000	0.022	0.118
-659.945	-200.000	-0.019	-0.109
-658.930	73.336	0.245	0.257
-657.916	-200.000	-0.031	0.233
-656.901	-113.049	-0.085	0.017
-655.886	588.614	0.094	-0.231
-654.872	-72.643	-0.295	-0.109
-653.857	197.376	-0.048	-0.074
-652.843	347.714	-0.087	0.171
-651.828	216.895	-0.081	0.130
-650.814	800.000	-0.068	0.201
-649.799	800.000	-0.067	-0.204
-648.784	800.000	-0.014	-0.046
-647.770	-68.348	-0.157	-0.061
-646.755	-200.000	-0.022	-0.199
-645.741	-154.947	-0.144	-0.009
-644.726	44.170	0.128	0.118
-643.711	-114.511	0.466	0.089
-642.697	-200.000	0.011	-0.143
-641.682	244.479	0.091	-0.154
-640.668	24.350	-0.131	-0.109
-639.653	-200.000	0.030	0.280
-638.638	140.365	-0.175	-0.231
-637.624	-200.000	-0.045	-0.215
-636.609	-85.950	0.175	0.054
-635.595	-102.257	-0.102	-0.024
-634.580	-200.000	0.020	-0.285
-633.565	161.324	0.143	0.200
-632.551	-52.984	0.167	0.077
-631.536	91.388	-0.219	0.246
-630.522	595.645	-0.059	-0.146
-629.507	-18.797	-0.278	0.173
-628.492	-200.000	0.041	-0.273
-627.478	-200.000	-0.057	-0.370
-626.463	-200.000	0.050	0.223
-625.449	800.000	-0.060	-0.225
-624.434	-129.251	-0.318	-0.044
-623.419	555.837	-0.107	-0.258
-622.405	631.898	-0.066	-0.167
-621.390	-112.683	-0.186	-0.037
-620.376	-200.000	-0.028	-0.255
-619.361	164.543	0.046	-0.065
-618.346	-168.465	-0.298	-0.011
-617.332	301.879	-0.084	-0.156
-616.317	800.000	-0.058	0.231
-615.303	800.000	0.032	0.097
-614.288	181.067	-0.043	-0.063
-613.273	-104.743	-0.216	-0.050
-612.259	199.085	0.083	0.126
-611.244	-200.000	-0.012	-0.336
-610.230	-111.454	0.281	-0.057
-609.215	19.721	0.255	-0.206
-608.201	-120.005	0.070	0.012
-607.186	800.000	-0.084	0.237
-606.171	-4.632	0.036	-0.025
-605.157	-23.333	0.056	0.034
-604.142	129.603	0.232	-0.297
-603.128	800.000	-0.105	-0.294
-602.113	-200.000	0.022	0.156
-601.098	9.788	-0.179	0.136
-600.084	-129.126	0.095	-0.013
-599.069	286.642	-0.082	0.149
-598.055	152.528	-0.080	0.109
-597.040	-45.347	-0.133	0.066
-596.025	379.706	-0.117	0.239
-595.011	82.978	-0.112	0.122
-593.996	800.000	0.032	-0.116
-592.982	800.000	-0.044	-0.168
-591.967	-96.607	0.251	-0.066
-590.952	394.285	-0.061	0.128
-589.938	656.349	-0.118	-0.304
-588.923	-178.104	-0.039	0.001
-587.909	-146.969	-0.283	0.024
-586.894	31.897	-0.088	0.076
-585.879	800.000	-0.059	-0.165
-584.865	-87.139	-0.279	-0.085
-583.850	-195.633	-0.138	-0.001
-582.836	-176.484	-0.225	0.006
-581.821	-102.501	0.109	-0.026
-580.806	-103.648	0.259	0.061
-579.792	800.000	-0.079	-0.319
-578.777	194.908	0.112	-0.170
-577.763	-177.431	0.280	0.007
-576.748	-37.164	-0.311	0.166
-575.733	-153.371	0.240	0.017
-574.719	-21.047	-0.252	0.154
-573.704	800.000	0.011	0.032
-572.690	-68.626	-0.193	-0.075
-571.675	411.443	0.089	-0.189
-570.661	141.834	-0.162	-0.214
-569.646	-200.000	0.018	-0.439
-568.631	-68.801	-0.169	-0.065
-567.617	-29.198	-0.024	-0.014
-566.602	-153.715	-0.249	-0.017
-565.588	36.396	-0.291	-0.256
-564.573	25.710	0.241	-0.200
-563.558	84.293	-0.191	-0.209
-562.544	-200.000	-0.020	0.098
-561.529	108.007	0.231	0.275
-560.515	-178.483	-0.314	-0.007
-559.500	61.414	-0.145	-0.144
-558.485	240.300	-0.123	0.204
-557.471	251.433	0.067	-0.114
-556.456	285.073	0.055	0.098
-555.442	-200.000	-0.015	-0.101
-554.427	-40.529	0.264	-0.137
-553.412	672.904	-0.172	0.444
-552.398	-104.515	0.213	0.049
-551.383	-200.000	-0.004	-0.212
-550.369	800.000	-0.038	-0.162
-549.354	-100.443	0.346	0.085
-548.339	-15.801	0.186	0.118
-547.325	55.258	-0.329	-0.318
-546.310	283.525	0.123	-0.220
-545.296	-200.000	-0.005	-0.106
-544.281	-172.846	-0.183	0.006
-543.266	92.413	-0.047	-0.053
-542.252	-7.578	-0.160	-0.108
-541.237	-11.029	-0.161	0.106
-540.223	-200.000	-0.011	0.308
-539.208	-64.987	-0.147	-0.059
-538.193	800.000	-0.055	0.206
-537.179	-113.187	-0.224	0.044
-536.164	376.964	0.124	-0.252
-535.150	-200.000	0.003	-0.125
-534.135	-200.000	-0.026	-0.216
-533.121	-101.603	-0.285	0.069
-532.106	-105.794	0.295	-0.066
-531.091	-74.474	-0.117	0.042
-530.077	47.313	-0.093	-0.086
-529.062	-98.311	0.161	0.041
-528.048	-200.000	0.029	0.179
-527.033	154.331	-0.124	0.169
-526.018	-30.786	0.180	0.101
-525.004	-52.598	-0.293	0.135
-523.989	-99.093	-0.283	0.071
-522.975	111.362	0.232	-0.279
-521.960	53.760	0.150	-0.143
-520.945	67.984	0.177	-0.181
-519.931	-118.478	0.145	0.026
-518.916	-200.000	0.002	-0.069
-517.902	-200.000	-0.104	-0.471
-516.887	800.000	0.095	0.262
-515.872	-200.000	0.030	0.197
-514.858	800.000	-0.047	-0.170
-513.843	-200.000	0.023	-0.168
-512.829	267.426	0.207	-0.360
-511.814	-140.519	-0.125	0.013
-510.799	147.627	-0.127	0.171
-509.785	269.030	0.112	-0.195
-508.770	197.793	-0.150	-0.228
-507.756	-151.954	-0.223	0.016
-506.741	-4.944	0.154	-0.105
-505.726	-97.818	0.101	0.026
-504.712	-39.934	0.211	-0.110
-503.697	411.808	0.121	-0.256
-502.683	-61.969	-0.178	-0.074
-501.668	83.852	-0.268	-0.291
-500.653	-24.761	-0.143	0.085
-499.639	45.751	-0.227	0.209
-498.624	203.519	0.086	-0.133
-497.610	-105.620	0.163	-0.037
-496.595	680.283	0.151	0.392
-495.581	800.000	0.046	0.196
-494.566	-4.142	-0.158	0.109
-493.551	11.278	0.406	0.309
-492.537	800.000	-0.013	-0.053
-491.522	-200.000	-0.019	-0.391
-490.508	800.000	0.064	-0.202
-489.493	-17.876	0.173	0.108
-488.478	-200.000	-0.000	0.061
-487.464	-200.000	0.014	-0.080
-486.449	446.638	-0.124	0.270
-485.435	497.940	-0.078	0.178
-484.420	-200.000	0.026	-0.342
-483.405	-159.815	0.286	0.016
-482.391	-200.000	-0.060	-0.294
-481.376	53.019	0.101	-0.096
-480.362	37.047	0.113	0.100
-479.347	-85.690	-0.656	0.203
-478.332	-117.481	-0.265	0.048
-477.318	7.640	0.136	0.101
-476.303	510.041	-0.117	-0.271
-475.289	715.158	-0.074	0.196
-474.274	800.000	0.004	0.016
-473.259	651.187	-0.075	-0.192
-472.245	-200.000	-0.001	-0.062
-471.230	-200.000	0.002	-0.052
-470.216	800.000	-0.079	0.316
-469.201	-200.000	0.005	0.047
-468.186	23.488	0.171	0.140
-467.172	-71.241	-0.081	-0.030
-466.157	-6.798	0.222	0.150
-465.143	-200.000	-0.003	-0.073
-464.128	107.774	0.083	0.098
-463.113	-15.106	0.136	0.086
-462.099	428.481	-0.186	-0.400
-461.084	-149.698	-0.178	-0.014
-460.070	96.300	0.245	-0.279
-459.055	43.321	0.194	0.176
-458.040	-13.962	0.077	0.050
-457.026	-200.000	-0.018	-0.093
-456.011	180.993	0.156	-0.228
-454.997	-32.898	-0.111	-0.061
-453.982	-160.068	0.069	0.004
-452.968	-41.528	-0.225	0.115
-451.953	3.581	0.343	-0.249
-450.938	-9.556	0.052	0.034
-449.924	-200.000	-0.034	0.235
-448.909	-88.250	-0.288	-0.086
-447.895	-200.000	-0.012	0.054
-446.880	-35.958	-0.233	-0.125
-445.865	30.647	-0.151	0.128
-444.851	7.738	-0.349	-0.260
-443.836	183.910	0.244	-0.359
-442.822	-76.401	0.268	-0.094
-441.807	-31.583	0.114	-0.064
-440.792	-200.000	0.012	0.102
-439.778	196.640	0.119	0.181
-438.763	-8.886	-0.217	-0.145
-437.749	-34.470	0.069	-0.037
-436.734	800.000	-0.059	0.170
-435.719	61.472	-0.188	-0.186
-434.705	-169.329	0.125	-0.005
-433.690	-49.040	-0.228	-0.109
-432.676	-89.813	0.336	-0.098
-431.661	800.000	0.048	-0.183
-430.646	-92.936	-0.132	-0.037
-429.632	-143.075	0.040	-0.004
-428.617	-122.560	0.360	-0.058
-427.603	-5.897	0.286	0.194
-426.588	425.253	-0.093	-0.200
-425.573	-79.426	0.075	-0.025
-424.559	-11.378	0.463	-0.303
-423.544	800.000	-0.079	0.295
-422.530	129.434	0.160	0.202
-421.515	-180.569	-0.129	-0.003
-420.500	6.741	-0.113	-0.083
-419.486	800.000	0.052	-0.151
-418.471	56.231	-0.068	0.066
-417.457	282.501	-0.068	0.121
-416.442	111.354	-0.243	0.290
-415.428	-200.000	0.014	0.109
-414.413	-95.380	0.510	0.136
-413.398	73.708	0.251	-0.261
-412.384	-200.000	-0.032	-0.292
-411.369	64.719	0.194	-0.194
-410.355	-200.000	-0.060	-0.328
-409.340	800.000	0.077	-0.242
-408.325	179.408	0.150	-0.218
-407.311	579.572	0.154	-0.375
-406.296	-200.000	-0.021	0.238
-405.282	-200.000	-0.017	0.116
-404.267	73.772	-0.073	0.076
-403.252	87.600	0.356	0.391
-402.238	800.000	0.146	0.553
-401.223	-200.000	-0.005	0.203
-400.209	-32.282	0.112	0.062
-399.194	741.933	-0.132	0.352
-398.179	214.600	0.051	-0.080
-397.165	87.499	-0.077	-0.084
-396.150	-200.000	-0.007	-0.182
-395.136	800.000	-0.074	0.220
-394.121	106.803	-0.180	-0.212
-393.106	38.125	0.197	0.174
-392.092	685.099	-0.089	0.231
-391.077	134.146	0.108	0.139
-390.063	-70.165	0.391	-0.147
-389.048	-138.479	0.075	0.008
-388.033	-200.000	0.042	0.240
-387.019	-126.839	-0.313	-0.046
-386.004	-200.000	0.003	0.526
-384.990	257.601	0.118	0.202
-383.975	-70.210	-0.318	-0.120
-382.960	27.999	0.113	0.094
-381.946	4.073	-0.294	-0.213
-380.931	579.767	-0.033	0.080
-379.917	-200.000	0.009	0.121
-378.902	328.023	-0.127	-0.242
-377.888	-200.000	0.020	0.097
-376.873	-200.000	-0.032	0.237
-375.858	-22.401	-0.259	-0.156
-374.844	-200.000	0.013	0.148
-373.829	539.962	-0.060	-0.140
-372.815	36.212	-0.215	0.188
-371.800	800.000	-0.064	0.187
-370.785	383.366	0.124	0.253
-369.771	800.000	-0.028	0.110
-368.756	-54.211	-0.304	0.137
-367.742	-84.705	-0.123	0.038
-366.727	-200.000	0.019	0.095
-365.712	278.391	0.106	0.188
-364.698	32.602	0.046	0.039
-363.683	87.172	-0.204	-0.223
-362.669	-200.000	0.022	-0.185
-361.654	-139.925	-0.105	-0.011
-360.639	165.831	0.423	0.593
-359.625	214.365	0.263	0.413
-358.610	-200.000	0.002	-0.020
-357.596	-184.449	-0.057	0.001
-356.581	-200.000	-0.027	-0.248
-355.566	-49.081	-0.268	-0.127
-354.552	161.513	0.051	-0.070
-353.537	3.876	0.240	0.173
-352.523	-24.407	0.085	0.050
-351.508	-14.296	0.158	-0.101
-350.493	800.000	0.055	-0.171
-349.479	-124.781	0.219	-0.034
-348.464	0.575	-0.176	-0.124
-347.450	72.416	0.229	-0.236
-346.435	116.019	0.290	-0.351
-345.420	243.633	-0.045	0.074
-344.406	129.548	0.051	0.064
-343.391	-98.826	0.184	0.046
-342.377	183.426	-0.127	-0.186
-341.362	18.343	0.188	0.149
-340.348	-102.510	0.141	0.033
-339.333	27.262	0.090	-0.075
-338.318	-200.000	-0.018	-0.330
-337.304	-49.015	0.203	0.096
-336.289	517.790	-0.022	-0.051
-335.275	-200.000	0.045	0.308
-334.260	-99.653	-0.254	0.063
-333.245	4.125	-0.422	-0.305
-332.231	-200.000	0.031	-0.199
-331.216	800.000	-0.097	-0.273
-330.202	289.346	0.140	0.250
-329.187	-63.586	0.186	0.075
-328.172	-73.840	-0.136	0.049
-327.158	-159.848	0.129	0.007
-326.143	130.607	0.178	-0.226
-325.129	-200.000	0.034	0.270
-324.114	72.528	0.180	0.185
-323.099	-104.779	-0.319	0.073
-322.085	-200.000	0.009	-0.134
-321.070	-87.558	0.486	0.145
-320.056	174.894	-0.016	0.023
-319.041	-22.392	0.061	-0.036
-318.026	-147.104	0.237	-0.020
-317.012	-4.717	0.168	-0.115
-315.997	17.492	-0.179	-0.141
-314.983	426.175	-0.083	0.177
-313.968	18.251	-0.216	-0.170
-312.953	-200.000	-0.035	0.215
-311.939	18.195	-0.080	-0.063
-310.924	-129.062	-0.409	0.057
-309.910	-173.560	-0.164	-0.005
-308.895	-150.239	-0.263	0.020
-307.880	131.475	0.122	-0.154
-306.866	-200.000	0.010	-0.232
-305.851	-132.198	-0.076	-0.010
-304.837	-35.874	-0.120	-0.064
-303.822	-159.136	-0.302	0.017
-302.807	181.485	0.110	-0.160
-301.793	800.000	0.043	-0.121
-300.778	800.000	0.062	0.232
-299.764	-152.027	0.215	0.015
-298.749	-47.366	0.221	-0.106
-297.735	350.951	0.109	-0.212
-296.720	-200.000	0.082	0.370
-295.705	-31.824	-0.294	0.163
-294.691	-129.020	0.190	0.026
-293.676	-200.000	0.015	0.087
-292.662	-47.156	0.063	-0.030
-291.647	-200.000	-0.001	0.222
-290.632	-2.407	-0.220	0.152
-289.618	581.254	0.060	0.146
-288.603	-200.000	-0.017	0.080
-287.589	79.851	0.039	-0.042
-286.574	38.699	0.228	0.201
-285.559	20.882	-0.075	-0.060
-284.545	-94.656	-0.147	-0.039
-283.530	291.359	-0.215	-0.387
-282.516	279.907	-0.068	0.120
-281.501	111.557	-0.056	-0.067
-280.486	233.143	0.035	0.057
-279.472	99.267	0.214	0.245
-278.457	-85.770	-0.069	-0.021
-277.443	800.000	0.087	-0.262
-276.428	800.000	0.121	0.469
-275.413	195.978	-0.165	-0.248
-274.399	-61.277	0.335	-0.139
-273.384	-39.040	0.263	-0.136
-272.370	-136.637	-0.265	0.030
-271.355	47.811	-0.332	-0.305
-270.340	-200.000	-0.028	-0.160
-269.326	-200.000	-0.004	0.290
-268.311	375.200	0.031	-0.062
-267.297	-200.000	-0.005	0.345
-266.282	17.845	0.134	0.106
-265.267	-127.921	-0.394	0.056
-264.253	34.790	-0.249	-0.215
-263.238	11.164	-0.168	0.127
-262.224	-11.160	-0.254	-0.165
-261.209	250.453	0.079	0.132
-260.195	52.941	-0.070	0.066
-259.180	-200.000	0.003	0.045
-258.165	-86.654	-0.390	-0.118
-257.151	42.254	0.041	-0.037
-256.136	-92.205	-0.059	0.016
-255.122	-200.000	0.012	0.134
-254.107	88.295	-0.102	-0.112
-253.092	357.798	0.083	0.163
-252.078	-200.000	0.008	-0.107
-251.063	183.939	0.084	0.122
-250.049	-58.948	0.097	0.041
-249.034	-139.543	-0.409	-0.043
-248.019	-85.551	0.433	0.133
-247.005	-200.000	0.061	0.265
-245.990	-67.851	0.319	0.123
-244.976	-200.000	-0.019	0.414
-243.961	86.677	0.206	-0.224
-242.946	-115.409	-0.271	0.050
-241.932	800.000	0.071	-0.245
-240.917	-64.117	0.182	0.073
-239.903	-106.721	-0.264	-0.058
-238.888	800.000	0.064	0.199
-237.873	-38.267	0.460	0.240
-236.859	-200.000	0.019	0.145
-235.844	-166.044	0.120	-0.005
-234.830	-149.994	-0.113	0.009
-233.815	-4.835	-0.198	-0.134
-232.800	800.000	0.042	0.130
-231.786	-200.000	-0.049	0.237
-230.771	96.606	0.033	0.037
-229.757	-200.000	-0.003	-0.110
-228.742	-200.000	0.013	0.215
-227.727	-129.159	0.109	-0.015
-226.713	-158.766	0.130	0.007
-225.698	63.982	0.053	-0.053
-224.684	-61.794	-0.148	-0.061
-223.669	-53.733	-0.143	-0.064
-222.655	-151.646	0.195	0.014
-221.640	746.095	0.046	-0.122
-220.625	-86.667	0.112	0.034
-219.611	-200.000	0.049	-0.393
-218.596	60.182	-0.119	0.116
-217.582	236.521	0.090	0.146
-216.567	254.653	0.029	0.048
-215.552	-200.000	-0.002	-0.041
-214.538	-13.094	0.056	-0.036
-213.523	-150.523	-0.299	-0.023
-212.509	-200.000	-0.106	0.594
-211.494	-19.417	0.310	-0.189
-210.479	800.000	-0.070	0.243
-209.465	86.797	0.100	-0.109
-208.450	-82.964	-0.346	-0.110
-207.436	-118.768	-0.049	0.008
-206.421	153.350	0.085	-0.114
-205.406	-172.565	-0.321	0.010
-204.392	-128.215	-0.253	0.036
-203.377	24.529	0.285	-0.232
-202.363	-58.922	0.108	-0.046
-201.348	-50.300	-0.309	-0.144
-200.333	-71.424	0.244	0.090
-199.319	-38.482	0.479	0.249
-198.304	-200.000	0.017	0.168
-197.290	167.945	0.254	0.355
-196.275	420.648	-0.072	0.152
-195.260	800.000	0.133	0.383
-194.246	337.506	0.143	0.273
-193.231	300.198	0.101	-0.184
-192.217	-200.000	0.029	0.145
-191.202	471.312	0.009	-0.020
-190.187	174.219	0.187	0.265
-189.173	-68.341	-0.236	-0.090
-188.158	-200.000	-0.001	-0.122
-187.144	-76.117	0.314	-0.109
-186.129	-151.710	-0.229	-0.017
-185.114	-129.202	0.326	-0.045
-184.100	11.455	-0.122	0.092
-183.085	-200.000	-0.003	-0.071
-182.071	241.564	0.122	0.200
-181.056	615.777	0.191	0.470
-180.042	240.739	0.114	-0.187
-179.027	-200.000	0.026	0.245
-178.012	-137.049	-0.132	-0.015
-176.998	-200.000	-0.000	0.103
-175.983	800.000	-0.023	0.088
-174.969	334.256	-0.111	-0.211
-173.954	223.838	-0.275	0.436
-172.939	21.400	0.098	0.078
-171.925	-11.163	-0.188	0.122
-170.910	34.859	-0.052	-0.045
-169.896	-40.764	0.246	-0.125
-168.881	391.388	0.170	0.346
-167.866	341.759	0.110	-0.212
-166.852	800.000	-0.046	0.190
-165.837	53.200	-0.223	0.210
-164.823	-200.000	0.012	0.350
-163.808	800.000	0.094	0.350
-162.793	-200.000	0.001	-0.107
-161.779	-200.000	-0.011	0.141
-160.764	-46.759	-0.379	0.182
-159.750	259.043	0.092	-0.155
-158.735	30.182	0.213	-0.178
-157.720	147.816	0.015	0.020
-156.706	-200.000	-0.005	-0.075
-155.691	-149.340	0.183	0.014
-154.677	105.228	-0.115	-0.133
-153.662	-200.000	-0.011	-0.083
-152.647	-131.665	0.178	-0.023
-151.633	579.844	0.042	-0.101
-150.618	-200.000	0.018	-0.265
-149.604	-76.218	0.243	-0.084
-148.589	-138.836	0.118	-0.013
-147.574	-133.090	0.265	-0.033
-146.560	-20.689	-0.073	0.044
-145.545	-88.494	-0.124	-0.036
-144.531	-110.249	0.088	0.018
-143.516	-6.696	0.437	-0.292
-142.502	800.000	0.058	0.194
-141.487	800.000	-0.028	0.104
-140.472	136.044	-0.086	0.111
-139.458	-92.323	0.287	0.079
-138.443	-117.967	-0.353	0.062
-137.429	73.569	-0.217	0.223
-136.414	-155.157	0.295	0.019
-135.399	-82.830	0.135	-0.043
-134.385	-129.550	0.246	-0.033
-133.370	134.599	0.235	-0.299
-132.356	-31.787	0.186	0.102
-131.341	-200.000	-0.021	-0.220
-130.326	68.784	0.173	-0.174
-129.312	-82.237	-0.062	-0.020
-128.297	-200.000	0.003	-0.012
-127.283	-158.160	-0.192	0.011
-126.268	-200.000	0.019	0.219
-125.253	73.494	-0.163	0.167
-124.239	-38.098	0.455	0.237
-123.224	500.931	0.158	0.358
-122.210	-123.371	0.140	0.022
-121.195	129.553	0.062	0.078
-120.180	374.316	0.076	0.153
-119.166	-200.000	0.011	0.086
-118.151	-100.914	0.172	0.041
-117.137	-200.000	0.000	0.295
-116.122	-146.567	0.174	-0.015
-115.107	-70.457	-0.246	0.091
-114.093	800.000	-0.087	0.366
-113.078	93.661	-0.261	-0.290
-112.064	190.291	-0.243	-0.358
-111.049	800.000	-0.136	0.392
-110.034	800.000	-0.027	0.114
-109.020	-165.573	-0.360	0.015
-108.005	-157.755	-0.230	0.013
-106.991	-28.638	0.150	0.084
-105.976	-84.026	-0.326	0.101
-104.962	-200.000	0.044	0.234
-103.947	-8.932	-0.159	0.104
-102.932	427.402	-0.137	0.290
-101.918	52.931	0.191	0.179
-100.903	-140.051	0.413	0.043
-99.889	-13.825	-0.171	-0.108
-98.874	-109.991	0.286	0.059
-97.859	-116.162	0.193	0.035
-96.845	800.000	-0.031	-0.121
-95.830	-200.000	-0.048	-0.221
-94.816	291.699	-0.113	0.201
-93.801	-95.774	-0.405	0.106
-92.786	-130.805	0.303	-0.040
-91.772	17.531	-0.242	0.189
-90.757	-200.000	0.005	-0.208
-89.743	-200.000	-0.046	-0.261
-88.728	210.711	-0.291	-0.448
-87.713	15.069	-0.189	-0.145
-86.699	-58.504	0.159	-0.068
-85.684	-68.967	0.250	0.094
-84.670	-183.306	-0.132	0.002
-83.655	-135.376	0.291	0.034
-82.640	800.000	0.041	-0.131
-81.626	465.460	-0.054	-0.118
-80.611	10.995	0.044	-0.033
-79.597	-126.596	0.184	0.027
-78.582	-120.391	0.112	-0.019
-77.567	233.076	-0.030	0.048
-76.553	-33.127	0.286	-0.155
-75.538	146.065	0.019	0.025
-74.524	-193.723	0.380	0.003
-73.509	41.968	-0.211	-0.188
-72.494	7.105	-0.337	-0.246
-71.480	-46.855	-0.215	0.103
-70.465	-124.338	0.115	0.018
-69.451	153.351	0.114	-0.153
-68.436	266.749	-0.137	0.235
-67.422	-200.000	0.011	-0.062
-66.407	-200.000	0.000	-0.004
-65.392	-21.864	-0.173	0.103
-64.378	-46.390	0.186	-0.089
-63.363	16.051	-0.210	0.162
-62.349	-200.000	0.022	0.400
-61.334	118.127	-0.897	-1.082
-60.319	-16.111	0.683	0.425
-59.305	800.000	-0.331	-0.937
-58.290	313.137	0.574	1.055
-57.276	539.799	0.757	1.764
-56.261	-200.000	116.025	664.341
-55.246	539.936	1519.864	3539.317
-54.232	179.050	2685.585	3842.479
-53.217	109.277	2145.577	2512.754
-52.203	38.901	1590.163	1389.765
-51.188	30.518	1337.110	1118.370
-50.173	27.705	1298.916	1069.906
-49.159	55.647	1355.757	1284.707
-48.144	53.867	1370.402	1287.906
-47.130	30.856	1325.473	1110.477
-46.115	27.480	1307.340	1075.348
-45.100	27.208	1302.510	1069.733
-44.086	27.144	1300.262	1067.468
-43.071	27.183	1297.729	1065.574
-42.057	27.107	1295.939	1063.619
-41.042	27.203	1294.110	1062.633
-40.027	27.219	1292.453	1061.324
-39.013	27.228	1290.491	1059.724
-37.998	27.265	1288.639	1058.378
-36.984	27.248	1287.140	1057.003
-35.969	27.363	1285.220	1056.051
-34.954	27.322	1283.392	1054.275
-33.940	27.308	1282.428	1053.360
-32.925	27.378	1280.648	1052.258
-31.911	27.286	1279.590	1050.818
-30.896	27.402	1278.173	1050.281
-29.881	27.434	1276.920	1049.390
-28.867	27.470	1275.245	1048.182
-27.852	27.365	1274.056	1046.559
-26.838	27.490	1272.196	1045.710
-25.823	27.330	1271.555	1044.221
-24.809	27.417	1269.860	1043.283
-23.794	27.373	1268.817	1042.135
-22.779	27.447	1266.808	1040.865
-21.765	27.345	1266.471	1039.968
-20.750	27.405	1264.713	1038.824
-19.736	27.409	1263.247	1037.604
-18.721	27.171	1262.934	1035.949
-17.706	27.283	1261.470	1035.341
-16.692	27.234	1260.337	1034.090
-15.677	27.257	1259.244	1033.285
-14.663	27.268	1258.202	1032.451
-13.648	27.376	1256.556	1031.671
-12.633	27.238	1255.929	1030.333
-11.619	27.174	1255.367	1029.472
-10.604	27.259	1253.993	1028.786
-9.590	27.335	1253.332	1028.632
-8.575	27.283	1252.187	1027.355
-7.560	27.294	1251.311	1026.660
-6.546	27.193	1250.636	1025.495
-5.531	27.191	1249.944	1024.872
-4.517	27.247	1248.532	1023.994
-3.502	27.267	1248.048	1023.667
-2.487	27.276	1247.086	1022.890
-1.473	27.073	1243.026	1018.380
-0.458	25.454	1227.751	996.853
0.556	22.192	1210.655	958.494
1.571	18.273	1216.135	941.236
2.586	17.537	1229.983	947.778
3.600	17.124	1217.878	936.091
4.615	12.871	1147.594	859.854
5.629	6.195	1076.367	773.661
6.644	3.374	1058.456	747.057
7.659	3.084	1056.383	744.128
8.673	3.100	1054.973	743.143
9.688	3.242	1053.988	743.071
10.702	3.299	1052.032	741.899
11.717	7.208	1056.944	764.186
12.731	14.552	1067.362	807.311
13.746	19.122	1073.197	833.843
14.761	19.847	1073.519	837.528
15.775	18.963	1071.695	831.760
16.790	18.055	1069.514	825.609
17.804	17.359	1068.211	821.169
18.819	16.950	1067.368	818.473
19.834	16.932	1066.469	817.627
20.848	16.766	1065.930	816.340
21.863	16.530	1064.876	814.325
22.877	16.380	1063.957	812.828
23.892	16.396	1063.428	812.428
24.907	16.399	1062.574	811.721
25.921	16.381	1061.903	811.050
26.936	16.425	1060.105	809.813
27.950	16.459	1058.473	808.662
28.965	16.477	1057.856	808.202
29.980	16.610	1056.204	807.502
30.994	16.690	1055.356	807.163
32.009	16.826	1054.374	806.991
33.023	16.666	1052.963	805.078
34.038	16.570	1052.102	803.894
35.053	16.382	1051.528	802.490
36.067	16.626	1050.083	802.475
37.082	16.525	1050.062	801.909
38.096	16.633	1048.569	801.208
39.111	16.567	1048.488	800.763
40.126	16.448	1046.892	798.908
41.140	16.234	1045.520	796.781
42.155	16.193	1044.021	795.375
43.169	16.062	1042.971	793.891
44.184	16.080	1041.896	793.083
45.199	16.191	1040.955	792.819
46.213	16.240	1040.188	792.399
47.228	16.281	1039.783	792.210
48.242	16.481	1037.904	791.647
49.257	16.578	1036.700	791.109
50.271	16.467	1036.458	790.337
51.286	16.443	1035.646	789.533
52.301	16.560	1034.605	789.217
53.315	16.320	1033.401	787.109
54.330	16.361	1032.401	786.470
55.344	16.371	1031.311	785.618
56.359	16.363	1030.628	784.990
57.374	16.092	1029.947	783.143
58.388	16.048	1028.922	782.089
59.403	16.053	1028.095	781.415
60.417	16.093	1027.364	780.975
61.432	15.962	1026.772	779.853
62.447	15.909	1025.806	778.801
63.461	16.104	1024.516	778.658
64.476	15.946	1023.794	777.311
65.490	16.021	1023.020	776.998
66.505	16.107	1022.331	776.802
67.520	15.943	1022.212	775.886
68.534	16.076	1020.666	775.256
69.549	15.981	1020.291	774.466
70.563	16.060	1019.062	773.828
71.578	15.899	1018.598	772.670
72.593	15.854	1017.979	771.924
73.607	15.786	1017.456	771.148
74.622	15.867	1016.555	770.767
75.636	15.807	1016.224	770.172
76.651	16.044	1015.116	770.351
77.666	15.892	1015.004	769.502
78.680	15.936	1014.125	768.968
79.695	15.925	1013.308	768.230
80.709	16.108	1012.382	768.294
81.724	16.206	1011.906	768.312
82.739	16.304	1011.446	768.341
83.753	16.339	1011.189	768.238
84.768	16.538	1010.058	768.210
85.782	16.717	1009.342	768.413
86.797	16.616	1008.506	767.249
87.812	16.439	1007.535	765.642
88.826	16.503	1006.513	765.087
89.841	16.583	1005.586	764.676
90.855	16.747	1004.939	764.858
91.870	16.768	1004.088	764.238
92.884	16.758	1002.775	763.125
93.899	16.713	1002.304	762.496
94.914	16.779	1001.418	762.052
95.928	16.751	1000.290	761.002
96.943	16.552	999.738	759.618
97.957	16.594	998.678	758.937
98.972	16.641	997.535	758.211
99.987	16.684	996.505	757.551
101.001	16.722	995.420	756.831
102.016	16.558	994.870	755.613
103.030	16.627	994.471	755.552
104.045	16.672	993.757	755.141
105.060	16.653	992.453	753.998
106.074	16.357	991.219	751.681
107.089	16.126	990.371	749.943
108.103	16.051	989.844	749.145
109.118	16.157	988.209	748.308
110.133	16.125	987.633	747.664
111.147	16.057	986.900	746.746
112.162	16.117	986.220	746.429
113.176	16.232	985.631	746.424
114.191	16.381	984.747	746.348
115.206	16.317	983.930	745.381
116.220	16.307	983.059	744.609
117.235	16.219	981.983	743.341
118.249	16.109	981.674	742.558
119.264	16.143	980.887	742.047
120.279	16.122	979.648	740.953
121.293	16.174	978.698	740.396
122.308	16.075	977.642	739.098
123.322	16.093	976.433	738.195
124.337	15.965	976.225	737.414
125.352	15.936	975.047	736.334
126.366	15.846	974.170	735.211
127.381	15.946	973.210	734.858
128.395	16.021	971.773	734.033
129.410	16.128	971.060	733.899
130.424	16.052	970.562	733.126
131.439	16.162	969.961	733.086
132.454	16.138	969.338	732.447
133.468	16.210	968.187	731.823
134.483	16.357	967.093	731.569
135.497	16.328	966.336	730.806
136.512	16.225	965.854	729.931
137.527	16.276	964.798	729.286
138.541	16.294	963.907	728.628
139.556	16.364	963.356	728.449
140.570	16.465	962.703	728.323
141.585	16.666	961.895	728.515
142.600	16.564	960.992	727.329
143.614	16.690	960.133	727.153
144.629	16.828	959.606	727.282
145.643	16.629	958.671	725.655
146.658	16.469	957.792	724.242
147.673	16.395	956.441	722.840
148.687	16.243	956.279	722.002
149.702	16.488	954.447	721.600
150.716	16.453	954.104	721.129
151.731	16.342	953.282	719.970
152.746	16.387	953.116	719.973
153.760	16.475	952.155	719.561
154.775	16.491	951.933	719.393
155.789	16.515	951.027	718.751
156.804	16.528	950.272	718.171
157.819	16.794	949.445	718.611
158.833	16.860	949.017	718.501
159.848	16.713	948.159	717.169
160.862	16.830	947.218	716.887
161.877	16.402	946.330	714.341
162.892	16.422	944.865	713.258
163.906	16.364	944.077	712.354
164.921	16.465	943.012	711.915
165.935	16.526	942.004	711.346
166.950	16.609	941.726	711.422
167.964	16.429	941.043	710.088
168.979	16.527	939.667	709.396
169.994	16.382	939.143	708.333
171.008	16.416	938.855	708.192
172.023	16.670	938.079	708.607
173.037	16.719	937.065	707.984
174.052	16.728	936.304	707.387
175.067	16.494	935.449	705.699
176.081	16.382	935.074	704.888
177.096	16.493	934.183	704.618
178.110	16.336	934.035	703.787
179.125	16.490	933.343	703.844
180.140	16.529	932.609	703.394
181.154	16.753	931.947	703.761
182.169	16.779	931.928	703.792
183.183	16.761	931.322	703.196
184.198	16.729	930.393	702.301
185.213	16.968	929.452	702.518
186.227	16.869	929.167	701.830
187.242	16.932	928.551	701.567
188.256	17.064	927.987	701.622
189.271	17.013	927.292	700.823
190.286	16.591	926.225	698.213
191.300	16.447	924.878	696.543
192.315	16.286	924.632	695.635
193.329	16.338	924.338	695.566
194.344	16.785	923.264	696.532
195.359	16.659	923.721	696.300
196.373	16.757	922.764	695.919
197.388	16.877	922.714	696.312
198.402	17.022	921.820	696.171
199.417	17.130	921.405	696.238
200.432	17.257	920.599	696.088
201.446	17.294	920.217	695.890
202.461	17.271	919.679	695.328
203.475	17.206	919.238	694.668
204.490	17.110	918.109	693.358
205.504	16.962	917.385	692.146
206.519	16.993	916.562	691.591
207.534	16.989	915.827	690.958
208.548	16.983	915.482	690.614
209.563	16.967	914.855	690.013
210.577	16.959	914.192	689.420
211.592	17.139	913.469	689.547
212.607	17.285	912.461	689.317
213.621	17.293	911.806	688.791
214.636	17.260	911.234	688.165
215.650	17.192	910.976	687.634
216.665	17.299	910.112	687.353
217.680	17.382	909.498	687.166
218.694	17.452	908.855	686.900
219.709	17.302	908.166	685.715
220.723	17.370	907.625	685.517
221.738	17.328	906.736	684.619
222.753	17.306	906.170	684.041
223.767	17.362	905.885	683.989
224.782	17.517	905.039	683.913
225.796	17.516	904.656	683.560
226.811	17.367	904.044	682.440
227.826	17.318	902.806	681.249
228.840	17.338	902.285	680.876
229.855	17.354	901.650	680.400
230.869	17.400	900.684	679.793
231.884	17.149	900.508	678.600
232.899	17.289	899.465	678.310
233.913	17.178	898.956	677.424
234.928	17.205	897.900	676.677
235.942	17.075	897.769	676.002
236.957	17.147	896.933	675.599
237.972	17.147	896.494	675.206
238.986	17.261	895.335	674.725
240.001	17.156	895.046	674.035
241.015	17.307	894.498	674.158
242.030	17.308	894.030	673.752
243.045	17.395	893.268	673.463
244.059	17.283	893.115	672.842
245.074	17.495	892.250	672.969
246.088	17.441	891.827	672.379
247.103	17.496	891.315	672.151
248.117	17.664	890.562	672.186
249.132	17.957	889.948	672.815
250.147	17.982	889.738	672.697
251.161	18.030	888.941	672.225
252.176	18.048	888.674	672.032
253.190	18.174	887.752	671.770
254.205	18.123	887.036	670.969
255.220	18.231	886.268	670.752
256.234	18.096	885.786	669.800
257.249	18.033	884.928	668.845
258.263	18.133	884.402	668.779
259.278	18.012	883.603	667.642
260.293	18.175	883.029	667.789
261.307	18.266	882.669	667.812
262.322	18.390	882.179	667.864
263.336	18.447	880.987	667.125
264.351	18.256	880.786	666.173
265.366	18.369	879.558	665.622
266.380	18.246	879.357	664.935
267.395	18.208	878.606	664.158
268.409	18.251	877.426	663.374
269.424	18.192	876.838	662.641
270.439	18.092	876.374	661.848
271.453	18.164	875.508	661.412
272.468	18.085	874.815	660.526
273.482	18.132	874.314	660.272
274.497	18.151	873.824	659.915
275.512	18.092	873.552	659.423
276.526	18.205	872.808	659.237
277.541	18.235	872.339	658.942
278.555	18.451	871.818	659.323
279.570	18.454	871.108	658.736
280.585	18.470	870.195	658.052
281.599	18.226	869.660	656.651
282.614	18.276	869.029	656.308
283.628	18.222	868.358	655.538
284.643	18.241	867.765	655.104
285.657	18.269	867.075	654.633
286.672	18.258	866.535	654.125
287.687	18.321	865.948	653.863
288.701	18.333	865.391	653.432
289.716	18.401	864.790	653.177
290.730	18.338	864.287	652.502
291.745	18.492	863.362	652.333
292.760	18.595	862.764	652.213
293.774	18.545	862.713	651.926
294.789	18.477	862.209	651.229
295.803	18.317	861.145	649.761
296.818	18.361	860.659	649.506
297.833	18.358	859.702	648.714
298.847	18.448	859.065	648.517
299.862	18.536	858.398	648.287
300.876	18.569	858.276	648.264
301.891	18.623	858.004	648.204
302.906	18.747	857.410	648.165
303.920	18.754	856.932	647.775
304.935	18.867	856.299	647.665
305.949	18.638	855.574	646.198
306.964	18.661	854.713	645.576
307.979	18.707	854.418	645.469
308.993	18.769	853.778	645.159
310.008	18.892	853.149	645.091
311.022	18.680	852.685	643.885
312.037	18.650	851.874	643.104
313.052	18.618	850.916	642.205
314.066	18.507	850.729	641.591
315.081	18.473	850.321	641.100
316.095	18.416	849.664	640.334
317.110	18.515	848.811	640.006
318.125	18.504	848.506	639.675
319.139	18.518	847.964	639.263
320.154	18.583	847.774	639.307
321.168	18.510	847.329	638.641
322.183	18.762	846.403	638.827
323.197	18.765	845.922	638.418
324.212	18.657	845.277	637.474
325.227	18.714	844.715	637.204
326.241	18.643	844.258	636.541
327.256	18.528	843.825	635.731
328.270	18.584	843.253	635.451
329.285	18.605	842.369	634.808
330.300	18.477	841.754	633.813
331.314	18.710	841.147	634.160
332.329	18.735	841.161	634.206
333.343	18.918	840.305	634.183
334.358	18.787	840.377	633.694
335.373	18.766	840.150	633.390
336.387	18.940	839.433	633.437
337.402	18.922	839.595	633.436
338.416	19.019	838.991	633.283
339.431	19.124	838.842	633.499
340.446	19.206	838.046	633.144
341.460	19.293	837.815	633.231
342.475	19.295	837.487	632.936
343.489	19.210	837.408	632.509
344.504	19.224	836.732	631.994
345.519	19.457	836.030	632.260
346.533	19.414	835.226	631.438
347.548	19.190	834.976	630.375
348.562	19.135	834.065	629.429
349.577	19.064	833.587	628.753
350.592	18.854	832.879	627.399
351.606	19.045	831.956	627.342
352.621	19.029	831.619	626.976
353.635	19.071	831.184	626.743
354.650	19.012	830.603	626.035
355.665	19.141	830.278	626.207
356.679	19.334	829.267	626.090
357.694	19.173	828.495	624.866
358.708	19.174	827.934	624.391
359.723	19.294	827.373	624.348
360.738	19.304	826.628	623.767
361.752	19.352	826.305	623.643
362.767	19.494	825.904	623.797
363.781	19.516	825.454	623.481
364.796	19.613	825.196	623.583
365.810	19.780	824.650	623.717
366.825	19.683	824.105	622.899
367.840	19.664	823.839	622.572
368.854	19.573	822.750	621.368
369.869	19.635	822.820	621.590
370.883	19.640	822.357	621.203
371.898	19.762	821.898	621.239
372.913	19.858	821.425	621.170
373.927	19.804	820.329	620.095
374.942	19.647	820.303	619.457
375.956	19.749	819.899	619.464
376.971	19.960	819.687	620.005
377.986	19.798	819.406	619.157
379.000	19.868	818.853	618.934
380.015	19.788	818.267	618.150
381.029	19.869	817.878	618.091
382.044	19.955	817.077	617.737
383.059	19.946	816.542	617.246
384.073	19.884	815.846	616.443
385.088	19.842	815.208	615.758
386.102	19.613	814.796	614.580
387.117	19.664	814.116	614.194
388.132	19.704	813.661	613.937
389.146	19.783	813.183	613.804
390.161	19.827	812.985	613.756
391.175	19.947	812.338	613.638
392.190	19.904	811.598	612.873
393.205	19.786	811.208	612.105
394.219	19.626	810.820	611.192
395.234	19.533	809.941	610.146
396.248	19.509	810.178	610.186
397.263	19.556	809.034	609.438
398.278	19.486	808.984	609.100
399.292	19.554	808.396	608.843
400.307	19.718	807.599	608.764
401.321	19.731	807.219	608.472
402.336	19.765	806.836	608.247
403.350	19.815	806.577	608.173
404.365	19.858	806.783	608.427
405.380	20.077	806.070	608.605
406.394	20.110	805.481	608.221
407.409	20.330	804.588	608.265
408.423	20.262	804.836	608.160
409.438	20.302	804.456	607.961
410.453	20.209	804.206	607.390
411.467	20.297	803.541	607.143
412.482	20.477	803.205	607.465
413.496	20.407	802.999	607.012
414.511	20.502	802.481	606.898
415.526	20.399	802.120	606.210
416.540	20.412	801.414	605.668
417.555	20.418	800.838	605.201
418.569	20.435	800.386	604.866
419.584	20.246	800.341	604.120
420.599	20.423	799.902	604.351
421.613	161.991	1372.228	1796.650
422.628	140.633	1455.632	1796.749
