DTS Sentinel unit serial number:	SN413079Multiplexer serial number:	ORYXHardware model number:	OX4-SRSoftware version number:	ORYX F/W v4.00 Oryx Data Collector v3.7.2.0data status	okinstallation	princeton_trtdifferential loss correction	single-endedforward channel	channel 1reverse channel	N/Adate	2019/09/16time	01:14:35forward acquisition time	60.00reverse acquisition time	0.00gamma	496.2192k internal	0.2334k external	0.2334temperature offset calibration	0.9978default loss term (dB/km)	0.3790temperature slope calibration	1.0000multiplexer offset coefficient	1.0000multiplexer slope coefficient	1.0000fibre end	0.00T internal ref (°C)	27.27T ext. ref 1 (°C)	9.83T ext. ref 2 (°C)	21.74length (m)	temperature (°C)	Stokes	anti-Stokes-747.200	-200.000	-0.052	0.280
-746.185	12.538	-0.184	0.142
-745.171	177.592	0.143	-0.209
-744.156	157.267	-0.123	0.171
-743.142	73.646	-0.247	-0.260
-742.127	-125.318	0.361	-0.055
-741.112	-42.963	0.097	0.049
-740.098	326.064	0.185	0.356
-739.083	139.520	0.076	0.100
-738.069	14.549	0.105	0.082
-737.054	264.124	0.065	0.114
-736.039	38.322	0.117	0.105
-735.025	800.000	-0.077	0.230
-734.010	257.838	-0.154	-0.266
-732.996	-200.000	-0.072	-0.358
-731.981	160.331	0.151	0.212
-730.966	418.635	-0.142	-0.306
-729.952	-85.769	0.089	-0.028
-728.937	274.711	-0.115	0.204
-727.923	35.004	-0.159	0.140
-726.908	-103.417	-0.173	-0.041
-725.894	692.578	-0.056	-0.147
-724.879	90.600	0.143	-0.160
-723.864	112.804	0.222	-0.270
-722.850	94.382	0.147	-0.167
-721.835	275.418	0.134	0.239
-720.821	-9.314	0.226	-0.151
-719.806	-72.884	0.095	-0.035
-718.791	21.071	-0.274	-0.223
-717.777	-200.000	-0.049	0.372
-716.762	743.758	0.109	-0.296
-715.748	94.579	-0.092	0.105
-714.733	-152.393	0.127	-0.009
-713.718	-0.716	-0.109	0.077
-712.704	-200.000	0.025	0.156
-711.689	78.621	0.068	-0.072
-710.675	-90.328	-0.395	0.115
-709.660	-52.015	0.251	0.117
-708.645	-128.813	0.315	-0.044
-707.631	-91.951	-0.265	0.075
-706.616	-21.877	0.361	-0.220
-705.602	-100.893	-0.227	-0.056
-704.587	22.519	-0.133	0.109
-703.572	-60.139	-0.251	-0.108
-702.558	30.914	-0.220	-0.189
-701.543	24.588	0.074	-0.062
-700.529	332.851	0.080	0.154
-699.514	800.000	0.033	-0.128
-698.499	269.764	-0.158	-0.279
-697.485	14.489	0.224	-0.175
-696.470	103.462	-0.145	-0.171
-695.456	380.091	-0.184	-0.378
-694.441	-14.853	0.373	-0.240
-693.426	740.365	0.064	-0.172
-692.412	139.866	-0.211	-0.279
-691.397	202.670	-0.103	-0.160
-690.383	57.357	0.419	0.410
-689.368	-87.963	-0.347	-0.105
-688.354	62.072	0.088	0.088
-687.339	-80.384	-0.106	0.035
-686.324	49.307	0.289	-0.272
-685.310	-33.661	-0.398	0.220
-684.295	245.310	0.043	-0.072
-683.281	-80.426	-0.373	-0.125
-682.266	-173.439	0.235	0.007
-681.251	583.072	-0.047	-0.116
-680.237	800.000	-0.085	-0.273
-679.222	138.785	-0.156	-0.205
-678.208	-200.000	0.011	0.153
-677.193	-147.246	-0.536	0.046
-676.178	-15.795	0.311	-0.198
-675.164	-200.000	-0.007	0.081
-674.149	-200.000	-0.020	-0.208
-673.135	-47.371	-0.054	0.026
-672.120	-37.199	0.123	-0.066
-671.105	-22.980	-0.027	0.016
-670.091	800.000	-0.045	-0.169
-669.076	89.835	0.157	-0.176
-668.062	184.311	-0.368	-0.546
-667.047	-128.684	-0.177	-0.025
-666.032	-127.190	-0.160	-0.023
-665.018	-16.923	0.274	0.174
-664.003	32.369	-0.202	0.175
-662.989	655.526	0.032	-0.082
-661.974	-182.558	-0.372	0.007
-660.959	449.923	0.038	-0.084
-659.945	-65.740	0.221	-0.089
-658.930	-200.000	-0.061	-0.287
-657.916	-14.322	0.129	0.083
-656.901	26.004	-0.207	-0.173
-655.886	-70.116	0.204	-0.078
-654.872	-154.346	0.081	-0.005
-653.857	533.501	-0.139	0.330
-652.843	363.456	-0.068	-0.137
-651.828	-200.000	0.060	-0.367
-650.814	68.379	0.217	-0.223
-649.799	21.020	-0.099	-0.080
-648.784	251.522	-0.122	-0.208
-647.770	-95.511	0.362	0.097
-646.755	16.565	-0.137	0.109
-645.741	-200.000	-0.010	-0.239
-644.726	-76.602	-0.244	-0.086
-643.711	-94.143	0.369	-0.101
-642.697	-200.000	-0.003	0.147
-641.682	70.499	0.076	0.079
-640.668	-200.000	-0.026	0.230
-639.653	289.204	-0.188	0.341
-638.638	-49.291	0.301	0.144
-637.624	-36.890	0.195	0.105
-636.609	60.978	-0.091	0.091
-635.595	241.341	-0.129	-0.216
-634.580	800.000	0.052	-0.171
-633.565	-156.049	-0.433	0.027
-632.551	-141.535	-0.168	-0.017
-631.536	493.528	0.143	-0.328
-630.522	-200.000	0.011	0.222
-629.507	-36.809	-0.262	-0.141
-628.492	800.000	0.079	0.329
-627.478	-81.306	0.178	-0.059
-626.463	-200.000	-0.040	0.277
-625.449	-200.000	0.052	-0.401
-624.434	362.629	0.197	-0.395
-623.419	-200.000	0.044	-0.222
-622.405	644.327	-0.041	0.106
-621.390	272.303	-0.112	0.198
-620.376	-82.322	-0.169	-0.055
-619.361	83.930	-0.078	0.085
-618.346	-115.746	0.054	0.010
-617.332	406.968	-0.081	-0.170
-616.317	-14.077	-0.366	-0.236
-615.303	203.256	0.124	0.191
-614.288	-17.732	-0.361	-0.227
-613.273	50.193	-0.303	-0.286
-612.259	5.605	-0.178	0.132
-611.244	800.000	0.044	0.190
-610.230	277.550	0.145	-0.258
-609.215	181.957	-0.040	-0.058
-608.201	-200.000	-0.009	-0.064
-607.186	-69.167	-0.063	0.024
-606.171	8.441	-0.050	0.037
-605.157	-200.000	-0.026	-0.129
-604.142	324.348	-0.099	0.188
-603.128	46.243	-0.174	0.162
-602.113	-97.963	0.145	-0.037
-601.098	-63.394	0.039	-0.016
-600.084	-34.699	-0.089	0.049
-599.069	12.389	0.369	0.284
-598.055	-117.899	0.187	0.033
-597.040	-2.446	-0.301	-0.211
-596.025	800.000	0.068	0.230
-595.011	27.167	0.061	-0.051
-593.996	291.003	0.060	-0.109
-592.982	6.457	-0.116	0.086
-591.967	-109.953	0.289	-0.060
-590.952	-200.000	-0.001	-0.258
-589.938	61.469	0.468	-0.465
-588.923	47.931	-0.222	0.207
-587.909	-26.346	0.178	-0.105
-586.894	-164.391	0.049	0.002
-585.879	-6.048	-0.280	-0.191
-584.865	-200.000	-0.012	-0.150
-583.850	-129.575	0.188	0.026
-582.836	-118.029	-0.158	-0.028
-581.821	380.188	0.061	0.124
-580.806	252.914	-0.144	0.245
-579.792	-200.000	-0.014	0.138
-578.777	-200.000	-0.000	0.039
-577.763	306.059	-0.108	0.200
-576.748	-31.292	0.170	0.096
-575.733	11.526	-0.285	0.218
-574.719	98.466	-0.218	0.251
-573.704	48.998	0.091	0.085
-572.690	52.648	-0.048	-0.046
-571.675	-38.089	-0.050	-0.026
-570.661	-200.000	-0.048	0.494
-569.646	-138.138	-0.281	-0.031
-568.631	-84.342	0.147	0.046
-567.617	-42.224	-0.119	0.061
-566.602	29.520	-0.162	0.137
-565.588	25.463	0.066	-0.055
-564.573	800.000	-0.066	-0.267
-563.558	800.000	0.037	0.140
-562.544	-151.912	-0.128	-0.009
-561.529	-200.000	-0.083	-0.421
-560.515	-4.625	-0.183	-0.126
-559.500	214.667	-0.111	0.176
-558.485	-200.000	-0.018	0.278
-557.471	-102.056	0.290	-0.070
-556.456	-146.754	-0.406	-0.035
-555.442	-115.962	0.433	-0.081
-554.427	80.901	-0.111	-0.120
-553.412	80.065	-0.088	-0.095
-552.398	18.410	0.118	-0.094
-551.383	411.659	0.185	0.391
-550.369	638.247	-0.074	0.188
-549.354	468.996	-0.030	-0.068
-548.339	92.073	0.254	-0.286
-547.325	-6.540	-0.234	-0.159
-546.310	800.000	-0.074	-0.297
-545.296	-200.000	0.007	0.185
-544.281	12.732	-0.128	0.098
-543.266	63.606	0.268	0.268
-542.252	-10.938	0.222	-0.146
-541.237	148.928	0.171	-0.230
-540.223	206.109	-0.183	0.284
-539.208	-117.148	-0.168	-0.031
-538.193	800.000	-0.024	-0.090
-537.179	-7.500	0.055	0.037
-536.164	86.219	0.076	0.083
-535.150	-53.809	-0.041	-0.019
-534.135	-66.423	-0.113	-0.045
-533.121	-48.368	0.225	-0.108
-532.106	-153.226	0.309	0.022
-531.091	219.537	-0.222	-0.355
-530.077	-51.324	-0.253	-0.118
-529.062	-40.427	0.276	-0.143
-528.048	260.806	-0.184	-0.318
-527.033	-49.108	-0.051	0.024
-526.018	-18.508	-0.097	-0.061
-525.004	-0.027	-0.248	0.176
-523.989	800.000	0.038	-0.165
-522.975	-160.049	-0.021	-0.001
-521.960	-200.000	0.021	0.144
-520.945	251.376	0.129	0.218
-519.931	-81.326	0.155	-0.051
-518.916	-200.000	0.038	0.429
-517.902	-200.000	0.064	0.342
-516.887	-141.303	-0.226	0.023
-515.872	-59.051	-0.374	-0.161
-514.858	281.336	0.101	-0.180
-513.843	490.793	-0.191	-0.436
-512.829	529.390	0.100	0.235
-511.814	-200.000	0.087	0.455
-510.799	206.455	0.191	-0.296
-509.785	94.557	0.071	0.080
-508.770	-147.579	-0.123	-0.010
-507.756	-70.111	0.318	-0.120
-506.741	800.000	0.031	-0.133
-505.726	-60.490	0.198	0.084
-504.712	313.784	-0.123	-0.230
-503.697	-139.145	0.174	0.019
-502.683	-90.415	0.212	-0.061
-501.668	-30.338	0.017	0.010
-500.653	12.776	-0.100	0.077
-499.639	-84.583	0.222	-0.070
-498.624	15.981	-0.088	0.069
-497.610	3.122	0.065	0.047
-496.595	-39.866	-0.221	-0.115
-495.581	-6.978	0.260	0.176
-494.566	223.496	0.026	-0.042
-493.551	-78.718	0.223	-0.076
-492.537	58.043	-0.150	-0.147
-491.522	43.341	-0.111	-0.101
-490.508	800.000	0.079	-0.255
-489.493	-12.463	-0.208	-0.135
-488.478	-144.988	-0.059	0.005
-487.464	800.000	-0.038	-0.154
-486.449	19.746	0.141	-0.113
-485.435	138.626	-0.100	0.130
-484.420	-116.342	-0.332	-0.061
-483.405	-62.239	0.138	-0.057
-482.391	262.571	-0.105	0.181
-481.376	6.581	-0.055	0.041
-480.362	-200.000	-0.041	-0.293
-479.347	17.479	-0.075	0.059
-478.332	-200.000	0.018	-0.135
-477.318	-200.000	0.040	0.191
-476.303	-106.721	-0.155	0.034
-475.289	-200.000	-0.026	-0.336
-474.274	-35.578	-0.155	0.084
-473.259	36.776	-0.192	-0.169
-472.245	10.511	0.266	-0.202
-471.230	90.752	-0.250	0.278
-470.216	34.366	-0.226	-0.196
-469.201	-30.052	0.140	-0.079
-468.186	0.399	-0.164	0.116
-467.172	-145.830	-0.218	0.019
-466.157	188.187	-0.161	-0.240
-465.143	-136.476	-0.174	0.020
-464.128	31.330	-0.228	0.195
-463.113	164.132	0.227	-0.318
-462.099	-162.726	-0.033	-0.002
-461.084	-18.906	-0.058	0.036
-460.070	-170.007	0.196	-0.007
-459.055	5.171	0.276	-0.202
-458.040	-77.228	-0.260	0.090
-457.026	726.517	0.038	0.101
-456.011	-127.087	0.303	-0.044
-454.997	500.250	0.035	-0.081
-453.982	-95.313	0.151	0.040
-452.968	-20.361	0.132	-0.081
-451.953	800.000	0.064	-0.187
-450.938	423.989	-0.055	0.117
-449.924	47.791	0.116	-0.108
-448.909	209.419	0.146	-0.228
-447.895	231.401	0.178	0.290
-446.880	-131.336	-0.247	0.032
-445.865	-200.000	0.013	-0.099
-444.851	-5.431	0.512	0.349
-443.836	-86.998	0.200	0.060
-442.822	-54.110	0.129	-0.058
-441.807	44.443	-0.276	0.252
-440.792	62.263	-0.166	-0.165
-439.778	-200.000	0.003	-0.057
-438.763	-5.735	0.130	-0.088
-437.749	359.240	0.107	0.212
-436.734	-97.389	-0.087	-0.023
-435.719	-200.000	0.005	0.114
-434.705	43.592	0.099	-0.090
-433.690	-105.050	0.061	-0.014
-432.676	59.021	0.102	-0.100
-431.661	-200.000	-0.007	-0.383
-430.646	29.751	0.447	-0.378
-429.632	101.295	0.087	-0.100
-428.617	-128.761	-0.041	0.006
-427.603	-53.875	-0.259	0.117
-426.588	28.719	-0.166	0.140
-425.573	784.705	-0.044	0.119
-424.559	24.562	-0.036	-0.030
-423.544	800.000	-0.039	0.153
-422.530	-44.085	-0.044	-0.022
-421.515	228.350	0.285	-0.461
-420.500	-47.273	-0.173	0.083
-419.486	-200.000	-0.026	-0.207
-418.471	757.992	0.042	-0.114
-417.457	-200.000	0.002	-0.222
-416.442	-36.395	0.131	0.070
-415.428	-200.000	0.010	0.311
-414.413	478.596	-0.152	0.341
-413.398	-6.543	-0.042	0.028
-412.384	-30.297	0.077	-0.043
-411.369	296.258	0.083	-0.152
-410.355	-200.000	0.116	-0.542
-409.340	226.058	-0.135	-0.218
-408.325	-97.238	-0.060	0.015
-407.311	-112.105	0.066	0.013
-406.296	198.860	0.118	-0.179
-405.282	800.000	0.072	-0.212
-404.267	49.440	0.091	-0.085
-403.252	-15.433	0.352	-0.223
-402.238	61.753	-0.152	-0.151
-401.223	-200.000	-0.012	0.065
-400.209	-200.000	0.000	-0.265
-399.194	-63.466	-0.093	-0.038
-398.179	-99.426	-0.125	-0.031
-397.165	-200.000	0.045	-0.239
-396.150	49.258	0.256	0.238
-395.136	-83.137	-0.298	0.095
-394.121	800.000	0.053	0.194
-393.106	729.320	0.155	0.411
-392.092	800.000	0.123	-0.379
-391.077	41.589	-0.074	0.067
-390.063	440.717	-0.218	0.473
-389.048	-52.306	-0.272	0.125
-388.033	98.336	0.319	-0.364
-387.019	-161.098	0.148	-0.008
-386.004	-184.731	-0.402	-0.006
-384.990	-29.580	-0.324	0.184
-383.975	-200.000	-0.040	0.399
-382.960	-200.000	0.047	-0.223
-381.946	-200.000	-0.007	0.198
-380.931	800.000	-0.068	0.285
-379.917	-200.000	-0.006	-0.093
-378.902	122.386	-0.303	-0.375
-377.888	800.000	0.045	0.134
-376.873	103.713	-0.136	-0.158
-375.858	-125.230	0.289	-0.044
-374.844	93.692	0.133	-0.149
-373.829	-200.000	-0.042	-0.233
-372.815	-50.058	-0.290	-0.136
-371.800	-200.000	0.048	-0.247
-370.785	25.073	0.075	0.062
-369.771	-24.261	0.092	0.054
-368.756	800.000	0.148	-0.412
-367.742	-149.196	0.524	0.042
-366.727	-200.000	-0.068	0.322
-365.712	-117.457	0.321	0.058
-364.698	7.095	-0.192	0.142
-363.683	50.356	0.206	-0.193
-362.669	13.903	-0.043	-0.033
-361.654	-27.682	0.131	-0.075
-360.639	1.651	0.086	0.062
-359.625	-200.000	-0.028	0.247
-358.610	800.000	-0.091	-0.254
-357.596	-200.000	-0.062	0.421
-356.581	27.676	0.141	-0.118
-355.566	-175.906	-0.242	0.006
-354.552	376.304	-0.106	0.213
-353.537	-105.119	0.286	0.065
-352.523	136.815	0.196	0.253
-351.508	5.442	0.250	-0.183
-350.493	-200.000	0.004	-0.083
-349.479	-115.765	-0.312	-0.058
-348.464	800.000	-0.084	0.355
-347.450	19.414	-0.095	0.075
-346.435	-16.209	0.292	0.183
-345.420	151.798	-0.244	-0.329
-344.406	151.639	-0.104	0.140
-343.391	77.707	0.102	-0.107
-342.377	-114.840	0.095	0.018
-341.362	102.920	-0.335	-0.388
-340.348	-91.383	0.400	0.113
-339.333	-190.880	0.072	0.001
-338.318	48.881	-0.042	0.039
-337.304	248.591	-0.205	0.343
-336.289	-73.885	0.189	-0.068
-335.275	-200.000	-0.036	-0.192
-334.260	-9.385	-0.117	-0.077
-333.245	-79.645	-0.044	0.015
-332.231	-200.000	0.030	-0.174
-331.216	1.016	-0.253	0.179
-330.202	-73.084	-0.030	-0.011
-329.187	-134.287	0.061	-0.007
-328.172	-33.452	0.196	-0.107
-327.158	20.366	0.057	0.045
-326.143	393.816	-0.032	-0.066
-325.129	-106.840	-0.135	0.030
-324.114	-48.282	0.226	0.108
-323.099	-100.065	-0.059	0.015
-322.085	800.000	0.025	-0.094
-321.070	25.695	-0.143	-0.117
-320.056	410.999	-0.056	-0.118
-319.041	22.659	0.032	0.026
-318.026	-124.893	0.128	-0.020
-317.012	-200.000	0.013	-0.078
-315.997	50.309	-0.137	0.128
-314.983	463.666	0.189	0.417
-313.968	-16.738	0.169	0.106
-312.953	800.000	0.065	0.275
-311.939	40.977	0.164	0.146
-310.924	-81.720	-0.085	0.027
-309.910	-127.308	0.312	-0.045
-308.895	40.943	-0.073	0.065
-307.880	-200.000	0.020	-0.398
-306.866	-107.815	-0.132	-0.028
-305.851	-200.000	0.063	-0.284
-304.837	59.922	0.244	0.238
-303.822	595.946	0.058	-0.142
-302.807	-35.105	-0.095	-0.051
-301.793	-200.000	0.014	0.134
-300.778	42.043	0.037	-0.034
-299.764	117.224	0.152	0.185
-298.749	552.551	0.055	0.130
-297.735	336.098	0.111	0.213
-296.720	-200.000	0.008	-0.418
-295.705	-74.990	-0.142	-0.050
-294.691	-200.000	0.010	-0.251
-293.676	33.777	-0.111	0.095
-292.662	84.507	0.155	-0.167
-291.647	94.178	0.063	0.070
-290.632	-200.000	-0.000	-0.165
-289.618	38.235	-0.122	-0.108
-288.603	-131.310	-0.092	-0.012
-287.589	99.106	0.152	-0.174
-286.574	34.178	0.202	0.174
-285.559	-129.782	-0.085	-0.012
-284.545	-200.000	-0.016	-0.080
-283.530	33.947	-0.149	-0.128
-282.516	-96.191	-0.437	0.115
-281.501	16.001	0.106	-0.083
-280.486	-20.271	-0.259	0.157
-279.472	800.000	-0.057	0.167
-278.457	-42.211	0.086	0.043
-277.443	201.246	-0.074	0.112
-276.428	800.000	-0.003	-0.009
-275.413	-200.000	-0.005	0.060
-274.399	-200.000	-0.037	0.162
-273.384	522.281	0.019	0.045
-272.370	800.000	-0.045	-0.155
-271.355	800.000	-0.044	-0.129
-270.340	-200.000	0.029	0.335
-269.326	-11.918	-0.232	0.150
-268.311	-200.000	-0.008	0.199
-267.297	800.000	-0.033	0.111
-266.282	301.497	-0.226	0.412
-265.267	-200.000	-0.013	0.134
-264.253	-32.717	0.113	0.062
-263.238	-34.844	-0.384	0.207
-262.224	-134.120	-0.228	0.028
-261.209	133.806	0.236	0.301
-260.195	191.426	0.134	-0.198
-259.180	83.270	0.203	0.218
-258.165	-136.631	-0.229	0.026
-257.151	-200.000	0.040	0.210
-256.136	800.000	-0.070	0.246
-255.122	800.000	0.105	0.427
-254.107	-101.117	0.100	-0.024
-253.092	267.977	-0.218	0.376
-252.078	-99.732	0.264	-0.065
-251.063	-92.354	-0.186	0.052
-250.049	2.833	0.056	0.040
-249.034	800.000	0.087	0.244
-248.019	-179.892	-0.049	0.001
-247.005	-98.502	-0.361	-0.091
-245.990	-26.818	0.117	-0.067
-244.976	-82.682	0.077	-0.025
-243.961	-65.730	0.017	0.007
-242.946	43.672	0.178	0.161
-241.932	-92.069	0.391	-0.109
-240.917	-65.860	-0.042	-0.017
-239.903	-146.399	0.229	0.020
-238.888	-200.000	0.017	-0.359
-237.873	-200.000	0.024	0.184
-236.859	76.427	-0.175	0.182
-235.844	-147.713	-0.162	-0.013
-234.830	420.566	0.143	-0.301
-233.815	199.351	-0.257	-0.388
-232.800	-43.368	-0.336	-0.167
-231.786	-134.029	-0.124	0.015
-230.771	91.888	-0.010	-0.011
-229.757	-53.620	-0.097	0.043
-228.742	50.006	-0.111	-0.103
-227.727	-200.000	0.011	0.049
-226.713	-168.127	-0.173	-0.007
-225.698	178.901	-0.250	-0.360
-224.684	336.975	0.090	0.172
-223.669	152.319	0.119	0.159
-222.655	404.226	0.061	0.126
-221.640	20.732	0.189	-0.151
-220.625	-103.676	0.243	-0.056
-219.611	800.000	0.083	0.315
-218.596	166.233	-0.153	-0.214
-217.582	-137.882	0.235	0.026
-216.567	-21.516	-0.239	0.144
-215.552	-134.654	0.099	-0.012
-214.538	-200.000	0.012	0.349
-213.523	27.233	0.223	0.185
-212.509	157.255	0.113	-0.153
-211.494	-60.115	-0.248	0.104
-210.479	-74.182	0.177	-0.063
-209.465	551.277	0.041	0.096
-208.450	-200.000	0.004	-0.162
-207.436	-4.641	-0.290	0.197
-206.421	-35.019	0.091	-0.049
-205.406	-104.285	-0.278	-0.063
-204.392	144.270	0.160	0.210
-203.377	39.321	0.217	0.191
-202.363	133.017	0.061	0.077
-201.348	5.947	-0.229	-0.167
-200.333	-36.984	0.084	0.045
-199.319	448.224	0.081	-0.175
-198.304	121.492	-0.145	-0.178
-197.290	73.126	-0.298	-0.307
-196.275	268.602	0.065	-0.112
-195.260	246.512	0.089	-0.148
-194.246	-15.265	0.286	-0.180
-193.231	-118.490	0.262	-0.046
-192.217	-79.109	-0.401	-0.134
-191.202	-108.921	0.181	-0.038
-190.187	-14.160	0.227	-0.144
-189.173	800.000	0.161	0.502
-188.158	-45.451	0.123	0.060
-187.144	184.232	-0.033	0.048
-186.129	-50.458	0.085	-0.039
-185.114	-200.000	-0.002	0.267
-184.100	86.949	-0.134	0.146
-183.085	800.000	-0.076	0.250
-182.071	-1.560	0.231	0.160
-181.056	-200.000	0.046	0.296
-180.042	-200.000	-0.005	0.182
-179.027	270.469	0.102	0.177
-178.012	-66.834	-0.156	-0.061
-176.998	-45.950	0.452	-0.219
-175.983	-106.745	-0.158	0.035
-174.969	161.546	-0.187	-0.257
-173.954	-85.230	-0.110	-0.034
-172.939	616.078	-0.072	0.178
-171.925	9.932	0.061	-0.046
-170.910	-35.255	0.041	0.022
-169.896	355.732	0.076	0.149
-168.881	-152.099	-0.243	0.017
-167.866	25.692	-0.163	0.134
-166.852	-46.154	-0.163	0.079
-165.837	247.580	-0.102	0.170
-164.823	-50.321	-0.407	0.189
-163.808	-200.000	-0.002	0.104
-162.793	-194.232	0.296	-0.002
-161.779	-200.000	0.051	-0.265
-160.764	776.077	-0.021	0.057
-159.750	32.716	0.160	0.136
-158.735	84.953	-0.084	0.090
-157.720	75.009	0.040	-0.041
-156.706	40.934	0.060	-0.053
-155.691	236.878	0.084	-0.136
-154.677	-90.671	0.215	0.061
-153.662	102.761	-0.052	-0.060
-152.647	-1.675	0.073	-0.050
-151.633	168.645	0.163	-0.228
-150.618	-29.430	-0.357	-0.201
-149.604	-150.536	0.066	0.005
-148.589	-129.797	-0.199	0.027
-147.574	-58.091	0.123	0.053
-146.560	-200.000	-0.002	0.107
-145.545	-93.296	0.096	0.026
-144.531	116.148	0.184	-0.221
-143.516	104.964	-0.039	0.045
-142.502	154.531	0.142	0.191
-141.487	68.557	0.073	-0.073
-140.472	-200.000	-0.026	-0.147
-139.458	-56.475	-0.057	-0.025
-138.443	758.475	0.191	0.507
-137.429	15.168	-0.117	-0.090
-136.414	-28.591	0.434	0.245
-135.399	-16.705	-0.123	0.076
-134.385	-63.739	0.365	-0.147
-133.370	167.733	-0.069	0.096
-132.356	83.512	0.169	-0.180
-131.341	-200.000	0.076	-0.000
-130.326	-138.045	-0.136	0.015
-129.312	800.000	-0.062	0.250
-128.297	-12.553	-0.105	-0.067
-127.283	255.764	0.075	0.126
-126.268	124.951	-0.051	0.063
-125.253	-0.624	0.089	-0.062
-124.239	-200.000	0.011	0.163
-123.224	-200.000	-0.036	0.333
-122.210	-200.000	-0.036	-0.322
-121.195	448.669	0.102	0.220
-120.180	-200.000	-0.004	-0.247
-119.166	146.604	0.158	-0.209
-118.151	379.199	-0.148	-0.297
-117.137	17.436	0.160	-0.124
-116.122	509.054	0.112	-0.255
-115.107	311.691	0.036	0.066
-114.093	2.135	-0.465	-0.330
-113.078	447.889	0.026	0.057
-112.064	-74.111	0.152	-0.054
-111.049	20.913	0.151	-0.120
-110.034	-72.600	0.224	0.081
-109.020	51.406	0.267	0.249
-108.005	-89.666	-0.165	-0.047
-106.991	138.329	-0.102	0.131
-105.976	800.000	-0.029	0.095
-104.962	-24.100	0.111	-0.065
-103.947	480.755	-0.069	0.154
-102.932	335.072	-0.116	0.220
-101.918	-66.033	0.065	-0.025
-100.903	-199.229	0.533	-0.003
-99.889	-156.586	0.190	-0.012
-98.874	-41.343	0.339	0.171
-97.859	-16.245	0.128	0.080
-96.845	240.503	-0.096	-0.156
-95.830	-200.000	0.023	0.422
-94.816	800.000	0.100	0.379
-93.801	-156.952	-0.512	0.031
-92.786	24.122	-0.129	-0.104
-91.772	514.336	0.008	0.018
-90.757	99.852	0.194	-0.220
-89.743	-200.000	-0.058	0.268
-88.728	800.000	0.096	0.262
-87.713	57.428	0.164	-0.157
-86.699	-103.596	0.093	-0.021
-85.684	-200.000	-0.011	-0.142
-84.670	-200.000	0.004	-0.093
-83.655	366.634	-0.115	-0.228
-82.640	-200.000	-0.053	0.291
-81.626	158.456	-0.183	-0.249
-80.611	-200.000	0.011	0.362
-79.597	79.052	0.229	0.240
-78.582	800.000	0.076	0.211
-77.567	-75.056	0.075	0.026
-76.553	-127.067	-0.092	0.013
-75.538	541.325	0.099	-0.232
-74.524	73.567	0.230	-0.236
-73.509	168.910	-0.064	-0.089
-72.494	800.000	0.082	0.311
-71.480	-52.482	-0.197	-0.089
-70.465	58.676	0.032	0.030
-69.451	-66.349	0.114	-0.044
-68.436	165.692	0.142	0.196
-67.422	-49.433	0.045	0.021
-66.407	367.553	0.090	-0.178
-65.392	-46.955	0.081	0.039
-64.378	371.233	0.157	0.311
-63.363	-200.000	0.001	0.225
-62.349	-200.000	-0.001	-0.276
-61.334	81.709	-1.074	-1.138
-60.319	63.989	0.398	0.391
-59.305	-200.000	-0.277	-1.391
-58.290	198.569	0.791	1.184
-57.276	434.543	0.627	1.332
-56.261	-200.000	114.306	642.530
-55.246	475.696	1500.208	3314.715
-54.232	149.340	2661.091	3524.003
-53.217	102.612	2139.632	2448.316
-52.203	38.360	1589.519	1385.106
-51.188	30.512	1335.696	1116.938
-50.173	27.681	1297.759	1068.608
-49.159	54.505	1353.486	1275.581
-48.144	53.269	1367.473	1281.344
-47.130	30.862	1323.461	1108.616
-46.115	27.387	1305.679	1073.229
-45.100	27.192	1300.693	1067.942
-44.086	27.217	1298.067	1065.890
-43.071	27.171	1295.517	1063.485
-42.057	27.099	1293.914	1061.704
-41.042	27.097	1292.465	1060.460
-40.027	27.046	1291.193	1059.083
-39.013	27.192	1288.801	1057.923
-37.998	27.198	1286.893	1056.351
-36.984	27.165	1285.188	1054.721
-35.969	27.257	1283.418	1053.760
-34.954	27.269	1281.719	1052.388
-33.940	27.321	1280.302	1051.483
-32.925	27.346	1278.996	1050.517
-31.911	27.266	1277.780	1049.012
-30.896	27.287	1276.623	1048.141
-29.881	27.320	1275.509	1047.380
-28.867	27.329	1273.647	1045.859
-27.852	27.382	1272.230	1044.956
-26.838	27.455	1270.699	1044.077
-25.823	27.392	1269.621	1042.789
-24.809	27.321	1268.441	1041.374
-23.794	27.399	1266.401	1040.103
-22.779	27.343	1265.181	1038.737
-21.765	27.375	1264.144	1038.032
-20.750	27.378	1262.956	1037.029
-19.736	27.214	1262.052	1035.311
-18.721	27.241	1260.368	1034.041
-17.706	27.268	1259.443	1033.395
-16.692	27.356	1258.185	1032.821
-15.677	27.313	1257.405	1031.900
-14.663	27.254	1256.030	1030.393
-13.648	27.202	1255.099	1029.294
-12.633	27.173	1254.230	1028.377
-11.619	27.184	1253.530	1027.826
-10.604	27.245	1252.809	1027.537
-9.590	27.106	1252.316	1026.306
-8.575	27.114	1251.010	1025.239
-7.560	27.164	1249.874	1024.553
-6.546	27.274	1248.285	1023.829
-5.531	27.160	1248.112	1023.001
-4.517	27.243	1246.706	1022.279
-3.502	27.221	1246.277	1021.761
-2.487	27.223	1245.185	1020.838
-1.473	27.232	1240.821	1017.270
-0.458	25.734	1226.417	997.132
0.556	20.956	1210.138	961.301
1.571	17.558	1216.516	947.412
2.586	16.802	1231.806	954.972
3.600	16.947	1220.760	947.137
4.615	15.159	1154.733	886.376
5.629	11.676	1088.265	817.883
6.644	9.988	1071.068	796.575
7.659	9.841	1069.143	794.345
8.673	9.699	1068.053	792.771
9.688	9.802	1066.167	791.803
10.702	9.983	1064.540	791.414
11.717	12.123	1066.379	803.201
12.731	15.554	1070.745	823.260
13.746	17.590	1073.371	835.200
14.761	17.521	1072.894	834.417
15.775	16.571	1070.622	827.928
16.790	15.477	1068.539	820.896
17.804	14.806	1067.007	816.374
18.819	14.370	1065.490	813.013
19.834	14.144	1064.473	811.061
20.848	13.910	1063.967	809.462
21.863	13.693	1063.328	807.849
22.877	13.517	1062.286	806.128
23.892	13.410	1061.662	805.062
24.907	13.542	1060.899	805.057
25.921	13.584	1059.983	804.493
26.936	13.519	1058.682	803.118
27.950	13.715	1057.198	802.873
28.965	13.751	1055.602	801.765
29.980	13.641	1054.154	800.061
30.994	13.859	1053.215	800.328
32.009	13.713	1052.424	798.954
33.023	13.725	1050.904	797.787
34.038	13.611	1050.344	796.743
35.053	13.559	1049.575	795.840
36.067	13.689	1048.113	795.282
37.082	13.609	1047.833	794.615
38.096	13.660	1046.710	793.938
39.111	13.578	1046.224	793.107
40.126	13.693	1044.500	792.283
41.140	13.419	1043.813	790.380
42.155	13.459	1042.252	789.322
43.169	13.443	1041.267	788.428
44.184	13.435	1040.336	787.616
45.199	13.482	1039.345	787.020
46.213	13.466	1038.107	785.935
47.228	13.654	1036.767	785.741
48.242	13.575	1036.325	784.963
49.257	13.629	1035.102	784.222
50.271	13.648	1034.126	783.504
51.286	13.710	1033.461	783.225
52.301	13.635	1032.506	782.075
53.315	13.612	1031.713	781.301
54.330	13.535	1030.510	779.955
55.344	13.503	1029.696	779.122
56.359	13.510	1028.653	778.297
57.374	13.447	1027.672	777.188
58.388	13.356	1026.693	775.954
59.403	13.436	1025.944	775.691
60.417	13.464	1025.018	775.056
61.432	13.490	1023.916	774.277
62.447	13.373	1023.704	773.499
63.461	13.365	1022.588	772.551
64.476	13.294	1021.683	771.466
65.490	13.435	1020.529	771.186
66.505	13.525	1019.894	771.054
67.520	13.525	1019.358	770.584
68.534	13.617	1018.285	770.129
69.549	13.417	1018.234	769.094
70.563	13.416	1016.918	768.026
71.578	13.338	1016.507	767.285
72.593	13.328	1015.552	766.450
73.607	13.363	1014.852	766.016
74.622	13.282	1013.989	764.926
75.636	13.267	1013.715	764.583
76.651	13.210	1013.174	763.843
77.666	13.270	1012.111	763.251
78.680	13.297	1011.738	763.025
79.695	13.314	1011.006	762.481
80.709	13.447	1010.539	762.677
81.724	13.378	1010.088	761.951
82.739	13.585	1008.950	761.978
83.753	13.609	1008.484	761.667
84.768	13.680	1007.212	760.967
85.782	13.889	1005.999	760.940
86.797	13.664	1006.022	759.860
87.812	13.564	1004.611	758.271
88.826	13.712	1003.337	757.916
89.841	13.699	1002.469	757.136
90.855	13.777	1001.545	756.725
91.870	13.833	1000.798	756.350
92.884	13.702	1000.354	755.352
93.899	13.792	999.390	754.966
94.914	13.824	998.746	754.556
95.928	13.730	998.005	753.505
96.943	13.785	996.688	752.692
97.957	13.791	995.661	751.876
98.972	13.686	995.104	750.913
99.987	13.692	994.220	750.207
101.001	13.812	992.921	749.705
102.016	13.826	992.260	749.199
103.030	13.783	991.976	748.728
104.045	13.785	991.104	748.009
105.060	13.697	989.663	746.460
106.074	13.614	988.852	745.410
107.089	13.572	987.758	744.333
108.103	13.517	987.308	743.680
109.118	13.509	986.134	742.693
110.133	13.450	985.598	741.959
111.147	13.459	984.396	741.031
112.162	13.629	983.504	741.054
113.176	13.575	983.310	740.601
114.191	13.646	982.044	739.899
115.206	13.571	981.283	738.921
116.220	13.673	980.069	738.401
117.235	13.626	979.282	737.533
118.249	13.562	978.509	736.599
119.264	13.625	977.665	736.180
120.279	13.737	976.873	736.016
121.293	13.581	975.819	734.463
122.308	13.541	975.427	733.925
123.322	13.461	974.283	732.646
124.337	13.512	973.406	732.149
125.352	13.416	972.407	730.909
126.366	13.465	971.174	730.133
127.381	13.467	970.066	729.245
128.395	13.561	969.248	728.977
129.410	13.689	968.305	728.767
130.424	13.671	967.586	728.082
131.439	13.543	967.201	727.166
132.454	13.681	966.204	726.957
133.468	13.580	965.836	726.174
134.483	13.655	964.327	725.303
135.497	13.581	963.582	724.356
136.512	13.540	963.041	723.704
137.527	13.777	961.756	723.707
138.541	13.780	960.967	723.062
139.556	13.707	960.577	722.389
140.570	13.883	959.732	722.453
141.585	13.735	959.287	721.412
142.600	13.804	958.219	720.846
143.614	13.768	957.503	720.086
144.629	13.963	956.583	720.178
145.643	13.816	955.903	718.966
146.658	13.842	954.532	717.981
147.673	13.748	954.031	717.133
148.687	13.771	953.032	716.419
149.702	13.762	951.937	715.494
150.716	13.688	951.084	714.471
151.731	13.702	950.575	714.085
152.746	13.802	949.788	713.860
153.760	13.857	949.453	713.783
154.775	13.818	948.943	713.168
155.789	13.967	947.683	712.799
156.804	13.839	947.214	711.836
157.819	13.945	946.805	711.918
158.833	14.095	945.713	711.676
159.848	14.101	944.941	711.056
160.862	14.029	944.199	710.130
161.877	13.895	943.433	708.919
162.892	13.842	942.279	707.760
163.906	13.842	941.395	707.038
164.921	13.863	940.366	706.288
165.935	13.828	939.986	705.792
166.950	13.797	939.385	705.150
167.964	13.889	937.888	704.350
168.979	13.918	936.996	703.740
169.994	13.982	936.170	703.331
171.008	13.883	936.006	702.728
172.023	13.967	935.157	702.383
173.037	13.994	934.529	701.963
174.052	14.014	933.591	701.279
175.067	13.939	933.229	700.631
176.081	13.908	932.192	699.657
177.096	13.927	931.856	699.423
178.110	13.992	931.286	699.206
179.125	14.086	930.528	698.971
180.140	13.888	930.625	698.148
181.154	14.131	929.654	698.383
182.169	14.111	929.243	697.929
183.183	14.158	928.218	697.290
184.198	14.144	927.635	696.732
185.213	14.249	927.108	696.714
186.227	14.237	926.427	696.094
187.242	14.232	925.617	695.402
188.256	14.256	925.105	695.055
189.271	14.325	924.237	694.627
190.286	14.010	923.504	692.702
191.300	14.067	922.568	692.177
192.315	13.931	922.179	691.258
193.329	13.877	922.033	690.864
194.344	14.123	920.625	690.771
195.359	14.075	920.639	690.518
196.373	14.310	919.807	690.808
197.388	14.322	919.543	690.599
198.402	14.341	919.403	690.513
199.417	14.451	918.646	690.338
200.432	14.525	917.782	689.934
201.446	14.430	917.226	689.064
202.461	14.561	916.786	689.211
203.475	14.569	916.431	688.915
204.490	14.427	915.489	687.561
205.504	14.457	914.575	686.938
206.519	14.393	913.527	685.829
207.534	14.370	913.212	685.435
208.548	14.351	912.507	684.768
209.563	14.490	911.888	684.814
210.577	14.393	911.073	683.741
211.592	14.533	910.744	684.010
212.607	14.691	909.700	683.810
213.621	14.641	908.943	682.979
214.636	14.572	908.436	682.252
215.650	14.624	907.417	681.642
216.665	14.619	907.239	681.426
217.680	14.710	906.262	681.002
218.694	14.827	905.689	680.991
219.709	14.654	905.503	680.083
220.723	14.688	904.792	679.631
221.738	14.664	903.881	678.787
222.753	14.694	903.241	678.368
223.767	14.740	902.796	678.161
224.782	14.820	901.979	677.811
225.796	14.780	901.994	677.599
226.811	14.792	900.983	676.831
227.826	14.811	900.246	676.294
228.840	14.796	899.170	675.366
229.855	14.723	898.893	674.803
230.869	14.724	897.846	673.960
231.884	14.795	896.997	673.548
232.899	14.762	896.380	672.892
233.913	14.708	895.712	672.116
234.928	14.760	895.236	671.908
235.942	14.788	894.369	671.311
236.957	14.734	894.142	670.864
237.972	14.786	893.467	670.505
238.986	14.823	892.722	670.034
240.001	14.780	892.317	669.499
241.015	14.736	891.803	668.878
242.030	14.796	891.149	668.571
243.045	14.744	890.484	667.803
244.059	14.908	889.784	667.873
245.074	14.805	889.122	666.907
246.088	14.996	888.328	667.016
247.103	15.021	887.682	666.570
248.117	15.243	886.853	666.771
249.132	15.134	886.787	666.230
250.147	15.149	886.260	665.835
251.161	15.256	885.398	665.554
252.176	15.285	884.647	665.044
253.190	15.336	883.911	664.634
254.205	15.192	883.608	663.777
255.220	15.362	882.989	663.927
256.234	15.329	882.276	663.202
257.249	15.233	882.001	662.556
258.263	15.351	880.906	662.140
259.278	15.366	880.234	661.637
260.293	15.433	879.940	661.621
261.307	15.482	879.196	661.197
262.322	15.380	878.356	660.104
263.336	15.464	877.877	660.017
264.351	15.540	876.835	659.474
265.366	15.619	876.385	659.386
266.380	15.595	875.836	658.820
267.395	15.454	875.135	657.683
268.409	15.364	874.875	657.078
269.424	15.529	873.883	656.920
270.439	15.554	873.082	656.355
271.453	15.433	872.475	655.369
272.468	15.481	871.885	655.054
273.482	15.454	871.350	654.492
274.497	15.422	870.760	653.864
275.512	15.585	870.121	653.961
276.526	15.615	869.846	653.815
277.541	15.574	869.224	653.127
278.555	15.677	868.796	653.151
279.570	15.842	867.507	652.761
280.585	15.819	867.049	652.271
281.599	15.729	866.202	651.230
282.614	15.788	865.512	650.878
283.628	15.685	864.887	649.952
284.643	15.683	864.698	649.746
285.657	15.764	863.915	649.415
286.672	15.900	863.117	649.281
287.687	15.858	862.378	648.506
288.701	15.798	862.336	648.187
289.716	15.780	861.605	647.510
290.730	15.906	861.165	647.607
291.745	15.771	860.313	646.390
292.760	15.896	859.605	646.281
293.774	15.836	859.170	645.666
294.789	15.821	858.576	645.106
295.803	15.985	857.574	644.922
296.818	15.835	857.261	644.057
297.833	15.821	856.360	643.267
298.847	16.026	855.619	643.437
299.862	15.904	855.307	642.680
300.876	15.947	854.656	642.298
301.891	15.928	854.400	641.977
302.906	16.090	853.695	642.007
303.920	16.034	853.233	641.391
304.935	16.121	852.925	641.431
305.949	16.231	852.266	641.298
306.964	16.147	851.732	640.520
307.979	16.077	851.063	639.696
308.993	16.242	850.565	639.889
310.008	16.048	850.186	638.812
311.022	16.098	849.042	638.086
312.037	16.061	848.857	637.751
313.052	16.030	848.067	636.984
314.066	16.038	847.784	636.744
315.081	16.077	846.916	636.182
316.095	16.066	846.488	635.766
317.110	16.084	845.814	635.272
318.125	16.212	845.209	635.242
319.139	16.278	845.061	635.323
320.154	16.147	844.335	634.228
321.168	16.144	844.109	633.990
322.183	16.133	843.558	633.479
323.197	16.321	842.578	633.392
324.212	16.244	842.195	632.761
325.227	16.343	841.505	632.557
326.241	16.243	841.085	631.811
327.256	16.186	840.553	631.143
328.270	16.334	840.131	631.324
329.285	16.134	839.458	630.012
330.300	16.117	839.151	629.662
331.314	16.278	838.274	629.549
332.329	16.215	837.876	628.963
333.343	16.462	837.405	629.473
334.358	16.291	837.404	628.780
335.373	16.350	836.977	628.623
336.387	16.381	836.339	628.203
337.402	16.321	836.468	628.019
338.416	16.392	835.951	627.841
339.431	16.526	835.163	627.692
340.446	16.638	835.000	627.929
341.460	16.668	834.300	627.457
342.475	16.634	834.255	627.241
343.489	16.668	833.692	626.888
344.504	16.758	833.122	626.739
345.519	16.760	832.604	626.301
346.533	16.741	832.011	625.729
347.548	16.575	831.907	624.983
348.562	16.638	830.912	624.410
349.577	16.671	830.343	624.051
350.592	16.647	829.501	623.275
351.606	16.569	829.030	622.577
352.621	16.575	828.425	622.089
353.635	16.686	827.908	622.056
354.650	16.770	827.108	621.707
355.665	16.687	827.034	621.292
356.679	16.744	826.040	620.698
357.694	16.721	825.733	620.331
358.708	16.658	825.229	619.664
359.723	16.841	824.428	619.680
360.738	16.651	824.202	618.759
361.752	16.773	823.397	618.544
362.767	16.921	822.688	618.499
363.781	16.883	822.172	617.916
364.796	17.126	821.461	618.211
365.810	17.020	821.445	617.758
366.825	16.962	821.136	617.261
367.840	16.924	820.410	616.522
368.854	17.003	819.827	616.319
369.869	17.124	819.404	616.383
370.883	16.967	819.396	615.755
371.898	17.162	818.628	615.830
372.913	17.107	818.510	615.486
373.927	17.214	817.853	615.326
374.942	17.137	817.263	614.550
375.956	17.373	816.722	614.940
376.971	17.350	816.420	614.577
377.986	17.225	816.024	613.773
379.000	17.282	815.617	613.618
380.015	17.395	814.691	613.275
381.029	17.374	814.355	612.891
382.044	17.417	813.469	612.325
383.059	17.440	813.092	612.068
384.073	17.304	812.761	611.279
385.088	17.275	812.297	610.772
386.102	17.311	811.813	610.482
387.117	17.102	811.220	609.233
388.132	17.139	810.854	609.037
389.146	17.259	809.960	608.740
390.161	17.474	809.637	609.212
391.175	17.383	809.153	608.469
392.190	17.491	808.206	608.090
393.205	17.264	808.257	607.264
394.219	17.288	807.969	607.079
395.234	17.410	807.176	606.865
396.248	17.323	807.016	606.379
397.263	17.331	806.366	605.865
398.278	17.184	806.464	605.363
399.292	17.237	805.507	604.778
400.307	17.316	805.113	604.710
401.321	17.389	804.584	604.518
402.336	17.425	804.084	604.218
403.350	17.415	803.553	603.730
404.365	17.455	803.458	603.748
405.380	17.552	802.650	603.428
406.394	17.719	802.144	603.588
407.409	17.608	802.149	603.145
408.423	17.746	801.530	603.114
409.438	17.699	801.290	602.715
410.453	17.843	800.885	602.865
411.467	17.752	800.070	601.877
412.482	17.807	800.181	602.102
413.496	17.852	799.608	601.777
414.511	17.818	799.158	601.263
415.526	17.832	798.539	600.794
416.540	17.775	798.174	600.266
417.555	17.870	797.632	600.139
418.569	17.967	797.184	600.090
419.584	17.797	796.892	599.220
420.599	17.843	796.660	599.153
421.613	111.787	1294.908	1476.409
422.628	96.214	1367.471	1476.529
