DTS Sentinel unit serial number:	SN413079Multiplexer serial number:	ORYXHardware model number:	OX4-SRSoftware version number:	ORYX F/W v4.00 Oryx Data Collector v3.7.2.0data status	okinstallation	princeton_trtdifferential loss correction	single-endedforward channel	channel 1reverse channel	N/Adate	2019/09/15time	02:30:35forward acquisition time	60.00reverse acquisition time	0.00gamma	496.2192k internal	0.2322k external	0.2322temperature offset calibration	0.9986default loss term (dB/km)	0.3790temperature slope calibration	1.0000multiplexer offset coefficient	1.0000multiplexer slope coefficient	1.0000fibre end	0.00T internal ref (°C)	31.50T ext. ref 1 (°C)	4.54T ext. ref 2 (°C)	25.82length (m)	temperature (°C)	Stokes	anti-Stokes-747.200	255.480	0.208	0.361
-746.185	-73.480	0.318	0.117
-745.171	-105.359	-0.220	-0.051
-744.156	-0.835	0.229	0.164
-743.142	20.697	0.240	-0.196
-742.127	-200.000	0.044	0.459
-741.112	-200.000	-0.003	-0.087
-740.098	-91.394	0.144	0.042
-739.083	-93.991	-0.271	0.075
-738.069	-200.000	0.017	0.345
-737.054	-200.000	0.016	0.137
-736.039	19.127	-0.060	-0.048
-735.025	42.848	0.139	0.128
-734.010	-200.000	0.066	0.325
-732.996	-143.230	-0.321	-0.031
-731.981	800.000	0.037	-0.164
-730.966	317.747	0.070	0.134
-729.952	-200.000	0.020	-0.230
-728.937	49.071	-0.086	-0.082
-727.923	-73.248	0.184	-0.068
-726.908	800.000	-0.048	0.142
-725.894	-200.000	0.035	0.184
-724.879	-113.818	0.051	0.010
-723.864	-43.175	-0.273	0.140
-722.850	58.318	-0.026	-0.026
-721.835	62.536	-0.098	-0.099
-720.821	658.788	-0.081	-0.212
-719.806	63.358	-0.201	-0.204
-718.791	-200.000	-0.052	0.243
-717.777	-200.000	0.028	-0.171
-716.762	-200.000	0.050	-0.416
-715.748	431.514	0.088	-0.193
-714.733	-22.055	0.121	-0.074
-713.718	-111.143	0.184	-0.038
-712.704	-200.000	-0.031	-0.153
-711.689	15.630	-0.514	-0.407
-710.675	-122.829	0.219	-0.036
-709.660	800.000	-0.169	-0.539
-708.645	-57.302	0.132	-0.059
-707.631	268.468	-0.103	-0.182
-706.616	-146.299	-0.204	-0.018
-705.602	-200.000	0.006	-0.125
-704.587	800.000	-0.047	0.192
-703.572	-95.071	-0.136	-0.037
-702.558	276.363	-0.120	0.214
-701.543	-41.309	0.200	0.104
-700.529	800.000	-0.033	0.114
-699.514	800.000	-0.039	-0.126
-698.499	160.735	0.026	-0.037
-697.485	-173.916	-0.178	-0.005
-696.470	258.479	0.081	0.141
-695.456	-182.066	0.245	0.005
-694.441	-105.356	-0.323	-0.074
-693.426	315.379	0.157	-0.298
-692.412	38.246	-0.094	-0.084
-691.397	-54.806	0.255	0.116
-690.383	-132.525	-0.324	-0.042
-689.368	-200.000	0.017	0.087
-688.354	-69.253	0.465	-0.180
-687.339	-79.211	0.398	-0.136
-686.324	-200.000	-0.025	-0.245
-685.310	207.088	0.082	-0.129
-684.295	800.000	-0.010	0.036
-683.281	27.530	-0.152	-0.129
-682.266	-120.141	0.315	-0.054
-681.251	370.244	0.143	0.292
-680.237	-200.000	0.003	-0.439
-679.222	-70.309	0.467	-0.179
-678.208	-14.005	-0.303	-0.197
-677.193	170.950	0.109	-0.158
-676.178	-200.000	-0.022	0.161
-675.164	3.938	0.048	-0.035
-674.149	-200.000	-0.001	0.261
-673.135	20.878	0.177	-0.144
-672.120	-182.795	0.207	-0.004
-671.105	249.054	-0.097	0.165
-670.091	-152.954	0.208	0.015
-669.076	-133.974	0.175	0.022
-668.062	-81.107	-0.343	-0.114
-667.047	714.339	0.146	-0.390
-666.032	-165.161	-0.244	-0.011
-665.018	541.039	-0.033	-0.079
-664.003	78.439	0.145	-0.156
-662.989	800.000	-0.159	0.469
-661.974	-161.721	0.071	-0.004
-660.959	-108.105	0.256	0.056
-659.945	23.078	0.250	0.207
-658.930	-132.146	0.167	-0.022
-657.916	800.000	-0.062	-0.182
-656.901	269.188	0.200	-0.354
-655.886	164.931	-0.062	-0.088
-654.872	-11.882	0.147	-0.097
-653.857	65.134	-0.188	0.191
-652.843	800.000	-0.070	0.201
-651.828	800.000	-0.066	-0.253
-650.814	-46.010	0.297	0.147
-649.799	-200.000	0.051	0.391
-648.784	36.058	-0.038	0.034
-647.770	-115.670	-0.134	0.025
-646.755	-200.000	-0.019	0.152
-645.741	-103.307	-0.240	0.057
-644.726	8.598	-0.193	-0.146
-643.711	-58.785	-0.108	0.047
-642.697	-200.000	-0.017	0.135
-641.682	226.954	-0.123	-0.201
-640.668	-74.253	-0.062	0.023
-639.653	-200.000	-0.016	-0.212
-638.638	45.590	0.300	-0.279
-637.624	28.996	0.100	-0.085
-636.609	23.626	0.068	0.056
-635.595	-200.000	0.016	0.171
-634.580	-101.202	0.138	0.034
-633.565	800.000	-0.018	-0.054
-632.551	62.416	-0.119	-0.119
-631.536	97.687	0.153	-0.177
-630.522	-83.614	0.122	0.039
-629.507	425.957	-0.081	0.175
-628.492	363.214	-0.127	-0.257
-627.478	-61.451	-0.400	-0.169
-626.463	-22.568	0.289	-0.176
-625.449	-114.023	0.223	0.043
-624.434	-107.039	-0.195	-0.043
-623.419	-153.474	0.144	0.010
-622.405	168.592	0.173	0.247
-621.390	-131.460	-0.234	0.031
-620.376	144.104	0.116	0.156
-619.361	-112.802	-0.164	0.033
-618.346	-78.569	-0.070	-0.024
-617.332	-10.410	0.099	-0.066
-616.317	-21.373	0.283	-0.174
-615.303	96.820	-0.125	-0.144
-614.288	274.989	-0.153	-0.273
-613.273	151.785	-0.104	0.143
-612.259	-33.853	0.177	0.098
-611.244	785.343	0.118	0.325
-610.230	-200.000	0.023	-0.129
-609.215	-10.245	-0.271	0.181
-608.201	-52.402	0.128	-0.059
-607.186	-135.494	-0.084	-0.010
-606.171	-96.787	0.189	-0.050
-605.157	12.654	0.362	0.281
-604.142	800.000	0.017	0.071
-603.128	-65.401	-0.193	0.078
-602.113	-200.000	0.019	0.239
-601.098	800.000	-0.052	0.204
-600.084	28.411	0.038	-0.032
-599.069	627.261	-0.020	-0.050
-598.055	-116.805	-0.167	0.031
-597.040	-52.683	-0.323	-0.150
-596.025	-200.000	0.024	-0.124
-595.011	49.478	-0.076	-0.071
-593.996	-171.792	0.213	0.007
-592.982	166.452	0.129	0.184
-591.967	171.700	-0.251	-0.362
-590.952	-200.000	0.293	0.001
-589.938	-16.070	-0.113	-0.072
-588.923	96.346	-0.186	-0.214
-587.909	459.153	-0.067	0.151
-586.894	556.987	-0.068	-0.165
-585.879	-5.490	-0.078	0.054
-584.865	-200.000	0.004	-0.148
-583.850	57.393	-0.062	-0.061
-582.836	-43.991	0.270	-0.136
-581.821	693.986	-0.124	0.327
-580.806	175.311	0.055	0.080
-579.792	140.225	0.032	0.042
-578.777	-87.587	0.249	-0.075
-577.763	-153.907	0.157	-0.011
-576.748	467.796	-0.085	0.191
-575.733	611.553	-0.167	-0.420
-574.719	-72.589	-0.264	-0.098
-573.704	-126.143	0.238	-0.036
-572.690	258.063	0.139	-0.241
-571.675	-77.655	-0.242	-0.084
-570.661	10.189	-0.138	-0.106
-569.646	157.136	-0.129	-0.179
-568.631	-200.000	0.033	0.265
-567.617	-85.540	-0.110	-0.034
-566.602	265.790	0.071	-0.124
-565.588	-104.208	-0.420	0.098
-564.573	800.000	-0.054	-0.166
-563.558	-121.936	-0.290	0.048
-562.544	-200.000	0.056	0.268
-561.529	356.689	-0.060	0.119
-560.515	-130.239	0.253	0.034
-559.500	-168.647	0.208	0.008
-558.485	800.000	-0.068	-0.195
-557.471	79.422	0.167	-0.180
-556.456	-200.000	-0.033	0.169
-555.442	150.964	0.019	-0.026
-554.427	734.669	0.059	0.157
-553.412	-26.685	0.056	-0.033
-552.398	-49.107	0.237	0.114
-551.383	390.284	-0.054	-0.112
-550.369	-121.777	0.421	-0.070
-549.354	800.000	-0.035	0.119
-548.339	800.000	-0.036	-0.131
-547.325	-200.000	0.030	0.274
-546.310	-106.980	-0.352	0.078
-545.296	-29.134	-0.129	0.074
-544.281	800.000	0.024	0.098
-543.266	251.102	-0.012	-0.020
-542.252	-96.306	-0.097	-0.026
-541.237	182.654	-0.067	-0.099
-540.223	84.343	0.128	0.140
-539.208	-143.846	-0.076	-0.007
-538.193	800.000	-0.117	-0.326
-537.179	-200.000	0.048	-0.310
-536.164	777.155	-0.065	0.178
-535.150	197.571	-0.078	-0.119
-534.135	-85.867	0.231	0.072
-533.121	-28.304	-0.138	-0.080
-532.106	-200.000	0.007	-0.110
-531.091	-200.000	0.013	-0.132
-530.077	115.360	0.259	0.316
-529.062	-28.301	-0.261	-0.151
-528.048	800.000	0.021	0.070
-527.033	31.262	-0.156	0.134
-526.018	137.266	-0.283	-0.370
-525.004	-200.000	0.003	0.061
-523.989	800.000	-0.050	-0.193
-522.975	-200.000	0.010	0.069
-521.960	800.000	-0.031	0.096
-520.945	-129.769	-0.334	0.046
-519.931	800.000	-0.018	0.071
-518.916	-33.336	-0.081	-0.045
-517.902	550.948	0.025	0.059
-516.887	-200.000	-0.030	-0.291
-515.872	800.000	-0.014	0.052
-514.858	82.184	0.094	-0.102
-513.843	-150.705	-0.306	0.023
-512.829	-60.606	0.134	0.057
-511.814	26.608	0.140	0.118
-510.799	-98.991	0.235	-0.060
-509.785	-108.039	0.421	0.091
-508.770	29.846	0.090	0.076
-507.756	800.000	-0.085	0.303
-506.741	-46.299	0.205	0.101
-505.726	533.823	-0.103	-0.244
-504.712	94.347	0.103	-0.118
-503.697	-120.861	0.197	-0.033
-502.683	-21.420	-0.195	-0.119
-501.668	41.867	-0.096	0.087
-500.653	-112.678	-0.464	0.092
-499.639	-86.238	-0.197	0.061
-498.624	11.052	0.081	-0.062
-497.610	24.640	0.195	0.161
-496.595	418.501	-0.088	0.188
-495.581	781.404	-0.033	0.090
-494.566	262.964	0.144	0.251
-493.551	145.474	0.074	-0.099
-492.537	-200.000	0.052	-0.243
-491.522	-200.000	-0.003	-0.229
-490.508	-135.740	-0.302	0.036
-489.493	24.672	-0.157	-0.130
-488.478	800.000	-0.103	0.430
-487.464	-144.365	0.293	0.027
-486.449	-200.000	0.015	0.165
-485.435	-97.712	-0.060	-0.015
-484.420	-200.000	-0.013	-0.106
-483.405	-74.261	-0.130	-0.047
-482.391	-47.173	0.371	-0.181
-481.376	123.527	-0.078	0.098
-480.362	-139.516	-0.256	-0.027
-479.347	301.804	0.268	0.495
-478.332	-29.960	-0.327	0.187
-477.318	292.358	-0.119	-0.217
-476.303	253.314	0.186	-0.318
-475.289	392.009	-0.122	0.254
-474.274	-96.885	-0.137	-0.036
-473.259	778.997	-0.077	0.210
-472.245	-106.971	-0.157	-0.035
-471.230	-50.047	-0.309	-0.147
-470.216	-200.000	-0.058	0.381
-469.201	72.428	-0.227	-0.236
-468.186	-184.559	0.116	-0.002
-467.172	138.395	-0.051	-0.067
-466.157	98.501	0.222	0.256
-465.143	-44.693	0.149	-0.075
-464.128	-200.000	0.021	-0.302
-463.113	-91.530	0.289	0.082
-462.099	388.418	0.045	0.094
-461.084	27.141	-0.223	0.187
-460.070	-6.760	-0.081	0.055
-459.055	-37.432	0.154	0.082
-458.040	137.181	-0.015	0.019
-457.026	-187.142	0.093	0.001
-456.011	-130.096	0.170	-0.023
-454.997	-36.146	0.171	0.092
-453.982	800.000	0.069	-0.235
-452.968	-40.649	0.071	0.037
-451.953	-200.000	-0.017	-0.228
-450.938	-200.000	0.018	0.191
-449.924	288.096	0.185	-0.335
-448.909	-189.580	-0.057	-0.001
-447.895	-33.899	0.349	0.192
-446.880	-97.093	0.331	0.086
-445.865	-162.284	-0.123	0.006
-444.851	-200.000	0.032	0.349
-443.836	-187.594	-0.105	0.001
-442.822	365.275	0.038	0.076
-441.807	-48.679	0.190	-0.091
-440.792	-100.727	-0.086	0.021
-439.778	-200.000	-0.012	0.230
-438.763	-153.695	0.277	-0.019
-437.749	-87.334	0.171	-0.052
-436.734	432.165	-0.060	-0.131
-435.719	-138.649	0.226	-0.025
-434.705	28.899	-0.318	-0.269
-433.690	-20.132	0.143	-0.088
-432.676	36.382	-0.153	-0.135
-431.661	800.000	0.062	0.221
-430.646	62.676	-0.122	0.121
-429.632	800.000	-0.080	-0.225
-428.617	-90.588	0.105	-0.030
-427.603	-65.864	0.197	0.079
-426.588	83.234	-0.076	0.083
-425.573	-64.383	-0.221	-0.090
-424.559	-200.000	0.060	-0.284
-423.544	800.000	0.047	0.152
-422.530	-88.444	-0.192	-0.057
-421.515	43.896	0.193	0.176
-420.500	8.145	0.291	-0.218
-419.486	-150.296	-0.331	-0.025
-418.471	53.558	-0.075	-0.072
-417.457	-23.368	0.258	-0.155
-416.442	-8.798	-0.151	-0.101
-415.428	-28.741	0.041	0.023
-414.413	-67.721	0.071	0.028
-413.398	-5.941	0.127	-0.087
-412.384	-200.000	-0.015	-0.370
-411.369	58.292	0.154	0.150
-410.355	-136.348	0.188	0.022
-409.340	-200.000	0.037	-0.208
-408.325	-200.000	-0.007	-0.424
-407.311	-168.184	0.493	-0.019
-406.296	-187.891	-0.417	-0.005
-405.282	-185.312	-0.209	-0.003
-404.267	-59.203	0.305	-0.131
-403.252	-200.000	0.008	0.045
-402.238	-15.927	0.142	0.090
-401.223	800.000	0.026	0.074
-400.209	-179.069	-0.587	0.013
-399.194	16.272	-0.143	-0.113
-398.179	3.614	-0.071	-0.052
-397.165	627.318	0.037	0.093
-396.150	306.670	-0.180	-0.335
-395.136	-82.056	0.145	0.047
-394.121	-60.497	-0.223	0.094
-393.106	39.653	0.128	0.115
-392.092	-200.000	-0.010	-0.044
-391.077	-200.000	-0.012	-0.080
-390.063	-16.913	0.271	-0.170
-389.048	388.926	-0.076	0.158
-388.033	-15.476	-0.101	0.064
-387.019	-200.000	-0.019	0.217
-386.004	423.992	0.097	0.207
-384.990	-146.782	0.202	0.017
-383.975	219.615	0.175	-0.280
-382.960	248.616	-0.107	0.181
-381.946	800.000	-0.037	-0.113
-380.931	-200.000	-0.001	-0.009
-379.917	-49.200	0.155	-0.074
-378.902	-144.041	-0.262	0.025
-377.888	-55.303	-0.002	-0.001
-376.873	360.955	0.138	0.275
-375.858	32.358	0.065	0.056
-374.844	162.593	0.228	0.319
-373.829	-200.000	-0.006	-0.201
-372.815	81.081	0.034	0.036
-371.800	201.638	-0.098	0.150
-370.785	294.360	-0.100	0.182
-369.771	-35.828	-0.354	0.191
-368.756	-200.000	-0.030	-0.155
-367.742	-200.000	0.009	0.112
-366.727	800.000	0.056	0.232
-365.712	-185.346	0.140	-0.002
-364.698	507.966	-0.030	0.069
-363.683	-89.413	-0.169	-0.049
-362.669	-139.447	-0.215	0.023
-361.654	-200.000	0.002	-0.091
-360.639	-112.236	-0.175	-0.035
-359.625	-98.190	-0.310	-0.079
-358.610	-200.000	-0.069	-0.509
-357.596	-200.000	0.020	-0.155
-356.581	-145.514	0.160	-0.014
-355.566	19.985	-0.312	-0.250
-354.552	-79.338	0.147	0.050
-353.537	-200.000	-0.059	0.446
-352.523	-65.511	-0.053	0.021
-351.508	-107.151	-0.196	0.043
-350.493	-78.794	0.087	-0.030
-349.479	-91.916	-0.440	0.124
-348.464	-31.559	0.088	-0.049
-347.450	-80.041	0.201	0.067
-346.435	17.109	-0.054	0.042
-345.420	47.460	-0.116	0.107
-344.406	-100.984	0.049	0.012
-343.391	-120.389	-0.152	0.026
-342.377	-200.000	-0.013	-0.114
-341.362	397.303	-0.054	-0.113
-340.348	-45.406	0.219	-0.108
-339.333	528.944	0.055	0.129
-338.318	-80.541	0.140	-0.046
-337.304	800.000	0.033	0.119
-336.289	800.000	-0.075	0.220
-335.275	-146.286	0.319	0.028
-334.260	109.185	0.149	-0.178
-333.245	-126.892	-0.333	0.049
-332.231	-106.676	0.436	-0.097
-331.216	800.000	-0.015	0.054
-330.202	-44.974	0.271	-0.134
-329.187	-3.470	0.184	0.128
-328.172	-200.000	0.010	0.067
-327.158	-200.000	0.028	-0.176
-326.143	116.154	-0.115	-0.140
-325.129	-200.000	0.014	-0.186
-324.114	-88.171	-0.115	0.034
-323.099	-200.000	0.005	-0.193
-322.085	51.855	0.169	-0.160
-321.070	-100.175	-0.099	-0.025
-320.056	800.000	-0.060	-0.168
-319.041	17.010	0.260	0.205
-318.026	-68.279	-0.230	0.089
-317.012	-120.407	0.257	-0.044
-315.997	-72.899	-0.675	-0.246
-314.983	-59.623	-0.174	-0.074
-313.968	-65.928	-0.107	-0.043
-312.953	-200.000	0.003	0.152
-311.939	800.000	-0.062	-0.191
-310.924	473.746	-0.101	-0.227
-309.910	-31.636	-0.462	0.258
-308.895	31.691	0.480	0.411
-307.880	800.000	0.051	-0.167
-306.866	148.670	-0.055	0.074
-305.851	-54.060	-0.134	0.061
-304.837	-105.103	0.122	-0.028
-303.822	-200.000	0.004	0.152
-302.807	122.725	-0.070	-0.087
-301.793	-200.000	0.015	-0.156
-300.778	-24.736	0.161	-0.095
-299.764	800.000	0.066	-0.247
-298.749	236.721	-0.062	0.102
-297.735	-35.985	0.295	-0.159
-296.720	375.560	-0.222	-0.450
-295.705	-147.890	0.184	-0.015
-294.691	-200.000	0.021	0.243
-293.676	-115.170	0.083	0.016
-292.662	800.000	0.034	0.142
-291.647	238.312	-0.140	0.231
-290.632	37.701	0.068	0.060
-289.618	85.612	0.100	0.109
-288.603	195.574	0.070	-0.105
-287.589	-123.659	-0.269	0.042
-286.574	-115.134	0.320	-0.060
-285.559	-21.065	0.201	0.122
-284.545	250.051	0.053	-0.090
-283.530	-151.783	-0.144	-0.010
-282.516	0.657	0.223	-0.158
-281.501	4.647	0.145	0.106
-280.486	74.388	-0.074	0.077
-279.472	-151.490	0.249	0.018
-278.457	312.190	0.064	0.119
-277.443	44.848	0.102	0.093
-276.428	648.669	-0.016	-0.040
-275.413	-118.365	0.122	0.022
-274.399	-66.855	-0.125	0.049
-273.384	-200.000	-0.026	0.179
-272.370	-200.000	0.042	0.377
-271.355	-101.640	0.176	-0.042
-270.340	8.490	-0.232	-0.173
-269.326	-200.000	0.014	0.155
-268.311	-89.864	0.083	-0.024
-267.297	-3.921	0.225	-0.155
-266.282	-200.000	-0.013	-0.123
-265.267	-110.395	-0.134	-0.028
-264.253	-84.714	-0.074	-0.023
-263.238	-12.499	-0.385	-0.250
-262.224	97.509	-0.139	-0.158
-261.209	-72.529	-0.240	-0.088
-260.195	55.381	0.199	-0.191
-259.180	96.350	0.099	0.112
-258.165	-73.831	-0.056	0.020
-257.151	-18.171	-0.233	0.144
-256.136	800.000	-0.053	0.165
-255.122	800.000	-0.044	0.130
-254.107	-136.675	0.069	-0.008
-253.092	-95.554	0.341	-0.091
-252.078	68.033	-0.014	0.014
-251.063	-164.668	0.108	-0.005
-250.049	800.000	-0.048	-0.144
-249.034	-175.884	-0.194	-0.005
-248.019	800.000	0.126	-0.420
-247.005	-37.961	-0.333	0.175
-245.990	800.000	0.021	-0.081
-244.976	85.072	-0.071	0.077
-243.961	691.371	0.123	0.320
-242.946	-135.175	0.322	0.038
-241.932	43.950	-0.145	-0.131
-240.917	800.000	-0.031	0.127
-239.903	488.708	0.050	0.112
-238.888	800.000	0.069	-0.239
-237.873	-91.149	0.484	-0.137
-236.859	-111.326	0.089	0.018
-235.844	346.141	0.143	0.278
-234.830	-120.996	0.234	-0.039
-233.815	-168.671	-0.358	0.013
-232.800	242.531	-0.126	-0.209
-231.786	359.964	-0.040	-0.080
-230.771	-93.166	-0.139	-0.038
-229.757	-30.188	0.141	0.079
-228.742	-91.418	0.281	0.080
-227.727	-200.000	0.052	0.313
-226.713	-31.530	-0.201	-0.112
-225.698	-104.772	0.263	0.060
-224.684	111.311	0.079	0.094
-223.669	205.383	0.079	0.122
-222.655	-114.842	-0.246	-0.046
-221.640	629.318	-0.136	-0.342
-220.625	20.227	0.380	-0.303
-219.611	244.087	0.155	-0.258
-218.596	-200.000	-0.016	-0.179
-217.582	-103.736	0.218	-0.051
-216.567	-24.327	-0.142	-0.084
-215.552	499.661	-0.134	-0.306
-214.538	-59.231	0.315	0.134
-213.523	-200.000	-0.045	-0.284
-212.509	-187.210	-0.147	0.002
-211.494	53.353	0.217	0.206
-210.479	-171.524	-0.165	-0.005
-209.465	-71.021	0.602	-0.224
-208.450	-200.000	-0.035	0.166
-207.436	-105.295	0.082	-0.018
-206.421	-87.913	-0.276	0.082
-205.406	-86.712	0.433	-0.131
-204.392	161.748	-0.116	-0.161
-203.377	-72.499	-0.150	0.055
-202.363	95.518	0.018	0.020
-201.348	-148.737	-0.199	0.016
-200.333	-138.286	0.150	-0.016
-199.319	-200.000	0.015	0.190
-198.304	800.000	0.039	0.110
-197.290	498.548	-0.106	-0.242
-196.275	-200.000	-0.017	-0.151
-195.260	800.000	-0.058	-0.165
-194.246	247.730	-0.074	0.123
-193.231	620.249	-0.065	0.162
-192.217	800.000	-0.106	0.456
-191.202	119.458	0.160	0.196
-190.187	-0.622	-0.053	0.037
-189.173	167.495	0.289	0.406
-188.158	-200.000	0.000	0.300
-187.144	-13.016	-0.182	0.117
-186.129	77.955	-0.119	0.126
-185.114	423.585	0.094	0.199
-184.100	-91.416	-0.311	0.088
-183.085	-200.000	0.153	0.001
-182.071	-200.000	0.021	0.399
-181.056	102.879	-0.220	0.254
-180.042	-84.557	-0.080	0.025
-179.027	515.206	-0.188	-0.435
-178.012	-159.247	0.156	0.009
-176.998	-139.318	0.047	0.005
-175.983	152.259	0.135	0.183
-174.969	18.755	-0.190	0.150
-173.954	-55.758	0.130	-0.057
-172.939	43.031	0.046	0.041
-171.925	-200.000	0.026	-0.124
-170.910	-42.469	-0.136	0.069
-169.896	-164.048	-0.260	0.012
-168.881	263.769	-0.119	-0.204
-167.866	-28.323	-0.336	-0.191
-166.852	-102.082	-0.413	-0.098
-165.837	-200.000	0.009	0.117
-164.823	-122.758	-0.362	-0.058
-163.808	-118.935	-0.106	0.018
-162.793	-117.372	-0.102	0.018
-161.779	-200.000	0.003	0.088
-160.764	800.000	-0.053	0.148
-159.750	408.541	-0.159	-0.331
-158.735	-113.592	0.268	0.052
-157.720	800.000	0.131	0.447
-156.706	-29.048	0.266	0.151
-155.691	-200.000	-0.038	-0.393
-154.677	-200.000	0.039	-0.182
-153.662	69.627	0.139	0.141
-152.647	45.314	0.218	0.199
-151.633	126.605	0.171	0.214
-150.618	-200.000	-0.033	0.178
-149.604	-200.000	-0.003	0.097
-148.589	800.000	-0.038	-0.128
-147.574	-8.529	-0.335	0.222
-146.560	-200.000	0.067	-0.410
-145.545	-153.470	-0.055	0.004
-144.531	508.751	0.067	0.154
-143.516	-127.470	0.052	0.007
-142.502	800.000	-0.025	-0.088
-141.487	54.876	0.184	-0.175
-140.472	31.217	-0.148	-0.125
-139.458	800.000	0.126	0.381
-138.443	-16.897	0.060	-0.037
-137.429	-200.000	0.097	-0.492
-136.414	247.280	-0.080	-0.134
-135.399	-200.000	0.010	-0.365
-134.385	67.501	0.113	-0.114
-133.370	167.646	-0.159	0.223
-132.356	-140.017	0.225	-0.023
-131.341	-200.000	-0.035	-0.223
-130.326	-63.447	-0.310	0.126
-129.312	-24.135	-0.305	0.180
-128.297	23.043	-0.141	-0.114
-127.283	-38.436	-0.239	-0.125
-126.268	259.036	0.111	0.189
-125.253	-54.730	0.115	0.051
-124.239	-68.808	-0.162	-0.062
-123.224	-200.000	0.046	0.202
-122.210	458.651	0.092	0.202
-121.195	-200.000	-0.008	0.066
-120.180	-66.839	-0.300	0.117
-119.166	135.714	-0.198	0.255
-118.151	-125.264	0.180	0.027
-117.137	-118.633	-0.277	0.048
-116.122	-118.737	0.070	-0.012
-115.107	422.921	0.040	0.085
-114.093	319.601	-0.119	0.222
-113.078	-31.722	0.289	-0.160
-112.064	-50.760	-0.214	-0.099
-111.049	-42.852	0.332	0.166
-110.034	7.775	0.015	-0.011
-109.020	-200.000	-0.008	-0.070
-108.005	-200.000	-0.017	0.275
-106.991	680.135	0.154	0.396
-105.976	-75.472	0.052	-0.018
-104.962	170.491	-0.175	0.247
-103.947	-82.199	-0.136	0.044
-102.932	106.307	0.141	-0.165
-101.918	-200.000	-0.031	0.157
-100.903	-44.722	0.122	0.060
-99.889	487.932	-0.121	-0.273
-98.874	284.948	-0.101	0.180
-97.859	-5.147	0.160	0.109
-96.845	-173.687	0.154	-0.005
-95.830	-104.088	0.393	-0.090
-94.816	-64.649	0.275	-0.110
-93.801	-29.372	0.369	-0.208
-92.786	355.034	0.083	-0.162
-91.772	84.774	-0.117	0.126
-90.757	-49.298	0.183	0.086
-89.743	-200.000	0.078	-0.571
-88.728	-49.013	0.077	0.036
-87.713	326.498	-0.094	0.177
-86.699	-9.355	0.396	0.260
-85.684	-70.097	-0.124	0.046
-84.670	653.558	0.072	-0.182
-83.655	-200.000	0.025	-0.378
-82.640	-200.000	0.022	-0.212
-81.626	800.000	0.098	-0.269
-80.611	-200.000	0.000	-0.108
-79.597	-4.181	-0.233	0.159
-78.582	797.246	0.069	0.187
-77.567	-86.968	-0.364	0.109
-76.553	501.140	-0.062	-0.140
-75.538	800.000	-0.042	0.164
-74.524	-200.000	-0.001	-0.035
-73.509	60.316	-0.345	0.336
-72.494	65.826	-0.142	-0.141
-71.480	51.547	-0.100	0.094
-70.465	-13.370	-0.159	-0.102
-69.451	-80.444	0.262	0.086
-68.436	160.918	0.308	0.424
-67.422	204.187	0.058	-0.089
-66.407	-53.862	0.123	0.055
-65.392	-104.626	0.272	-0.062
-64.378	52.681	-0.202	0.190
-63.363	29.087	0.190	0.158
-62.349	-181.278	-0.064	0.001
-61.334	-13.373	-0.942	-0.601
-60.319	335.571	0.439	0.838
-59.305	-200.000	0.009	-0.907
-58.290	683.732	0.606	1.555
-57.276	800.000	0.607	1.807
-56.261	-200.000	97.684	602.923
-55.246	618.137	1389.393	3431.696
-54.232	195.562	2570.013	3842.472
-53.217	119.623	2139.786	2606.960
-52.203	43.541	1597.169	1436.422
-51.188	35.010	1333.420	1148.271
-50.173	31.826	1291.549	1093.625
-49.159	54.802	1340.348	1271.934
-48.144	56.682	1356.432	1298.292
-47.130	35.172	1314.605	1132.847
-46.115	31.732	1296.938	1097.466
-45.100	31.502	1292.450	1092.280
-44.086	31.356	1289.872	1089.205
-43.071	31.348	1287.520	1087.130
-42.057	31.395	1285.330	1085.511
-41.042	31.320	1284.088	1083.987
-40.027	31.447	1282.480	1083.323
-39.013	31.351	1280.352	1080.925
-37.998	31.383	1279.022	1079.945
-36.984	31.544	1276.809	1078.959
-35.969	31.467	1275.217	1077.130
-34.954	31.564	1273.593	1076.276
-33.940	31.609	1272.035	1075.171
-32.925	31.493	1271.046	1073.629
-31.911	31.529	1269.876	1072.804
-30.896	31.603	1268.198	1071.765
-29.881	31.622	1266.733	1070.596
-28.867	31.596	1265.453	1069.323
-27.852	31.668	1264.014	1068.475
-26.838	31.644	1262.271	1066.824
-25.823	31.641	1260.953	1065.646
-24.809	31.541	1260.105	1064.323
-23.794	31.541	1258.578	1062.992
-22.779	31.602	1257.046	1061.999
-21.765	31.605	1255.949	1061.045
-20.750	31.479	1254.840	1059.355
-19.736	31.514	1253.362	1058.264
-18.721	31.410	1252.283	1056.722
-17.706	31.453	1251.381	1056.163
-16.692	31.487	1249.765	1054.945
-15.677	31.504	1248.297	1053.763
-14.663	31.444	1247.299	1052.543
-13.648	31.488	1246.336	1051.932
-12.633	31.488	1245.724	1051.372
-11.619	31.454	1244.997	1050.527
-10.604	31.463	1243.911	1049.624
-9.590	31.376	1243.240	1048.525
-8.575	31.417	1242.021	1047.683
-7.560	31.496	1241.218	1047.410
-6.546	31.351	1240.429	1045.891
-5.531	31.412	1239.860	1045.709
-4.517	31.398	1238.531	1044.472
-3.502	31.476	1237.819	1044.264
-2.487	31.385	1236.812	1042.865
-1.473	31.429	1232.599	1039.517
-0.458	29.873	1217.364	1018.076
0.556	25.091	1200.316	980.601
1.571	21.313	1203.931	962.699
2.586	20.311	1218.742	968.862
3.600	19.772	1207.944	957.212
4.615	15.127	1137.798	877.269
5.629	7.827	1066.089	785.962
6.644	4.630	1047.051	756.328
7.659	4.597	1044.285	754.101
8.673	4.486	1043.667	753.050
9.688	4.447	1042.314	751.819
10.702	4.528	1040.638	750.937
11.717	8.601	1045.545	774.152
12.731	15.447	1055.511	814.802
13.746	18.415	1058.584	831.527
14.761	17.967	1057.279	828.259
15.775	16.837	1055.249	821.125
16.790	15.760	1053.028	814.112
17.804	15.038	1051.732	809.550
18.819	14.854	1050.097	807.328
19.834	14.595	1049.546	805.581
20.848	14.402	1048.760	803.979
21.863	14.017	1047.621	801.177
22.877	13.800	1047.530	799.993
23.892	13.865	1046.614	799.536
24.907	13.926	1045.901	799.211
25.921	13.952	1044.739	798.380
26.936	14.054	1043.503	797.853
27.950	14.144	1041.989	797.057
28.965	14.089	1040.498	795.580
29.980	14.235	1039.297	795.289
30.994	14.327	1037.925	794.610
32.009	14.336	1036.912	793.808
33.023	14.253	1036.055	792.686
34.038	14.166	1034.969	791.369
35.053	14.152	1033.947	790.451
36.067	14.035	1033.238	789.284
37.082	14.084	1032.554	788.927
38.096	14.215	1031.659	788.790
39.111	14.178	1031.129	788.141
40.126	14.048	1029.862	786.487
41.140	13.992	1028.398	785.035
42.155	13.864	1026.878	783.201
43.169	13.848	1026.006	782.393
44.184	13.966	1024.802	781.961
45.199	13.858	1024.288	780.994
46.213	13.913	1023.241	780.384
47.228	13.959	1022.322	779.829
48.242	13.991	1021.299	779.131
49.257	14.054	1020.001	778.368
50.271	14.185	1019.421	778.466
51.286	14.051	1018.854	777.338
52.301	14.052	1017.400	776.168
53.315	14.055	1016.558	775.467
54.330	13.894	1015.297	773.688
55.344	13.940	1014.881	773.517
56.359	14.002	1013.878	772.971
57.374	13.894	1012.867	771.630
58.388	13.901	1011.723	770.723
59.403	13.858	1011.256	770.099
60.417	13.986	1010.219	769.835
61.432	13.860	1009.520	768.651
62.447	13.770	1009.025	767.791
63.461	13.691	1007.985	766.565
64.476	13.824	1007.144	766.471
65.490	13.758	1006.241	765.415
66.505	13.677	1005.426	764.353
67.520	13.834	1005.191	764.828
68.534	13.727	1004.427	763.685
69.549	13.807	1003.389	763.196
70.563	13.775	1002.548	762.342
71.578	13.694	1002.199	761.639
72.593	13.734	1000.655	760.584
73.607	13.732	1000.247	760.197
74.622	13.630	999.863	759.367
75.636	13.725	999.220	759.247
76.651	13.743	998.598	758.790
77.666	13.627	998.085	757.802
78.680	13.762	997.572	757.967
79.695	13.731	996.789	757.162
80.709	13.881	996.064	757.227
81.724	13.942	995.396	756.928
82.739	13.977	994.610	756.424
83.753	14.069	994.088	756.378
84.768	14.251	992.938	756.263
85.782	14.163	992.366	755.361
86.797	14.215	991.267	754.695
87.812	14.113	990.153	753.316
88.826	14.023	989.457	752.314
89.841	14.076	988.353	751.648
90.855	14.298	987.395	751.857
91.870	14.201	986.421	750.608
92.884	14.167	986.037	750.098
93.899	14.245	985.073	749.652
94.914	14.158	984.122	748.469
95.928	14.315	983.278	748.468
96.943	14.247	982.541	747.534
97.957	14.212	982.204	747.053
98.972	14.141	981.035	745.780
99.987	14.214	980.310	745.492
101.001	14.210	979.081	744.471
102.016	14.117	978.350	743.433
103.030	14.265	977.227	743.177
104.045	14.222	976.852	742.631
105.060	14.074	976.062	741.306
106.074	14.015	974.714	739.952
107.089	13.894	973.726	738.603
108.103	13.921	972.822	737.969
109.118	13.867	972.005	737.046
110.133	13.800	971.196	736.067
111.147	13.899	969.979	735.518
112.162	13.842	969.901	735.145
113.176	13.932	968.850	734.679
114.191	13.959	967.839	733.968
115.206	14.028	967.171	733.701
116.220	14.108	966.172	733.232
117.235	13.890	965.510	731.702
118.249	13.879	965.061	731.251
119.264	13.965	964.208	730.918
120.279	13.934	963.296	730.026
121.293	13.832	962.415	728.845
122.308	13.924	961.553	728.533
123.322	13.915	959.949	727.210
124.337	13.910	959.294	726.630
125.352	13.823	958.467	725.556
126.366	13.845	957.548	724.895
127.381	13.874	956.540	724.195
128.395	13.927	955.456	723.538
129.410	13.902	954.821	722.886
130.424	14.059	953.750	722.695
131.439	14.049	953.097	722.090
132.454	14.071	952.751	721.861
133.468	14.016	951.753	720.805
134.483	14.025	951.146	720.320
135.497	14.067	949.977	719.552
136.512	14.115	949.079	719.017
137.527	14.107	948.152	718.214
138.541	14.183	947.574	718.041
139.556	14.093	946.873	717.058
140.570	14.226	946.526	717.304
141.585	14.298	945.556	716.815
142.600	14.334	944.488	716.099
143.614	14.292	944.220	715.651
144.629	14.266	943.657	715.049
145.643	14.373	942.214	714.353
146.658	14.170	941.417	712.814
147.673	14.172	940.055	711.729
148.687	14.080	939.722	711.019
149.702	14.215	938.310	710.467
150.716	14.097	938.179	709.800
151.731	14.113	937.245	709.098
152.746	14.029	936.860	708.386
153.760	14.209	935.947	708.401
154.775	14.159	935.863	708.061
155.789	14.333	934.730	707.879
156.804	14.246	934.505	707.280
157.819	14.369	933.441	706.932
158.833	14.322	932.851	706.224
159.848	14.390	932.085	705.870
160.862	14.405	931.055	705.088
161.877	14.308	929.794	703.662
162.892	14.237	928.823	702.567
163.906	14.103	928.456	701.659
164.921	14.151	927.508	701.084
165.935	14.189	926.684	700.558
166.950	14.301	925.858	700.347
167.964	14.353	924.877	699.761
168.979	14.204	924.109	698.490
169.994	14.165	923.308	697.659
171.008	14.281	922.552	697.514
172.023	14.432	921.754	697.478
173.037	14.507	920.840	697.038
174.052	14.440	920.214	696.223
175.067	14.333	919.606	695.256
176.081	14.162	919.254	694.216
177.096	14.297	918.708	694.305
178.110	14.314	918.004	693.780
179.125	14.398	917.340	693.566
180.140	14.282	917.371	693.045
181.154	14.406	916.856	693.114
182.169	14.503	915.977	692.790
183.183	14.540	915.445	692.482
184.198	14.594	914.379	691.835
185.213	14.724	913.690	691.793
186.227	14.632	913.380	691.115
187.242	14.522	912.850	690.197
188.256	14.711	912.112	690.362
189.271	14.637	911.380	689.440
190.286	14.544	910.444	688.286
191.300	14.288	909.788	686.675
192.315	14.266	909.427	686.250
193.329	14.384	908.637	686.078
194.344	14.394	907.993	685.574
195.359	14.610	907.312	685.889
196.373	14.765	906.684	685.989
197.388	14.576	906.847	685.275
198.402	14.749	905.996	685.281
199.417	14.772	905.324	684.806
200.432	14.874	904.908	684.847
201.446	15.052	904.001	684.828
202.461	14.992	904.216	684.687
203.475	14.961	903.465	683.930
204.490	14.828	902.055	682.261
205.504	14.621	901.966	681.285
206.519	14.728	901.304	681.162
207.534	14.771	900.631	680.768
208.548	14.854	899.788	680.408
209.563	14.841	899.203	679.856
210.577	14.898	898.517	679.505
211.592	14.990	897.777	679.259
212.607	14.988	896.753	678.420
213.621	14.845	896.396	677.507
214.636	14.937	895.688	677.285
215.650	14.883	895.044	676.519
216.665	14.975	894.497	676.417
217.680	14.997	893.974	676.052
218.694	15.080	893.244	675.774
219.709	14.967	892.401	674.622
220.723	15.130	891.722	674.705
221.738	15.167	890.788	674.090
222.753	15.055	890.317	673.223
223.767	15.189	889.619	673.174
224.782	15.284	889.403	673.333
225.796	15.237	888.887	672.694
226.811	15.198	887.950	671.769
227.826	15.235	887.521	671.531
228.840	15.136	886.443	670.261
229.855	15.252	885.655	670.069
230.869	15.140	885.331	669.318
231.884	14.938	884.742	668.008
232.899	15.030	884.070	667.806
233.913	15.086	883.082	667.224
234.928	15.026	882.400	666.410
235.942	15.070	881.813	666.085
236.957	15.069	881.602	665.861
237.972	15.009	881.345	665.372
238.986	15.030	880.220	664.547
240.001	14.963	879.662	663.798
241.015	15.100	879.039	663.815
242.030	15.213	878.276	663.626
243.045	15.254	877.442	663.101
244.059	15.104	877.212	662.273
245.074	15.301	876.193	662.223
246.088	15.316	876.095	662.150
247.103	15.300	875.722	661.746
248.117	15.449	874.981	661.715
249.132	15.531	874.438	661.572
250.147	15.662	874.053	661.737
251.161	15.577	873.097	660.618
252.176	15.778	872.466	660.873
253.190	15.702	872.016	660.175
254.205	15.735	871.593	659.928
255.220	15.645	870.744	658.872
256.234	15.784	869.898	658.720
257.249	15.825	869.484	658.507
258.263	15.688	868.758	657.365
259.278	15.747	868.088	657.031
260.293	15.814	867.405	656.716
261.307	15.778	867.232	656.386
262.322	15.859	865.997	655.708
263.336	15.853	865.512	655.261
264.351	15.824	864.888	654.617
265.366	15.906	864.134	654.307
266.380	15.835	863.607	653.575
267.395	15.735	863.195	652.817
268.409	15.891	862.090	652.526
269.424	15.899	861.176	651.807
270.439	15.785	860.997	651.173
271.453	15.692	859.982	649.988
272.468	15.773	859.461	649.852
273.482	15.850	859.043	649.776
274.497	15.803	858.590	649.192
275.512	16.011	857.627	649.208
276.526	15.931	857.341	648.627
277.541	15.830	857.192	648.070
278.555	15.975	856.178	647.801
279.570	16.043	856.091	647.939
280.585	16.041	855.239	647.229
281.599	15.889	854.188	645.794
282.614	15.976	853.348	645.437
283.628	16.058	852.807	645.285
284.643	16.006	852.237	644.597
285.657	15.995	852.002	644.317
286.672	16.044	851.402	643.996
287.687	16.117	850.499	643.533
288.701	16.067	850.203	643.061
289.716	16.052	849.285	642.255
290.730	16.077	849.295	642.299
291.745	16.211	848.281	641.986
292.760	16.300	847.598	641.750
293.774	16.208	847.050	640.929
294.789	16.198	846.896	640.719
295.803	16.059	845.872	639.361
296.818	16.009	845.606	638.912
297.833	16.168	844.635	638.723
298.847	16.254	843.960	638.482
299.862	16.209	843.347	637.791
300.876	16.313	842.559	637.533
301.891	16.318	842.355	637.342
302.906	16.401	842.171	637.457
303.920	16.409	841.676	637.059
304.935	16.381	840.980	636.369
305.949	16.407	840.107	635.752
306.964	16.371	839.745	635.286
307.979	16.412	839.089	634.887
308.993	16.537	838.251	634.667
310.008	16.551	837.808	634.326
311.022	16.497	837.031	633.481
312.037	16.443	837.035	633.225
313.052	16.338	836.233	632.168
314.066	16.267	835.482	631.279
315.081	16.327	835.229	631.255
316.095	16.338	834.475	630.672
317.110	16.373	833.835	630.264
318.125	16.344	833.364	629.742
319.139	16.306	833.173	629.401
320.154	16.454	832.454	629.352
321.168	16.536	831.801	629.111
322.183	16.547	830.957	628.455
323.197	16.477	830.672	627.926
324.212	16.608	830.329	628.097
325.227	16.385	829.822	626.831
326.241	16.457	828.960	626.391
327.256	16.460	828.572	626.054
328.270	16.561	827.756	625.755
329.285	16.617	827.201	625.486
330.300	16.630	826.741	625.133
331.314	16.475	826.700	624.473
332.329	16.716	825.983	624.763
333.343	16.673	825.546	624.221
334.358	16.671	825.481	624.110
335.373	16.573	825.080	623.389
336.387	16.623	824.902	623.386
337.402	16.768	824.443	623.514
338.416	16.804	824.060	623.305
339.431	16.818	823.536	622.902
340.446	16.775	823.236	622.463
341.460	16.853	822.591	622.205
342.475	16.840	822.575	622.090
343.489	16.940	822.012	621.980
344.504	17.116	821.391	622.097
345.519	17.063	821.085	621.617
346.533	16.951	820.628	620.805
347.548	16.994	819.831	620.304
348.562	17.040	819.067	619.839
349.577	16.771	818.697	618.523
350.592	16.926	818.245	618.692
351.606	16.912	817.314	617.881
352.621	16.954	816.667	617.493
353.635	16.872	816.357	616.904
354.650	16.895	815.600	616.362
355.665	16.985	814.850	616.068
356.679	16.935	814.272	615.396
357.694	17.026	813.643	615.193
358.708	17.173	812.853	615.076
359.723	17.022	812.680	614.344
360.738	17.032	812.202	613.963
361.752	17.096	811.580	613.671
362.767	17.226	811.147	613.760
363.781	17.228	810.662	613.345
364.796	17.317	809.866	613.008
365.810	17.404	809.470	612.970
366.825	17.274	809.623	612.563
367.840	17.316	809.287	612.404
368.854	17.366	808.262	611.756
369.869	17.357	808.148	611.582
370.883	17.392	807.472	611.142
371.898	17.217	807.567	610.531
372.913	17.443	806.827	610.728
373.927	17.244	806.103	609.413
374.942	17.475	805.759	609.928
375.956	17.348	805.504	609.224
376.971	17.527	804.930	609.379
377.986	17.663	804.314	609.343
379.000	17.654	803.876	608.925
380.015	17.578	803.765	608.516
381.029	17.625	803.261	608.249
382.044	17.663	802.377	607.660
383.059	17.694	801.622	607.145
384.073	17.601	801.419	606.605
385.088	17.560	800.604	605.791
386.102	17.441	800.468	605.211
387.117	17.586	799.662	605.065
388.132	17.480	799.021	604.149
389.146	17.646	798.660	604.409
390.161	17.650	798.150	603.985
391.175	17.581	797.931	603.522
392.190	17.506	797.597	602.949
393.205	17.491	796.668	602.142
394.219	17.430	796.284	601.582
395.234	17.615	795.863	601.866
396.248	17.506	795.662	601.276
397.263	17.634	795.130	601.271
398.278	17.545	794.470	600.403
399.292	17.526	794.181	600.066
400.307	17.639	793.419	599.836
401.321	17.391	793.298	598.816
402.336	17.592	792.901	599.170
403.350	17.540	792.343	598.515
404.365	17.620	792.240	598.666
405.380	17.791	791.588	598.720
406.394	17.916	791.244	598.846
407.409	17.883	790.690	598.257
408.423	18.120	790.098	598.584
409.438	18.029	789.810	597.998
410.453	18.138	789.482	598.076
411.467	18.017	789.244	597.419
412.482	18.177	788.827	597.611
413.496	18.197	788.348	597.264
414.511	18.045	788.265	596.620
415.526	18.085	787.472	596.105
416.540	17.989	787.123	595.453
417.555	18.167	786.571	595.603
418.569	18.101	786.542	595.297
419.584	18.160	786.051	595.079
420.599	18.097	785.541	594.422
421.613	156.626	1370.023	1795.226
422.628	135.338	1455.200	1795.325
